! Initial file:   D:\ZAKARY_OUAIL\MA_THESE\Deuxième_année_de_thèse\DRX\Manips_DRX\1st_NaTaO2F2_XRK900\NaTaO2F2-Lent_100°C.xrdml
! Initial format:  58
! WAVE (A):      1.54060     1.54060     1.00000
! REM : data have been multiplied by     1.0000
! X_data : 2 Theta (deg.)                                                                                                                                                                                                                                                  
! Y_data : Intensity (arb. units)                                                                                                                                                                                                                                          
!     X         Y
!--------------------------------------------------------------------------------
    10.0116     7149.00000
    10.0247     7167.00000
    10.0379     7013.00000
    10.0510     6916.00000
    10.0641     7047.00000
    10.0772     7064.00000
    10.0904     7027.00000
    10.1035     6989.00000
    10.1166     6938.00000
    10.1298     6908.00000
    10.1429     6928.00000
    10.1560     6986.00000
    10.1692     6933.00000
    10.1823     7182.00000
    10.1954     6898.00000
    10.2086     6917.00000
    10.2217     6912.00000
    10.2348     6802.00000
    10.2479     7003.00000
    10.2611     6887.00000
    10.2742     7009.00000
    10.2873     7067.00000
    10.3005     6837.00000
    10.3136     6840.00000
    10.3267     6878.00000
    10.3399     6747.00000
    10.3530     6912.00000
    10.3661     6893.00000
    10.3792     6889.00000
    10.3924     6894.00000
    10.4055     6855.00000
    10.4186     6841.00000
    10.4318     6777.00000
    10.4449     6815.00000
    10.4580     6941.00000
    10.4712     6791.00000
    10.4843     6825.00000
    10.4974     6866.00000
    10.5105     6842.00000
    10.5237     6762.00000
    10.5368     6715.00000
    10.5499     6744.00000
    10.5631     6673.00000
    10.5762     6805.00000
    10.5893     6868.00000
    10.6025     6667.00000
    10.6156     6629.00000
    10.6287     6826.00000
    10.6418     6773.00000
    10.6550     6818.00000
    10.6681     6813.00000
    10.6812     6914.00000
    10.6944     6818.00000
    10.7075     6752.00000
    10.7206     6853.00000
    10.7338     6786.00000
    10.7469     6956.00000
    10.7600     6915.00000
    10.7732     6837.00000
    10.7863     6833.00000
    10.7994     6988.00000
    10.8125     7149.00000
    10.8257     6954.00000
    10.8388     7113.00000
    10.8519     7093.00000
    10.8651     7148.00000
    10.8782     6953.00000
    10.8913     7184.00000
    10.9045     7167.00000
    10.9176     7383.00000
    10.9307     7479.00000
    10.9438     7510.00000
    10.9570     7839.00000
    10.9701     8103.00000
    10.9832     8798.00000
    10.9964     9346.00000
    11.0095    10361.00000
    11.0226    11327.00000
    11.0358    13088.00000
    11.0489    16334.00000
    11.0620    21279.00000
    11.0751    27314.00000
    11.0883    34549.00000
    11.1014    43930.00000
    11.1145    50902.00000
    11.1277    51315.00000
    11.1408    48096.00000
    11.1539    40734.00000
    11.1671    33494.00000
    11.1802    27312.00000
    11.1933    20676.00000
    11.2065    16266.00000
    11.2196    12543.00000
    11.2327    10032.00000
    11.2458     8613.00000
    11.2590     8080.00000
    11.2721     7478.00000
    11.2852     7147.00000
    11.2984     7126.00000
    11.3115     7004.00000
    11.3246     7091.00000
    11.3378     6697.00000
    11.3509     6858.00000
    11.3640     6792.00000
    11.3771     6687.00000
    11.3903     6588.00000
    11.4034     6638.00000
    11.4165     6638.00000
    11.4297     6591.00000
    11.4428     6500.00000
    11.4559     6518.00000
    11.4691     6543.00000
    11.4822     6480.00000
    11.4953     6718.00000
    11.5084     6531.00000
    11.5216     6553.00000
    11.5347     6609.00000
    11.5478     6404.00000
    11.5610     6370.00000
    11.5741     6341.00000
    11.5872     6344.00000
    11.6004     6518.00000
    11.6135     6593.00000
    11.6266     6354.00000
    11.6398     6573.00000
    11.6529     6349.00000
    11.6660     6386.00000
    11.6791     6286.00000
    11.6923     6411.00000
    11.7054     6370.00000
    11.7185     6250.00000
    11.7317     6240.00000
    11.7448     6412.00000
    11.7579     6344.00000
    11.7711     6359.00000
    11.7842     6380.00000
    11.7973     6229.00000
    11.8104     6294.00000
    11.8236     6424.00000
    11.8367     6287.00000
    11.8498     6351.00000
    11.8630     6402.00000
    11.8761     6313.00000
    11.8892     6234.00000
    11.9024     6194.00000
    11.9155     6105.00000
    11.9286     6108.00000
    11.9417     6202.00000
    11.9549     6273.00000
    11.9680     6299.00000
    11.9811     6204.00000
    11.9943     6275.00000
    12.0074     6126.00000
    12.0205     6273.00000
    12.0337     6216.00000
    12.0468     6332.00000
    12.0599     6096.00000
    12.0731     6333.00000
    12.0862     6390.00000
    12.0993     6275.00000
    12.1124     6182.00000
    12.1256     6370.00000
    12.1387     6090.00000
    12.1518     6075.00000
    12.1650     6114.00000
    12.1781     6234.00000
    12.1912     6105.00000
    12.2044     6076.00000
    12.2175     6169.00000
    12.2306     6118.00000
    12.2437     6157.00000
    12.2569     5992.00000
    12.2700     6022.00000
    12.2831     6083.00000
    12.2963     6128.00000
    12.3094     6123.00000
    12.3225     6134.00000
    12.3357     6099.00000
    12.3488     6064.00000
    12.3619     6158.00000
    12.3750     6031.00000
    12.3882     6043.00000
    12.4013     6009.00000
    12.4144     6019.00000
    12.4276     6123.00000
    12.4407     5997.00000
    12.4538     6024.00000
    12.4670     5987.00000
    12.4801     6001.00000
    12.4932     5959.00000
    12.5063     5997.00000
    12.5195     5981.00000
    12.5326     6092.00000
    12.5457     6091.00000
    12.5589     6065.00000
    12.5720     6032.00000
    12.5851     6056.00000
    12.5983     5974.00000
    12.6114     6089.00000
    12.6245     5894.00000
    12.6377     5836.00000
    12.6508     6019.00000
    12.6639     5825.00000
    12.6770     5978.00000
    12.6902     5916.00000
    12.7033     5805.00000
    12.7164     5855.00000
    12.7296     5930.00000
    12.7427     5834.00000
    12.7558     5992.00000
    12.7690     5895.00000
    12.7821     5933.00000
    12.7952     5857.00000
    12.8083     5888.00000
    12.8215     5731.00000
    12.8346     6012.00000
    12.8477     5755.00000
    12.8609     5886.00000
    12.8740     5883.00000
    12.8871     6012.00000
    12.9003     5900.00000
    12.9134     5899.00000
    12.9265     5977.00000
    12.9396     5756.00000
    12.9528     5680.00000
    12.9659     5861.00000
    12.9790     5932.00000
    12.9922     5906.00000
    13.0053     5818.00000
    13.0184     5709.00000
    13.0316     5914.00000
    13.0447     5873.00000
    13.0578     5763.00000
    13.0710     5759.00000
    13.0841     5730.00000
    13.0972     5833.00000
    13.1103     5791.00000
    13.1235     5744.00000
    13.1366     5891.00000
    13.1497     5844.00000
    13.1629     5669.00000
    13.1760     5882.00000
    13.1891     5825.00000
    13.2023     5868.00000
    13.2154     5818.00000
    13.2285     5912.00000
    13.2416     5729.00000
    13.2548     5778.00000
    13.2679     5632.00000
    13.2810     5856.00000
    13.2942     5791.00000
    13.3073     5784.00000
    13.3204     5652.00000
    13.3336     5805.00000
    13.3467     5801.00000
    13.3598     5708.00000
    13.3729     5654.00000
    13.3861     5700.00000
    13.3992     5674.00000
    13.4123     5820.00000
    13.4255     5579.00000
    13.4386     5611.00000
    13.4517     5651.00000
    13.4649     5694.00000
    13.4780     5667.00000
    13.4911     5696.00000
    13.5043     5766.00000
    13.5174     5788.00000
    13.5305     5715.00000
    13.5436     5420.00000
    13.5568     5754.00000
    13.5699     5562.00000
    13.5830     5826.00000
    13.5962     5643.00000
    13.6093     5552.00000
    13.6224     5657.00000
    13.6356     5683.00000
    13.6487     5628.00000
    13.6618     5727.00000
    13.6749     5475.00000
    13.6881     5539.00000
    13.7012     5415.00000
    13.7143     5556.00000
    13.7275     5554.00000
    13.7406     5477.00000
    13.7537     5585.00000
    13.7669     5459.00000
    13.7800     5531.00000
    13.7931     5432.00000
    13.8062     5436.00000
    13.8194     5432.00000
    13.8325     5611.00000
    13.8456     5487.00000
    13.8588     5492.00000
    13.8719     5471.00000
    13.8850     5608.00000
    13.8982     5482.00000
    13.9113     5434.00000
    13.9244     5486.00000
    13.9376     5378.00000
    13.9507     5476.00000
    13.9638     5467.00000
    13.9769     5335.00000
    13.9901     5570.00000
    14.0032     5432.00000
    14.0163     5357.00000
    14.0295     5512.00000
    14.0426     5556.00000
    14.0557     5389.00000
    14.0689     5390.00000
    14.0820     5516.00000
    14.0951     5461.00000
    14.1082     5374.00000
    14.1214     5378.00000
    14.1345     5390.00000
    14.1476     5482.00000
    14.1608     5399.00000
    14.1739     5439.00000
    14.1870     5384.00000
    14.2002     5434.00000
    14.2133     5305.00000
    14.2264     5450.00000
    14.2395     5408.00000
    14.2527     5299.00000
    14.2658     5514.00000
    14.2789     5507.00000
    14.2921     5398.00000
    14.3052     5419.00000
    14.3183     5524.00000
    14.3315     5338.00000
    14.3446     5454.00000
    14.3577     5335.00000
    14.3708     5439.00000
    14.3840     5442.00000
    14.3971     5377.00000
    14.4102     5244.00000
    14.4234     5324.00000
    14.4365     5427.00000
    14.4496     5210.00000
    14.4628     5309.00000
    14.4759     5229.00000
    14.4890     5244.00000
    14.5022     5342.00000
    14.5153     5347.00000
    14.5284     5314.00000
    14.5415     5271.00000
    14.5547     5548.00000
    14.5678     5293.00000
    14.5809     5265.00000
    14.5941     5236.00000
    14.6072     5351.00000
    14.6203     5197.00000
    14.6335     5412.00000
    14.6466     5375.00000
    14.6597     5171.00000
    14.6728     5271.00000
    14.6860     5274.00000
    14.6991     5141.00000
    14.7122     5195.00000
    14.7254     5379.00000
    14.7385     5241.00000
    14.7516     5273.00000
    14.7648     5267.00000
    14.7779     5126.00000
    14.7910     5285.00000
    14.8041     5328.00000
    14.8173     5141.00000
    14.8304     5413.00000
    14.8435     5200.00000
    14.8567     5320.00000
    14.8698     5279.00000
    14.8829     5196.00000
    14.8961     5144.00000
    14.9092     5162.00000
    14.9223     5122.00000
    14.9355     5150.00000
    14.9486     5215.00000
    14.9617     5411.00000
    14.9748     5185.00000
    14.9880     5179.00000
    15.0011     5229.00000
    15.0142     5424.00000
    15.0274     5449.00000
    15.0405     5179.00000
    15.0536     5068.00000
    15.0668     5217.00000
    15.0799     5146.00000
    15.0930     5068.00000
    15.1061     5253.00000
    15.1193     5161.00000
    15.1324     5233.00000
    15.1455     5096.00000
    15.1587     5199.00000
    15.1718     4994.00000
    15.1849     5041.00000
    15.1981     5110.00000
    15.2112     5130.00000
    15.2243     5234.00000
    15.2374     5195.00000
    15.2506     5126.00000
    15.2637     5136.00000
    15.2768     5243.00000
    15.2900     4975.00000
    15.3031     5160.00000
    15.3162     5171.00000
    15.3294     5155.00000
    15.3425     5239.00000
    15.3556     5250.00000
    15.3688     5034.00000
    15.3819     5072.00000
    15.3950     5127.00000
    15.4081     5148.00000
    15.4213     5054.00000
    15.4344     5143.00000
    15.4475     5151.00000
    15.4607     5073.00000
    15.4738     5172.00000
    15.4869     5173.00000
    15.5001     5181.00000
    15.5132     5279.00000
    15.5263     5109.00000
    15.5394     5075.00000
    15.5526     4996.00000
    15.5657     5189.00000
    15.5788     5130.00000
    15.5920     5105.00000
    15.6051     5088.00000
    15.6182     4987.00000
    15.6314     5049.00000
    15.6445     5012.00000
    15.6576     4988.00000
    15.6707     5044.00000
    15.6839     5011.00000
    15.6970     5014.00000
    15.7101     5038.00000
    15.7233     5008.00000
    15.7364     5076.00000
    15.7495     4998.00000
    15.7627     5096.00000
    15.7758     5032.00000
    15.7889     5115.00000
    15.8021     4981.00000
    15.8152     5103.00000
    15.8283     5054.00000
    15.8414     4917.00000
    15.8546     5090.00000
    15.8677     5103.00000
    15.8808     5060.00000
    15.8940     4972.00000
    15.9071     4980.00000
    15.9202     5049.00000
    15.9334     4896.00000
    15.9465     5090.00000
    15.9596     4968.00000
    15.9727     4978.00000
    15.9859     4969.00000
    15.9990     4876.00000
    16.0121     5019.00000
    16.0253     4999.00000
    16.0384     5030.00000
    16.0515     4993.00000
    16.0647     5019.00000
    16.0778     5062.00000
    16.0909     4997.00000
    16.1040     4998.00000
    16.1172     5179.00000
    16.1303     5086.00000
    16.1434     5051.00000
    16.1566     5133.00000
    16.1697     5032.00000
    16.1828     5252.00000
    16.1960     5053.00000
    16.2091     5051.00000
    16.2222     5148.00000
    16.2353     5115.00000
    16.2485     5196.00000
    16.2616     5125.00000
    16.2747     5097.00000
    16.2879     5150.00000
    16.3010     5072.00000
    16.3141     5226.00000
    16.3273     5034.00000
    16.3404     5139.00000
    16.3535     5063.00000
    16.3667     5124.00000
    16.3798     5087.00000
    16.3929     5072.00000
    16.4060     5083.00000
    16.4192     5166.00000
    16.4323     5144.00000
    16.4454     5172.00000
    16.4586     5043.00000
    16.4717     5291.00000
    16.4848     5114.00000
    16.4980     5145.00000
    16.5111     5121.00000
    16.5242     5112.00000
    16.5373     4998.00000
    16.5505     5045.00000
    16.5636     5191.00000
    16.5767     4977.00000
    16.5899     5004.00000
    16.6030     4876.00000
    16.6161     4865.00000
    16.6293     4958.00000
    16.6424     4988.00000
    16.6555     4971.00000
    16.6686     4826.00000
    16.6818     4821.00000
    16.6949     4839.00000
    16.7080     4724.00000
    16.7212     4891.00000
    16.7343     4914.00000
    16.7474     4905.00000
    16.7606     4970.00000
    16.7737     4881.00000
    16.7868     4839.00000
    16.8000     4940.00000
    16.8131     4782.00000
    16.8262     4776.00000
    16.8393     4853.00000
    16.8525     4765.00000
    16.8656     4780.00000
    16.8787     4784.00000
    16.8919     4769.00000
    16.9050     4951.00000
    16.9181     4728.00000
    16.9313     4820.00000
    16.9444     4982.00000
    16.9575     4735.00000
    16.9706     4743.00000
    16.9838     4708.00000
    16.9969     4744.00000
    17.0100     4773.00000
    17.0232     4841.00000
    17.0363     4823.00000
    17.0494     4752.00000
    17.0626     4869.00000
    17.0757     4805.00000
    17.0888     4845.00000
    17.1019     4908.00000
    17.1151     4775.00000
    17.1282     4748.00000
    17.1413     4771.00000
    17.1545     4889.00000
    17.1676     4706.00000
    17.1807     4922.00000
    17.1939     4837.00000
    17.2070     4941.00000
    17.2201     5007.00000
    17.2333     4964.00000
    17.2464     4999.00000
    17.2595     4959.00000
    17.2726     4990.00000
    17.2858     4913.00000
    17.2989     5052.00000
    17.3120     4898.00000
    17.3252     5000.00000
    17.3383     4887.00000
    17.3514     4914.00000
    17.3646     4726.00000
    17.3777     4930.00000
    17.3908     4726.00000
    17.4039     4831.00000
    17.4171     4742.00000
    17.4302     4684.00000
    17.4433     4677.00000
    17.4565     4763.00000
    17.4696     4706.00000
    17.4827     4694.00000
    17.4959     4876.00000
    17.5090     4630.00000
    17.5221     4595.00000
    17.5352     4631.00000
    17.5484     4603.00000
    17.5615     4764.00000
    17.5746     4730.00000
    17.5878     4772.00000
    17.6009     4609.00000
    17.6140     4645.00000
    17.6272     4630.00000
    17.6403     4656.00000
    17.6534     4759.00000
    17.6666     4624.00000
    17.6797     4590.00000
    17.6928     4709.00000
    17.7059     4496.00000
    17.7191     4605.00000
    17.7322     4813.00000
    17.7453     4857.00000
    17.7585     4776.00000
    17.7716     4880.00000
    17.7847     4915.00000
    17.7979     4806.00000
    17.8110     4972.00000
    17.8241     4839.00000
    17.8372     4621.00000
    17.8504     4749.00000
    17.8635     4711.00000
    17.8766     4604.00000
    17.8898     4616.00000
    17.9029     4689.00000
    17.9160     4475.00000
    17.9292     4508.00000
    17.9423     4563.00000
    17.9554     4526.00000
    17.9685     4524.00000
    17.9817     4511.00000
    17.9948     4638.00000
    18.0079     4462.00000
    18.0211     4522.00000
    18.0342     4713.00000
    18.0473     4709.00000
    18.0605     4586.00000
    18.0736     4515.00000
    18.0867     4531.00000
    18.0998     4586.00000
    18.1130     4497.00000
    18.1261     4492.00000
    18.1392     4490.00000
    18.1524     4434.00000
    18.1655     4523.00000
    18.1786     4452.00000
    18.1918     4598.00000
    18.2049     4625.00000
    18.2180     4447.00000
    18.2312     4538.00000
    18.2443     4602.00000
    18.2574     4614.00000
    18.2705     4475.00000
    18.2837     4507.00000
    18.2968     4355.00000
    18.3099     4400.00000
    18.3231     4492.00000
    18.3362     4483.00000
    18.3493     4492.00000
    18.3625     4483.00000
    18.3756     4487.00000
    18.3887     4341.00000
    18.4018     4446.00000
    18.4150     4393.00000
    18.4281     4382.00000
    18.4412     4411.00000
    18.4544     4319.00000
    18.4675     4449.00000
    18.4806     4398.00000
    18.4938     4487.00000
    18.5069     4528.00000
    18.5200     4523.00000
    18.5331     4509.00000
    18.5463     4407.00000
    18.5594     4413.00000
    18.5725     4516.00000
    18.5857     4509.00000
    18.5988     4609.00000
    18.6119     4668.00000
    18.6251     4581.00000
    18.6382     4703.00000
    18.6513     4529.00000
    18.6645     4507.00000
    18.6776     4559.00000
    18.6907     4385.00000
    18.7038     4394.00000
    18.7170     4389.00000
    18.7301     4434.00000
    18.7432     4482.00000
    18.7564     4437.00000
    18.7695     4448.00000
    18.7826     4437.00000
    18.7958     4292.00000
    18.8089     4369.00000
    18.8220     4370.00000
    18.8351     4379.00000
    18.8483     4459.00000
    18.8614     4386.00000
    18.8745     4365.00000
    18.8877     4230.00000
    18.9008     4394.00000
    18.9139     4340.00000
    18.9271     4344.00000
    18.9402     4318.00000
    18.9533     4376.00000
    18.9664     4333.00000
    18.9796     4372.00000
    18.9927     4387.00000
    19.0058     4455.00000
    19.0190     4411.00000
    19.0321     4446.00000
    19.0452     4723.00000
    19.0584     4814.00000
    19.0715     4732.00000
    19.0846     4806.00000
    19.0978     4670.00000
    19.1109     4531.00000
    19.1240     4627.00000
    19.1371     4710.00000
    19.1503     4749.00000
    19.1634     4652.00000
    19.1765     4630.00000
    19.1897     4766.00000
    19.2028     4743.00000
    19.2159     4723.00000
    19.2291     4680.00000
    19.2422     4740.00000
    19.2553     4746.00000
    19.2684     4894.00000
    19.2816     4640.00000
    19.2947     4744.00000
    19.3078     4778.00000
    19.3210     4782.00000
    19.3341     4742.00000
    19.3472     4809.00000
    19.3604     4776.00000
    19.3735     4832.00000
    19.3866     4896.00000
    19.3997     4953.00000
    19.4129     4918.00000
    19.4260     5003.00000
    19.4391     5136.00000
    19.4523     5187.00000
    19.4654     5496.00000
    19.4785     5312.00000
    19.4917     5464.00000
    19.5048     5644.00000
    19.5179     5921.00000
    19.5311     6018.00000
    19.5442     6560.00000
    19.5573     6791.00000
    19.5704     7430.00000
    19.5836     8359.00000
    19.5967     9632.00000
    19.6098    12089.00000
    19.6230    15214.00000
    19.6361    20675.00000
    19.6492    29513.00000
    19.6624    42928.00000
    19.6755    63354.00000
    19.6886    87785.00000
    19.7017   109533.00000
    19.7149   121003.00000
    19.7280   118298.00000
    19.7411   107380.00000
    19.7543    97644.00000
    19.7674    84713.00000
    19.7805    66227.00000
    19.7937    47447.00000
    19.8068    34254.00000
    19.8199    24237.00000
    19.8330    17633.00000
    19.8462    12806.00000
    19.8593     9859.00000
    19.8724     8153.00000
    19.8856     7145.00000
    19.8987     6653.00000
    19.9118     6233.00000
    19.9250     5895.00000
    19.9381     5500.00000
    19.9512     5321.00000
    19.9643     5192.00000
    19.9775     4957.00000
    19.9906     4910.00000
    20.0037     4895.00000
    20.0169     4766.00000
    20.0300     4736.00000
    20.0431     4805.00000
    20.0563     4784.00000
    20.0694     4816.00000
    20.0825     4567.00000
    20.0957     4637.00000
    20.1088     4581.00000
    20.1219     4641.00000
    20.1350     4635.00000
    20.1482     4587.00000
    20.1613     4783.00000
    20.1744     4884.00000
    20.1876     4700.00000
    20.2007     4837.00000
    20.2138     4742.00000
    20.2270     4848.00000
    20.2401     4935.00000
    20.2532     4679.00000
    20.2663     4817.00000
    20.2795     4694.00000
    20.2926     4544.00000
    20.3057     4580.00000
    20.3189     4517.00000
    20.3320     4487.00000
    20.3451     4538.00000
    20.3583     4258.00000
    20.3714     4436.00000
    20.3845     4351.00000
    20.3976     4237.00000
    20.4108     4350.00000
    20.4239     4227.00000
    20.4370     4290.00000
    20.4502     4288.00000
    20.4633     4330.00000
    20.4764     4259.00000
    20.4896     4269.00000
    20.5027     4306.00000
    20.5158     4245.00000
    20.5290     4369.00000
    20.5421     4406.00000
    20.5552     4232.00000
    20.5683     4243.00000
    20.5815     4306.00000
    20.5946     4365.00000
    20.6077     4272.00000
    20.6209     4180.00000
    20.6340     4208.00000
    20.6471     4356.00000
    20.6603     4305.00000
    20.6734     4239.00000
    20.6865     4351.00000
    20.6996     4257.00000
    20.7128     4267.00000
    20.7259     4270.00000
    20.7390     4196.00000
    20.7522     4068.00000
    20.7653     4172.00000
    20.7784     4177.00000
    20.7916     4231.00000
    20.8047     4195.00000
    20.8178     4183.00000
    20.8309     4147.00000
    20.8441     4152.00000
    20.8572     4188.00000
    20.8703     4105.00000
    20.8835     4183.00000
    20.8966     4234.00000
    20.9097     4123.00000
    20.9229     4081.00000
    20.9360     4087.00000
    20.9491     4169.00000
    20.9623     4059.00000
    20.9754     4064.00000
    20.9885     4110.00000
    21.0016     4138.00000
    21.0148     4197.00000
    21.0279     4194.00000
    21.0410     4133.00000
    21.0542     4119.00000
    21.0673     4171.00000
    21.0804     4090.00000
    21.0936     4064.00000
    21.1067     4120.00000
    21.1198     4240.00000
    21.1329     4157.00000
    21.1461     4131.00000
    21.1592     4083.00000
    21.1723     4063.00000
    21.1855     4093.00000
    21.1986     4181.00000
    21.2117     4101.00000
    21.2249     4052.00000
    21.2380     4140.00000
    21.2511     4108.00000
    21.2642     4202.00000
    21.2774     4140.00000
    21.2905     4027.00000
    21.3036     4056.00000
    21.3168     4046.00000
    21.3299     4126.00000
    21.3430     4164.00000
    21.3562     4056.00000
    21.3693     3988.00000
    21.3824     4018.00000
    21.3956     4114.00000
    21.4087     4037.00000
    21.4218     4097.00000
    21.4349     4006.00000
    21.4481     3999.00000
    21.4612     3988.00000
    21.4743     4073.00000
    21.4875     4079.00000
    21.5006     3998.00000
    21.5137     4027.00000
    21.5269     4071.00000
    21.5400     4104.00000
    21.5531     4024.00000
    21.5662     4018.00000
    21.5794     4088.00000
    21.5925     4025.00000
    21.6056     4004.00000
    21.6188     4002.00000
    21.6319     4172.00000
    21.6450     4073.00000
    21.6582     4003.00000
    21.6713     4052.00000
    21.6844     4044.00000
    21.6975     4123.00000
    21.7107     4066.00000
    21.7238     3971.00000
    21.7369     4009.00000
    21.7501     4009.00000
    21.7632     4043.00000
    21.7763     3953.00000
    21.7895     4126.00000
    21.8026     4073.00000
    21.8157     4151.00000
    21.8288     4263.00000
    21.8420     4295.00000
    21.8551     4339.00000
    21.8682     4272.00000
    21.8814     4293.00000
    21.8945     4381.00000
    21.9076     4361.00000
    21.9208     4254.00000
    21.9339     4384.00000
    21.9470     4265.00000
    21.9602     4139.00000
    21.9733     4152.00000
    21.9864     3990.00000
    21.9995     4083.00000
    22.0127     4128.00000
    22.0258     4118.00000
    22.0389     4181.00000
    22.0521     4225.00000
    22.0652     4270.00000
    22.0783     4015.00000
    22.0915     4091.00000
    22.1046     4014.00000
    22.1177     4008.00000
    22.1308     4051.00000
    22.1440     4033.00000
    22.1571     4094.00000
    22.1702     4087.00000
    22.1834     3992.00000
    22.1965     4062.00000
    22.2096     4220.00000
    22.2228     4244.00000
    22.2359     4336.00000
    22.2490     4368.00000
    22.2621     4613.00000
    22.2753     4672.00000
    22.2884     5158.00000
    22.3015     5942.00000
    22.3147     6791.00000
    22.3278     8394.00000
    22.3409    10987.00000
    22.3541    14362.00000
    22.3672    18586.00000
    22.3803    20055.00000
    22.3935    19338.00000
    22.4066    17702.00000
    22.4197    16640.00000
    22.4328    16578.00000
    22.4460    14332.00000
    22.4591    10703.00000
    22.4722     8547.00000
    22.4854     7310.00000
    22.4985     6422.00000
    22.5116     5287.00000
    22.5248     4555.00000
    22.5379     4450.00000
    22.5510     4263.00000
    22.5641     4331.00000
    22.5773     4157.00000
    22.5904     4053.00000
    22.6035     4029.00000
    22.6167     4029.00000
    22.6298     3960.00000
    22.6429     3937.00000
    22.6561     4072.00000
    22.6692     3944.00000
    22.6823     3918.00000
    22.6954     4013.00000
    22.7086     3873.00000
    22.7217     3889.00000
    22.7348     3993.00000
    22.7480     3899.00000
    22.7611     4074.00000
    22.7742     4108.00000
    22.7874     3980.00000
    22.8005     3916.00000
    22.8136     4010.00000
    22.8268     4023.00000
    22.8399     3955.00000
    22.8530     3888.00000
    22.8661     3896.00000
    22.8793     3892.00000
    22.8924     3918.00000
    22.9055     3933.00000
    22.9187     3876.00000
    22.9318     3831.00000
    22.9449     3942.00000
    22.9581     3931.00000
    22.9712     3890.00000
    22.9843     3782.00000
    22.9974     3881.00000
    23.0106     3880.00000
    23.0237     3827.00000
    23.0368     3871.00000
    23.0500     3912.00000
    23.0631     3797.00000
    23.0762     3734.00000
    23.0894     3816.00000
    23.1025     3721.00000
    23.1156     3868.00000
    23.1287     3890.00000
    23.1419     3799.00000
    23.1550     3873.00000
    23.1681     3851.00000
    23.1813     3828.00000
    23.1944     3715.00000
    23.2075     3768.00000
    23.2207     3665.00000
    23.2338     3781.00000
    23.2469     3818.00000
    23.2601     3849.00000
    23.2732     3743.00000
    23.2863     3837.00000
    23.2994     3848.00000
    23.3126     3720.00000
    23.3257     3825.00000
    23.3388     3782.00000
    23.3520     3796.00000
    23.3651     3848.00000
    23.3782     3973.00000
    23.3914     3851.00000
    23.4045     3772.00000
    23.4176     3974.00000
    23.4307     3938.00000
    23.4439     3877.00000
    23.4570     3854.00000
    23.4701     3865.00000
    23.4833     3857.00000
    23.4964     3862.00000
    23.5095     3867.00000
    23.5227     4021.00000
    23.5358     3844.00000
    23.5489     4013.00000
    23.5620     3969.00000
    23.5752     3979.00000
    23.5883     3936.00000
    23.6014     4072.00000
    23.6146     4019.00000
    23.6277     4102.00000
    23.6408     3919.00000
    23.6540     4114.00000
    23.6671     4122.00000
    23.6802     4111.00000
    23.6933     3958.00000
    23.7065     4155.00000
    23.7196     4052.00000
    23.7327     4053.00000
    23.7459     4073.00000
    23.7590     4039.00000
    23.7721     3917.00000
    23.7853     4084.00000
    23.7984     4085.00000
    23.8115     4035.00000
    23.8247     4088.00000
    23.8378     4114.00000
    23.8509     4016.00000
    23.8640     4103.00000
    23.8772     4072.00000
    23.8903     4104.00000
    23.9034     4306.00000
    23.9166     4381.00000
    23.9297     4370.00000
    23.9428     4302.00000
    23.9560     4555.00000
    23.9691     4512.00000
    23.9822     4575.00000
    23.9953     4698.00000
    24.0085     4669.00000
    24.0216     4787.00000
    24.0347     4827.00000
    24.0479     4925.00000
    24.0610     4848.00000
    24.0741     5378.00000
    24.0873     5504.00000
    24.1004     5928.00000
    24.1135     6430.00000
    24.1266     7433.00000
    24.1398     9694.00000
    24.1529    13689.00000
    24.1660    19409.00000
    24.1792    26057.00000
    24.1923    34728.00000
    24.2054    43194.00000
    24.2186    47603.00000
    24.2317    45280.00000
    24.2448    40328.00000
    24.2580    35750.00000
    24.2711    33642.00000
    24.2842    29142.00000
    24.2973    23808.00000
    24.3105    18490.00000
    24.3236    14610.00000
    24.3367    12523.00000
    24.3499    11870.00000
    24.3630    13368.00000
    24.3761    17532.00000
    24.3893    24826.00000
    24.4024    34650.00000
    24.4155    41316.00000
    24.4286    45897.00000
    24.4418    48742.00000
    24.4549    47534.00000
    24.4680    43827.00000
    24.4812    38511.00000
    24.4943    33998.00000
    24.5074    28569.00000
    24.5206    22286.00000
    24.5337    16917.00000
    24.5468    12783.00000
    24.5599     9838.00000
    24.5731     7433.00000
    24.5862     5958.00000
    24.5993     5140.00000
    24.6125     5057.00000
    24.6256     4704.00000
    24.6387     4582.00000
    24.6519     4373.00000
    24.6650     4320.00000
    24.6781     4271.00000
    24.6913     4047.00000
    24.7044     4114.00000
    24.7175     3953.00000
    24.7306     3991.00000
    24.7438     3899.00000
    24.7569     3858.00000
    24.7700     3944.00000
    24.7832     3889.00000
    24.7963     3861.00000
    24.8094     3787.00000
    24.8226     3847.00000
    24.8357     3792.00000
    24.8488     3750.00000
    24.8619     3753.00000
    24.8751     3842.00000
    24.8882     3827.00000
    24.9013     3799.00000
    24.9145     3766.00000
    24.9276     3854.00000
    24.9407     3762.00000
    24.9539     3898.00000
    24.9670     3790.00000
    24.9801     3815.00000
    24.9932     3742.00000
    25.0064     3894.00000
    25.0195     3964.00000
    25.0326     3989.00000
    25.0458     4027.00000
    25.0589     4056.00000
    25.0720     3948.00000
    25.0852     3775.00000
    25.0983     3809.00000
    25.1114     3910.00000
    25.1246     3831.00000
    25.1377     3727.00000
    25.1508     3747.00000
    25.1639     3675.00000
    25.1771     3791.00000
    25.1902     3694.00000
    25.2033     3582.00000
    25.2165     3743.00000
    25.2296     3692.00000
    25.2427     3656.00000
    25.2559     3709.00000
    25.2690     3650.00000
    25.2821     3659.00000
    25.2952     3766.00000
    25.3084     3627.00000
    25.3215     3651.00000
    25.3346     3750.00000
    25.3478     3599.00000
    25.3609     3736.00000
    25.3740     3660.00000
    25.3872     3649.00000
    25.4003     3706.00000
    25.4134     3677.00000
    25.4265     3707.00000
    25.4397     3651.00000
    25.4528     3630.00000
    25.4659     3624.00000
    25.4791     3598.00000
    25.4922     3732.00000
    25.5053     3655.00000
    25.5185     3589.00000
    25.5316     3693.00000
    25.5447     3644.00000
    25.5579     3754.00000
    25.5710     3619.00000
    25.5841     3605.00000
    25.5972     3602.00000
    25.6104     3498.00000
    25.6235     3608.00000
    25.6366     3616.00000
    25.6498     3558.00000
    25.6629     3517.00000
    25.6760     3649.00000
    25.6892     3580.00000
    25.7023     3544.00000
    25.7154     3598.00000
    25.7285     3543.00000
    25.7417     3481.00000
    25.7548     3476.00000
    25.7679     3480.00000
    25.7811     3592.00000
    25.7942     3464.00000
    25.8073     3621.00000
    25.8205     3642.00000
    25.8336     3598.00000
    25.8467     3585.00000
    25.8598     3499.00000
    25.8730     3503.00000
    25.8861     3538.00000
    25.8992     3624.00000
    25.9124     3614.00000
    25.9255     3522.00000
    25.9386     3578.00000
    25.9518     3545.00000
    25.9649     3674.00000
    25.9780     3556.00000
    25.9911     3571.00000
    26.0043     3797.00000
    26.0174     3713.00000
    26.0305     3596.00000
    26.0437     3827.00000
    26.0568     3882.00000
    26.0699     3981.00000
    26.0831     4067.00000
    26.0962     4159.00000
    26.1093     3941.00000
    26.1225     3996.00000
    26.1356     3891.00000
    26.1487     4041.00000
    26.1618     3784.00000
    26.1750     3877.00000
    26.1881     3725.00000
    26.2012     3649.00000
    26.2144     3812.00000
    26.2275     3629.00000
    26.2406     3579.00000
    26.2538     3536.00000
    26.2669     3625.00000
    26.2800     3518.00000
    26.2931     3561.00000
    26.3063     3455.00000
    26.3194     3572.00000
    26.3325     3622.00000
    26.3457     3584.00000
    26.3588     3602.00000
    26.3719     3637.00000
    26.3851     3607.00000
    26.3982     3560.00000
    26.4113     3579.00000
    26.4244     3628.00000
    26.4376     3552.00000
    26.4507     3554.00000
    26.4638     3487.00000
    26.4770     3511.00000
    26.4901     3572.00000
    26.5032     3506.00000
    26.5164     3446.00000
    26.5295     3525.00000
    26.5426     3607.00000
    26.5558     3572.00000
    26.5689     3585.00000
    26.5820     3570.00000
    26.5951     3537.00000
    26.6083     3474.00000
    26.6214     3530.00000
    26.6345     3503.00000
    26.6477     3517.00000
    26.6608     3494.00000
    26.6739     3423.00000
    26.6871     3320.00000
    26.7002     3415.00000
    26.7133     3447.00000
    26.7264     3499.00000
    26.7396     3520.00000
    26.7527     3540.00000
    26.7658     3503.00000
    26.7790     3567.00000
    26.7921     3628.00000
    26.8052     3621.00000
    26.8184     3608.00000
    26.8315     3625.00000
    26.8446     3715.00000
    26.8577     3701.00000
    26.8709     3777.00000
    26.8840     3650.00000
    26.8971     3710.00000
    26.9103     3796.00000
    26.9234     3607.00000
    26.9365     3744.00000
    26.9497     3644.00000
    26.9628     3676.00000
    26.9759     3646.00000
    26.9891     3611.00000
    27.0022     3577.00000
    27.0153     3643.00000
    27.0284     3642.00000
    27.0416     3708.00000
    27.0547     3701.00000
    27.0678     3733.00000
    27.0810     3705.00000
    27.0941     3606.00000
    27.1072     3710.00000
    27.1204     3667.00000
    27.1335     3694.00000
    27.1466     3642.00000
    27.1597     3702.00000
    27.1729     3663.00000
    27.1860     3704.00000
    27.1991     3851.00000
    27.2123     3797.00000
    27.2254     3619.00000
    27.2385     3773.00000
    27.2517     3722.00000
    27.2648     3704.00000
    27.2779     3672.00000
    27.2910     3728.00000
    27.3042     3640.00000
    27.3173     3765.00000
    27.3304     3682.00000
    27.3436     3789.00000
    27.3567     3703.00000
    27.3698     3750.00000
    27.3830     3721.00000
    27.3961     3782.00000
    27.4092     3886.00000
    27.4224     3808.00000
    27.4355     3840.00000
    27.4486     3995.00000
    27.4617     3972.00000
    27.4749     4055.00000
    27.4880     4247.00000
    27.5011     4262.00000
    27.5143     4399.00000
    27.5274     4455.00000
    27.5405     4618.00000
    27.5537     4675.00000
    27.5668     5005.00000
    27.5799     5117.00000
    27.5930     5296.00000
    27.6062     5733.00000
    27.6193     6162.00000
    27.6324     6654.00000
    27.6456     7313.00000
    27.6587     8198.00000
    27.6718     9532.00000
    27.6850    11903.00000
    27.6981    15527.00000
    27.7112    21982.00000
    27.7243    31950.00000
    27.7375    47275.00000
    27.7506    63721.00000
    27.7637    76990.00000
    27.7769    81595.00000
    27.7900    77751.00000
    27.8031    69389.00000
    27.8163    62563.00000
    27.8294    57113.00000
    27.8425    51663.00000
    27.8556    45205.00000
    27.8688    35625.00000
    27.8819    26752.00000
    27.8950    19203.00000
    27.9082    13719.00000
    27.9213    10170.00000
    27.9344     8155.00000
    27.9476     6897.00000
    27.9607     6298.00000
    27.9738     5685.00000
    27.9870     5053.00000
    28.0001     4977.00000
    28.0132     4620.00000
    28.0263     4426.00000
    28.0395     4276.00000
    28.0526     4175.00000
    28.0657     4024.00000
    28.0789     3988.00000
    28.0920     3891.00000
    28.1051     3931.00000
    28.1183     3837.00000
    28.1314     3847.00000
    28.1445     3745.00000
    28.1576     3737.00000
    28.1708     3776.00000
    28.1839     3607.00000
    28.1970     3612.00000
    28.2102     3643.00000
    28.2233     3662.00000
    28.2364     3803.00000
    28.2496     3687.00000
    28.2627     3689.00000
    28.2758     3675.00000
    28.2889     3804.00000
    28.3021     3828.00000
    28.3152     3873.00000
    28.3283     3907.00000
    28.3415     4082.00000
    28.3546     4068.00000
    28.3677     4032.00000
    28.3809     4042.00000
    28.3940     3937.00000
    28.4071     3930.00000
    28.4203     4010.00000
    28.4334     3763.00000
    28.4465     3693.00000
    28.4596     3901.00000
    28.4728     3795.00000
    28.4859     3639.00000
    28.4990     3674.00000
    28.5122     3697.00000
    28.5253     3673.00000
    28.5384     3546.00000
    28.5516     3599.00000
    28.5647     3657.00000
    28.5778     3551.00000
    28.5909     3496.00000
    28.6041     3645.00000
    28.6172     3728.00000
    28.6303     3565.00000
    28.6435     3608.00000
    28.6566     3562.00000
    28.6697     3600.00000
    28.6829     3559.00000
    28.6960     3573.00000
    28.7091     3511.00000
    28.7222     3516.00000
    28.7354     3469.00000
    28.7485     3449.00000
    28.7616     3502.00000
    28.7748     3517.00000
    28.7879     3440.00000
    28.8010     3609.00000
    28.8142     3532.00000
    28.8273     3528.00000
    28.8404     3461.00000
    28.8536     3590.00000
    28.8667     3510.00000
    28.8798     3509.00000
    28.8929     3528.00000
    28.9061     3416.00000
    28.9192     3638.00000
    28.9323     3540.00000
    28.9455     3687.00000
    28.9586     3498.00000
    28.9717     3530.00000
    28.9849     3593.00000
    28.9980     3623.00000
    29.0111     3818.00000
    29.0242     3840.00000
    29.0374     3714.00000
    29.0505     3768.00000
    29.0636     3894.00000
    29.0768     3955.00000
    29.0899     3965.00000
    29.1030     4091.00000
    29.1162     4073.00000
    29.1293     4226.00000
    29.1424     4486.00000
    29.1555     4525.00000
    29.1687     4649.00000
    29.1818     4914.00000
    29.1949     5434.00000
    29.2081     5908.00000
    29.2212     7195.00000
    29.2343     9480.00000
    29.2475    13497.00000
    29.2606    19738.00000
    29.2737    26598.00000
    29.2869    32425.00000
    29.3000    34940.00000
    29.3131    31852.00000
    29.3262    27144.00000
    29.3394    24703.00000
    29.3525    23775.00000
    29.3656    23417.00000
    29.3788    21585.00000
    29.3919    18117.00000
    29.4050    15471.00000
    29.4182    13781.00000
    29.4313    13495.00000
    29.4444    15022.00000
    29.4575    16725.00000
    29.4707    18391.00000
    29.4838    19242.00000
    29.4969    18480.00000
    29.5101    16656.00000
    29.5232    15270.00000
    29.5363    13443.00000
    29.5495    12614.00000
    29.5626    11465.00000
    29.5757    10103.00000
    29.5888     8586.00000
    29.6020     7036.00000
    29.6151     5517.00000
    29.6282     4764.00000
    29.6414     4182.00000
    29.6545     4133.00000
    29.6676     3911.00000
    29.6808     3758.00000
    29.6939     3601.00000
    29.7070     3589.00000
    29.7201     3634.00000
    29.7333     3600.00000
    29.7464     3528.00000
    29.7595     3434.00000
    29.7727     3462.00000
    29.7858     3566.00000
    29.7989     3502.00000
    29.8121     3507.00000
    29.8252     3371.00000
    29.8383     3378.00000
    29.8515     3406.00000
    29.8646     3486.00000
    29.8777     3498.00000
    29.8908     3284.00000
    29.9040     3321.00000
    29.9171     3358.00000
    29.9302     3370.00000
    29.9434     3409.00000
    29.9565     3395.00000
    29.9696     3446.00000
    29.9828     3360.00000
    29.9959     3436.00000
    30.0090     3405.00000
    30.0221     3399.00000
    30.0353     3381.00000
    30.0484     3328.00000
    30.0615     3449.00000
    30.0747     3327.00000
    30.0878     3331.00000
    30.1009     3190.00000
    30.1141     3315.00000
    30.1272     3284.00000
    30.1403     3408.00000
    30.1535     3229.00000
    30.1666     3311.00000
    30.1797     3351.00000
    30.1928     3471.00000
    30.2060     3432.00000
    30.2191     3345.00000
    30.2322     3313.00000
    30.2454     3357.00000
    30.2585     3362.00000
    30.2716     3369.00000
    30.2848     3239.00000
    30.2979     3373.00000
    30.3110     3283.00000
    30.3241     3400.00000
    30.3373     3297.00000
    30.3504     3232.00000
    30.3635     3263.00000
    30.3767     3277.00000
    30.3898     3261.00000
    30.4029     3323.00000
    30.4161     3349.00000
    30.4292     3325.00000
    30.4423     3309.00000
    30.4554     3370.00000
    30.4686     3337.00000
    30.4817     3346.00000
    30.4948     3256.00000
    30.5080     3245.00000
    30.5211     3286.00000
    30.5342     3318.00000
    30.5474     3207.00000
    30.5605     3212.00000
    30.5736     3245.00000
    30.5868     3130.00000
    30.5999     3145.00000
    30.6130     3256.00000
    30.6261     3326.00000
    30.6393     3234.00000
    30.6524     3260.00000
    30.6655     3276.00000
    30.6787     3200.00000
    30.6918     3150.00000
    30.7049     3241.00000
    30.7181     3314.00000
    30.7312     3254.00000
    30.7443     3241.00000
    30.7574     3217.00000
    30.7706     3136.00000
    30.7837     3183.00000
    30.7968     3155.00000
    30.8100     3256.00000
    30.8231     3208.00000
    30.8362     3201.00000
    30.8494     3119.00000
    30.8625     3253.00000
    30.8756     3253.00000
    30.8887     3267.00000
    30.9019     3170.00000
    30.9150     3214.00000
    30.9281     3103.00000
    30.9413     3180.00000
    30.9544     3137.00000
    30.9675     3199.00000
    30.9807     3098.00000
    30.9938     3313.00000
    31.0069     3216.00000
    31.0200     3181.00000
    31.0332     3167.00000
    31.0463     3229.00000
    31.0594     3137.00000
    31.0726     3168.00000
    31.0857     3173.00000
    31.0988     3173.00000
    31.1120     3127.00000
    31.1251     3215.00000
    31.1382     3162.00000
    31.1514     3177.00000
    31.1645     3175.00000
    31.1776     3190.00000
    31.1907     3095.00000
    31.2039     3151.00000
    31.2170     3176.00000
    31.2301     3149.00000
    31.2433     3102.00000
    31.2564     3129.00000
    31.2695     3131.00000
    31.2827     3158.00000
    31.2958     3151.00000
    31.3089     3076.00000
    31.3220     3148.00000
    31.3352     3107.00000
    31.3483     3070.00000
    31.3614     3083.00000
    31.3746     3069.00000
    31.3877     3145.00000
    31.4008     3109.00000
    31.4140     3214.00000
    31.4271     2989.00000
    31.4402     3172.00000
    31.4533     3084.00000
    31.4665     3133.00000
    31.4796     3105.00000
    31.4927     3158.00000
    31.5059     3123.00000
    31.5190     3119.00000
    31.5321     3144.00000
    31.5453     3083.00000
    31.5584     3115.00000
    31.5715     3147.00000
    31.5847     3028.00000
    31.5978     3074.00000
    31.6109     3162.00000
    31.6240     3174.00000
    31.6372     3098.00000
    31.6503     2994.00000
    31.6634     3032.00000
    31.6766     3176.00000
    31.6897     3078.00000
    31.7028     3099.00000
    31.7160     3074.00000
    31.7291     3204.00000
    31.7422     3109.00000
    31.7553     3135.00000
    31.7685     3109.00000
    31.7816     3119.00000
    31.7947     3206.00000
    31.8079     3242.00000
    31.8210     3136.00000
    31.8341     3044.00000
    31.8473     3123.00000
    31.8604     3106.00000
    31.8735     3066.00000
    31.8866     3104.00000
    31.8998     3016.00000
    31.9129     2979.00000
    31.9260     3112.00000
    31.9392     3058.00000
    31.9523     3144.00000
    31.9654     3069.00000
    31.9786     3127.00000
    31.9917     3176.00000
    32.0048     3018.00000
    32.0180     3181.00000
    32.0311     3146.00000
    32.0442     3115.00000
    32.0573     3185.00000
    32.0705     3081.00000
    32.0836     3087.00000
    32.0967     3184.00000
    32.1099     3190.00000
    32.1230     3162.00000
    32.1361     3148.00000
    32.1493     3081.00000
    32.1624     3156.00000
    32.1755     3116.00000
    32.1886     3197.00000
    32.2018     3118.00000
    32.2149     3212.00000
    32.2280     3204.00000
    32.2412     3281.00000
    32.2543     3286.00000
    32.2674     3283.00000
    32.2806     3172.00000
    32.2937     3266.00000
    32.3068     3170.00000
    32.3199     3159.00000
    32.3331     3215.00000
    32.3462     3198.00000
    32.3593     3170.00000
    32.3725     3167.00000
    32.3856     3198.00000
    32.3987     3088.00000
    32.4119     3128.00000
    32.4250     3183.00000
    32.4381     3201.00000
    32.4512     3199.00000
    32.4644     3230.00000
    32.4775     3176.00000
    32.4906     3290.00000
    32.5038     3145.00000
    32.5169     3239.00000
    32.5300     3219.00000
    32.5432     3305.00000
    32.5563     3323.00000
    32.5694     3291.00000
    32.5826     3345.00000
    32.5957     3517.00000
    32.6088     3474.00000
    32.6219     3692.00000
    32.6351     3789.00000
    32.6482     3751.00000
    32.6613     3829.00000
    32.6745     3904.00000
    32.6876     3938.00000
    32.7007     4026.00000
    32.7139     4404.00000
    32.7270     4972.00000
    32.7401     6270.00000
    32.7532     8710.00000
    32.7664    12994.00000
    32.7795    18592.00000
    32.7926    22713.00000
    32.8058    21947.00000
    32.8189    17927.00000
    32.8320    14466.00000
    32.8452    12834.00000
    32.8583    12726.00000
    32.8714    13940.00000
    32.8845    13600.00000
    32.8977    11830.00000
    32.9108     9320.00000
    32.9239     7044.00000
    32.9371     5829.00000
    32.9502     4787.00000
    32.9633     4385.00000
    32.9765     4139.00000
    32.9896     3971.00000
    33.0027     3896.00000
    33.0159     3822.00000
    33.0290     3946.00000
    33.0421     3969.00000
    33.0552     3939.00000
    33.0684     3751.00000
    33.0815     3966.00000
    33.0946     4030.00000
    33.1078     4146.00000
    33.1209     4250.00000
    33.1340     4432.00000
    33.1472     4416.00000
    33.1603     4551.00000
    33.1734     4898.00000
    33.1865     5166.00000
    33.1997     5995.00000
    33.2128     7573.00000
    33.2259    10157.00000
    33.2391    14849.00000
    33.2522    21264.00000
    33.2653    29183.00000
    33.2785    35330.00000
    33.2916    35839.00000
    33.3047    31654.00000
    33.3178    27019.00000
    33.3310    24275.00000
    33.3441    22467.00000
    33.3572    22107.00000
    33.3704    21434.00000
    33.3835    19337.00000
    33.3966    15797.00000
    33.4098    12878.00000
    33.4229    10015.00000
    33.4360     7443.00000
    33.4492     5756.00000
    33.4623     5045.00000
    33.4754     4763.00000
    33.4885     4482.00000
    33.5017     4332.00000
    33.5148     4159.00000
    33.5279     4161.00000
    33.5411     4129.00000
    33.5542     4086.00000
    33.5673     4208.00000
    33.5805     4222.00000
    33.5936     4344.00000
    33.6067     4426.00000
    33.6198     4514.00000
    33.6330     4697.00000
    33.6461     4977.00000
    33.6592     5318.00000
    33.6724     5600.00000
    33.6855     6588.00000
    33.6986     7796.00000
    33.7118     9867.00000
    33.7249    13235.00000
    33.7380    17706.00000
    33.7511    22133.00000
    33.7643    26706.00000
    33.7774    29512.00000
    33.7905    30458.00000
    33.8037    28945.00000
    33.8168    27078.00000
    33.8299    26987.00000
    33.8431    28215.00000
    33.8562    30945.00000
    33.8693    30916.00000
    33.8825    27761.00000
    33.8956    22714.00000
    33.9087    18183.00000
    33.9218    15342.00000
    33.9350    13484.00000
    33.9481    12709.00000
    33.9612    11124.00000
    33.9744     9402.00000
    33.9875     7677.00000
    34.0006     6499.00000
    34.0138     5528.00000
    34.0269     4514.00000
    34.0400     4159.00000
    34.0531     3996.00000
    34.0663     3750.00000
    34.0794     3718.00000
    34.0925     3432.00000
    34.1057     3623.00000
    34.1188     3423.00000
    34.1319     3450.00000
    34.1451     3347.00000
    34.1582     3254.00000
    34.1713     3261.00000
    34.1844     3266.00000
    34.1976     3229.00000
    34.2107     3276.00000
    34.2238     3305.00000
    34.2370     3284.00000
    34.2501     3306.00000
    34.2632     3317.00000
    34.2764     3228.00000
    34.2895     3250.00000
    34.3026     3228.00000
    34.3158     3276.00000
    34.3289     3102.00000
    34.3420     3177.00000
    34.3551     3106.00000
    34.3683     3166.00000
    34.3814     3150.00000
    34.3945     3077.00000
    34.4077     3149.00000
    34.4208     3196.00000
    34.4339     3237.00000
    34.4471     3054.00000
    34.4602     3199.00000
    34.4733     3176.00000
    34.4864     3330.00000
    34.4996     3188.00000
    34.5127     3320.00000
    34.5258     3232.00000
    34.5390     3324.00000
    34.5521     3300.00000
    34.5652     3472.00000
    34.5784     3449.00000
    34.5915     3485.00000
    34.6046     3469.00000
    34.6177     3663.00000
    34.6309     3504.00000
    34.6440     3707.00000
    34.6571     3964.00000
    34.6703     4365.00000
    34.6834     5143.00000
    34.6965     6490.00000
    34.7097     8735.00000
    34.7228    11572.00000
    34.7359    14211.00000
    34.7491    14111.00000
    34.7622    12670.00000
    34.7753    10369.00000
    34.7884     8938.00000
    34.8016     8573.00000
    34.8147     8848.00000
    34.8278     9234.00000
    34.8410     8825.00000
    34.8541     7618.00000
    34.8672     6196.00000
    34.8804     5300.00000
    34.8935     4410.00000
    34.9066     4099.00000
    34.9197     3727.00000
    34.9329     3477.00000
    34.9460     3413.00000
    34.9591     3317.00000
    34.9723     3152.00000
    34.9854     3272.00000
    34.9985     3168.00000
    35.0117     3374.00000
    35.0248     3480.00000
    35.0379     3574.00000
    35.0510     3845.00000
    35.0642     3768.00000
    35.0773     3859.00000
    35.0904     3565.00000
    35.1036     3388.00000
    35.1167     3362.00000
    35.1298     3417.00000
    35.1430     3436.00000
    35.1561     3430.00000
    35.1692     3449.00000
    35.1824     3250.00000
    35.1955     3127.00000
    35.2086     3017.00000
    35.2217     2995.00000
    35.2349     2864.00000
    35.2480     3012.00000
    35.2611     2955.00000
    35.2743     2896.00000
    35.2874     3100.00000
    35.3005     3021.00000
    35.3137     2970.00000
    35.3268     2954.00000
    35.3399     2987.00000
    35.3530     2948.00000
    35.3662     3034.00000
    35.3793     2931.00000
    35.3924     2953.00000
    35.4056     2796.00000
    35.4187     3037.00000
    35.4318     3008.00000
    35.4450     2903.00000
    35.4581     3018.00000
    35.4712     2944.00000
    35.4843     2957.00000
    35.4975     2953.00000
    35.5106     3013.00000
    35.5237     2986.00000
    35.5369     2956.00000
    35.5500     3002.00000
    35.5631     2906.00000
    35.5763     2928.00000
    35.5894     2864.00000
    35.6025     2991.00000
    35.6156     2940.00000
    35.6288     2964.00000
    35.6419     2902.00000
    35.6550     2962.00000
    35.6682     2935.00000
    35.6813     2846.00000
    35.6944     2824.00000
    35.7076     2859.00000
    35.7207     2951.00000
    35.7338     2867.00000
    35.7470     2981.00000
    35.7601     2931.00000
    35.7732     2968.00000
    35.7863     2969.00000
    35.7995     2985.00000
    35.8126     2923.00000
    35.8257     2867.00000
    35.8389     2931.00000
    35.8520     2949.00000
    35.8651     2904.00000
    35.8783     2855.00000
    35.8914     2850.00000
    35.9045     2992.00000
    35.9176     2946.00000
    35.9308     2939.00000
    35.9439     2841.00000
    35.9570     2855.00000
    35.9702     3006.00000
    35.9833     2919.00000
    35.9964     2904.00000
    36.0096     2912.00000
    36.0227     2955.00000
    36.0358     2893.00000
    36.0489     2912.00000
    36.0621     2987.00000
    36.0752     3144.00000
    36.0883     2996.00000
    36.1015     3005.00000
    36.1146     3085.00000
    36.1277     3070.00000
    36.1409     3145.00000
    36.1540     3096.00000
    36.1671     3024.00000
    36.1802     3052.00000
    36.1934     2943.00000
    36.2065     2897.00000
    36.2196     2894.00000
    36.2328     2960.00000
    36.2459     2885.00000
    36.2590     2916.00000
    36.2722     2882.00000
    36.2853     2997.00000
    36.2984     2921.00000
    36.3116     2978.00000
    36.3247     2882.00000
    36.3378     2817.00000
    36.3509     2792.00000
    36.3641     2900.00000
    36.3772     2817.00000
    36.3903     2853.00000
    36.4035     2828.00000
    36.4166     2890.00000
    36.4297     2963.00000
    36.4429     2972.00000
    36.4560     3027.00000
    36.4691     2995.00000
    36.4822     3060.00000
    36.4954     3080.00000
    36.5085     3092.00000
    36.5216     3033.00000
    36.5348     3065.00000
    36.5479     3084.00000
    36.5610     3059.00000
    36.5742     3224.00000
    36.5873     3243.00000
    36.6004     3467.00000
    36.6135     3808.00000
    36.6267     4427.00000
    36.6398     5496.00000
    36.6529     6957.00000
    36.6661     8684.00000
    36.6792     9680.00000
    36.6923     9712.00000
    36.7055     8699.00000
    36.7186     7441.00000
    36.7317     6515.00000
    36.7449     5969.00000
    36.7580     6240.00000
    36.7711     6738.00000
    36.7842     6557.00000
    36.7974     5975.00000
    36.8105     5275.00000
    36.8236     4434.00000
    36.8368     3696.00000
    36.8499     3504.00000
    36.8630     3232.00000
    36.8762     3309.00000
    36.8893     3053.00000
    36.9024     3052.00000
    36.9155     3102.00000
    36.9287     3107.00000
    36.9418     2940.00000
    36.9549     2896.00000
    36.9681     3052.00000
    36.9812     3002.00000
    36.9943     2994.00000
    37.0075     2899.00000
    37.0206     2885.00000
    37.0337     2881.00000
    37.0468     2889.00000
    37.0600     3052.00000
    37.0731     2879.00000
    37.0862     2996.00000
    37.0994     2940.00000
    37.1125     2915.00000
    37.1256     2922.00000
    37.1388     2980.00000
    37.1519     2921.00000
    37.1650     2977.00000
    37.1782     3053.00000
    37.1913     2938.00000
    37.2044     3029.00000
    37.2175     3048.00000
    37.2307     3133.00000
    37.2438     3132.00000
    37.2569     3232.00000
    37.2701     3081.00000
    37.2832     3301.00000
    37.2963     3304.00000
    37.3095     3319.00000
    37.3226     3360.00000
    37.3357     3709.00000
    37.3488     3999.00000
    37.3620     4516.00000
    37.3751     5626.00000
    37.3882     6717.00000
    37.4014     8103.00000
    37.4145     9116.00000
    37.4276     9914.00000
    37.4408    10000.00000
    37.4539     9594.00000
    37.4670     8575.00000
    37.4801     7756.00000
    37.4933     7221.00000
    37.5064     6820.00000
    37.5195     6795.00000
    37.5327     6522.00000
    37.5458     6442.00000
    37.5589     5658.00000
    37.5721     4882.00000
    37.5852     4349.00000
    37.5983     3694.00000
    37.6115     3396.00000
    37.6246     3263.00000
    37.6377     3154.00000
    37.6508     3196.00000
    37.6640     3250.00000
    37.6771     3207.00000
    37.6902     3465.00000
    37.7034     3587.00000
    37.7165     3883.00000
    37.7296     3736.00000
    37.7428     3598.00000
    37.7559     3496.00000
    37.7690     3301.00000
    37.7821     3306.00000
    37.7953     3367.00000
    37.8084     3366.00000
    37.8215     3406.00000
    37.8347     3363.00000
    37.8478     3204.00000
    37.8609     3095.00000
    37.8741     3019.00000
    37.8872     2936.00000
    37.9003     2942.00000
    37.9134     2790.00000
    37.9266     2821.00000
    37.9397     2825.00000
    37.9528     2766.00000
    37.9660     2868.00000
    37.9791     2848.00000
    37.9922     2782.00000
    38.0054     2762.00000
    38.0185     2821.00000
    38.0316     2742.00000
    38.0448     2765.00000
    38.0579     2718.00000
    38.0710     2726.00000
    38.0841     2764.00000
    38.0973     2753.00000
    38.1104     2763.00000
    38.1235     2819.00000
    38.1367     2671.00000
    38.1498     2663.00000
    38.1629     2675.00000
    38.1761     2662.00000
    38.1892     2790.00000
    38.2023     2735.00000
    38.2154     2704.00000
    38.2286     2782.00000
    38.2417     2663.00000
    38.2548     2716.00000
    38.2680     2729.00000
    38.2811     2838.00000
    38.2942     2780.00000
    38.3074     2819.00000
    38.3205     2806.00000
    38.3336     2815.00000
    38.3467     2704.00000
    38.3599     2698.00000
    38.3730     2719.00000
    38.3861     2733.00000
    38.3993     2847.00000
    38.4124     2666.00000
    38.4255     2715.00000
    38.4387     2797.00000
    38.4518     2771.00000
    38.4649     2736.00000
    38.4781     2689.00000
    38.4912     2665.00000
    38.5043     2658.00000
    38.5174     2748.00000
    38.5306     2735.00000
    38.5437     2787.00000
    38.5568     2654.00000
    38.5700     2555.00000
    38.5831     2759.00000
    38.5962     2716.00000
    38.6094     2807.00000
    38.6225     2717.00000
    38.6356     2688.00000
    38.6487     2796.00000
    38.6619     2745.00000
    38.6750     2842.00000
    38.6881     2663.00000
    38.7013     2780.00000
    38.7144     2677.00000
    38.7275     2723.00000
    38.7407     2719.00000
    38.7538     2677.00000
    38.7669     2774.00000
    38.7800     2783.00000
    38.7932     2783.00000
    38.8063     2698.00000
    38.8194     2755.00000
    38.8326     2791.00000
    38.8457     2736.00000
    38.8588     2781.00000
    38.8720     2750.00000
    38.8851     2646.00000
    38.8982     2791.00000
    38.9114     2765.00000
    38.9245     2840.00000
    38.9376     2734.00000
    38.9507     2734.00000
    38.9639     2673.00000
    38.9770     2719.00000
    38.9901     2774.00000
    39.0033     2757.00000
    39.0164     2799.00000
    39.0295     2677.00000
    39.0427     2680.00000
    39.0558     2753.00000
    39.0689     2707.00000
    39.0820     2726.00000
    39.0952     2626.00000
    39.1083     2723.00000
    39.1214     2795.00000
    39.1346     2722.00000
    39.1477     2680.00000
    39.1608     2783.00000
    39.1740     2762.00000
    39.1871     2688.00000
    39.2002     2679.00000
    39.2133     2763.00000
    39.2265     2737.00000
    39.2396     2675.00000
    39.2527     2692.00000
    39.2659     2707.00000
    39.2790     2685.00000
    39.2921     2690.00000
    39.3053     2701.00000
    39.3184     2695.00000
    39.3315     2782.00000
    39.3446     2736.00000
    39.3578     2681.00000
    39.3709     2577.00000
    39.3840     2724.00000
    39.3972     2780.00000
    39.4103     2727.00000
    39.4234     2683.00000
    39.4366     2702.00000
    39.4497     2699.00000
    39.4628     2697.00000
    39.4760     2816.00000
    39.4891     2664.00000
    39.5022     2719.00000
    39.5153     2694.00000
    39.5285     2783.00000
    39.5416     2801.00000
    39.5547     2962.00000
    39.5679     2834.00000
    39.5810     2761.00000
    39.5941     2746.00000
    39.6073     2795.00000
    39.6204     2810.00000
    39.6335     2883.00000
    39.6466     2993.00000
    39.6598     3061.00000
    39.6729     3154.00000
    39.6860     3461.00000
    39.6992     3996.00000
    39.7123     4387.00000
    39.7254     4898.00000
    39.7386     5034.00000
    39.7517     5246.00000
    39.7648     4937.00000
    39.7779     4756.00000
    39.7911     4291.00000
    39.8042     4066.00000
    39.8173     4108.00000
    39.8305     4077.00000
    39.8436     4128.00000
    39.8567     4036.00000
    39.8699     4051.00000
    39.8830     3721.00000
    39.8961     3424.00000
    39.9092     3266.00000
    39.9224     3257.00000
    39.9355     3159.00000
    39.9486     3030.00000
    39.9618     3054.00000
    39.9749     3308.00000
    39.9880     3264.00000
    40.0012     3382.00000
    40.0143     3675.00000
    40.0274     4018.00000
    40.0406     4847.00000
    40.0537     5862.00000
    40.0668     6926.00000
    40.0799     7584.00000
    40.0931     7403.00000
    40.1062     6866.00000
    40.1193     6189.00000
    40.1325     5607.00000
    40.1456     5274.00000
    40.1587     5201.00000
    40.1719     5403.00000
    40.1850     5550.00000
    40.1981     5413.00000
    40.2112     4963.00000
    40.2244     4770.00000
    40.2375     4228.00000
    40.2506     4005.00000
    40.2638     3850.00000
    40.2769     4048.00000
    40.2900     4265.00000
    40.3032     4909.00000
    40.3163     5969.00000
    40.3294     7587.00000
    40.3425     9056.00000
    40.3557     9729.00000
    40.3688     9031.00000
    40.3819     7892.00000
    40.3951     6573.00000
    40.4082     5771.00000
    40.4213     5606.00000
    40.4345     5806.00000
    40.4476     6504.00000
    40.4607     6644.00000
    40.4739     6153.00000
    40.4870     5345.00000
    40.5001     4616.00000
    40.5132     3964.00000
    40.5264     3640.00000
    40.5395     3413.00000
    40.5526     3335.00000
    40.5658     3129.00000
    40.5789     3036.00000
    40.5920     3002.00000
    40.6052     2946.00000
    40.6183     2913.00000
    40.6314     2963.00000
    40.6445     2846.00000
    40.6577     2855.00000
    40.6708     2922.00000
    40.6839     2964.00000
    40.6971     2956.00000
    40.7102     2849.00000
    40.7233     2883.00000
    40.7365     2834.00000
    40.7496     2849.00000
    40.7627     2937.00000
    40.7758     2877.00000
    40.7890     2888.00000
    40.8021     2905.00000
    40.8152     2988.00000
    40.8284     2967.00000
    40.8415     2944.00000
    40.8546     2994.00000
    40.8678     3039.00000
    40.8809     3052.00000
    40.8940     3149.00000
    40.9072     3287.00000
    40.9203     3268.00000
    40.9334     3469.00000
    40.9465     3787.00000
    40.9597     3879.00000
    40.9728     4316.00000
    40.9859     4925.00000
    40.9991     5829.00000
    41.0122     7295.00000
    41.0253     8638.00000
    41.0385    10042.00000
    41.0516    11060.00000
    41.0647    10990.00000
    41.0778    10400.00000
    41.0910     9244.00000
    41.1041     8199.00000
    41.1172     7703.00000
    41.1304     7815.00000
    41.1435     9180.00000
    41.1566    10576.00000
    41.1698    12688.00000
    41.1829    14561.00000
    41.1960    15269.00000
    41.2091    14437.00000
    41.2223    12802.00000
    41.2354    10699.00000
    41.2485     8862.00000
    41.2617     8108.00000
    41.2748     8876.00000
    41.2879    10591.00000
    41.3011    12937.00000
    41.3142    14770.00000
    41.3273    15724.00000
    41.3405    15781.00000
    41.3536    14396.00000
    41.3667    11780.00000
    41.3798     9551.00000
    41.3930     8144.00000
    41.4061     7264.00000
    41.4192     7449.00000
    41.4324     7704.00000
    41.4455     8005.00000
    41.4586     7775.00000
    41.4718     6878.00000
    41.4849     5805.00000
    41.4980     4898.00000
    41.5111     4183.00000
    41.5243     3601.00000
    41.5374     3390.00000
    41.5505     3193.00000
    41.5637     3088.00000
    41.5768     3030.00000
    41.5899     3041.00000
    41.6031     2918.00000
    41.6162     2941.00000
    41.6293     2886.00000
    41.6424     2825.00000
    41.6556     2833.00000
    41.6687     2879.00000
    41.6818     2735.00000
    41.6950     2853.00000
    41.7081     2783.00000
    41.7212     2758.00000
    41.7344     2737.00000
    41.7475     2708.00000
    41.7606     2708.00000
    41.7738     2808.00000
    41.7869     2707.00000
    41.8000     2728.00000
    41.8131     2730.00000
    41.8263     2673.00000
    41.8394     2730.00000
    41.8525     2718.00000
    41.8657     2765.00000
    41.8788     2674.00000
    41.8919     2633.00000
    41.9051     2684.00000
    41.9182     2723.00000
    41.9313     2602.00000
    41.9444     2730.00000
    41.9576     2635.00000
    41.9707     2621.00000
    41.9838     2642.00000
    41.9970     2612.00000
    42.0101     2656.00000
    42.0232     2715.00000
    42.0364     2722.00000
    42.0495     2673.00000
    42.0626     2667.00000
    42.0757     2806.00000
    42.0889     2642.00000
    42.1020     2643.00000
    42.1151     2689.00000
    42.1283     2671.00000
    42.1414     2676.00000
    42.1545     2681.00000
    42.1677     2629.00000
    42.1808     2608.00000
    42.1939     2652.00000
    42.2071     2629.00000
    42.2202     2773.00000
    42.2333     2653.00000
    42.2464     2712.00000
    42.2596     2736.00000
    42.2727     2616.00000
    42.2858     2749.00000
    42.2990     2706.00000
    42.3121     2595.00000
    42.3252     2698.00000
    42.3384     2643.00000
    42.3515     2709.00000
    42.3646     2590.00000
    42.3777     2726.00000
    42.3909     2645.00000
    42.4040     2693.00000
    42.4171     2653.00000
    42.4303     2567.00000
    42.4434     2595.00000
    42.4565     2668.00000
    42.4697     2684.00000
    42.4828     2576.00000
    42.4959     2534.00000
    42.5090     2592.00000
    42.5222     2677.00000
    42.5353     2713.00000
    42.5484     2601.00000
    42.5616     2688.00000
    42.5747     2581.00000
    42.5878     2652.00000
    42.6010     2621.00000
    42.6141     2722.00000
    42.6272     2576.00000
    42.6404     2686.00000
    42.6535     2664.00000
    42.6666     2626.00000
    42.6797     2642.00000
    42.6929     2551.00000
    42.7060     2612.00000
    42.7191     2703.00000
    42.7323     2583.00000
    42.7454     2655.00000
    42.7585     2689.00000
    42.7717     2674.00000
    42.7848     2588.00000
    42.7979     2658.00000
    42.8110     2655.00000
    42.8242     2726.00000
    42.8373     2647.00000
    42.8504     2714.00000
    42.8636     2685.00000
    42.8767     2652.00000
    42.8898     2579.00000
    42.9030     2716.00000
    42.9161     2726.00000
    42.9292     2753.00000
    42.9423     2624.00000
    42.9555     2552.00000
    42.9686     2723.00000
    42.9817     2759.00000
    42.9949     2736.00000
    43.0080     2609.00000
    43.0211     2659.00000
    43.0343     2683.00000
    43.0474     2693.00000
    43.0605     2679.00000
    43.0736     2632.00000
    43.0868     2652.00000
    43.0999     2586.00000
    43.1130     2548.00000
    43.1262     2610.00000
    43.1393     2577.00000
    43.1524     2685.00000
    43.1656     2518.00000
    43.1787     2536.00000
    43.1918     2758.00000
    43.2050     2635.00000
    43.2181     2656.00000
    43.2312     2600.00000
    43.2443     2653.00000
    43.2575     2529.00000
    43.2706     2658.00000
    43.2837     2591.00000
    43.2969     2610.00000
    43.3100     2587.00000
    43.3231     2613.00000
    43.3363     2677.00000
    43.3494     2682.00000
    43.3625     2734.00000
    43.3756     2691.00000
    43.3888     2842.00000
    43.4019     2889.00000
    43.4150     2774.00000
    43.4282     3025.00000
    43.4413     3193.00000
    43.4544     3452.00000
    43.4676     3464.00000
    43.4807     3484.00000
    43.4938     3438.00000
    43.5069     3194.00000
    43.5201     3120.00000
    43.5332     3092.00000
    43.5463     3020.00000
    43.5595     3022.00000
    43.5726     2982.00000
    43.5857     3086.00000
    43.5989     3049.00000
    43.6120     2960.00000
    43.6251     2983.00000
    43.6383     2723.00000
    43.6514     2714.00000
    43.6645     2653.00000
    43.6776     2704.00000
    43.6908     2614.00000
    43.7039     2630.00000
    43.7170     2618.00000
    43.7302     2652.00000
    43.7433     2614.00000
    43.7564     2658.00000
    43.7696     2595.00000
    43.7827     2650.00000
    43.7958     2651.00000
    43.8089     2765.00000
    43.8221     2702.00000
    43.8352     2602.00000
    43.8483     2744.00000
    43.8615     2627.00000
    43.8746     2656.00000
    43.8877     2540.00000
    43.9009     2588.00000
    43.9140     2592.00000
    43.9271     2570.00000
    43.9402     2592.00000
    43.9534     2650.00000
    43.9665     2683.00000
    43.9796     2624.00000
    43.9928     2592.00000
    44.0059     2733.00000
    44.0190     2587.00000
    44.0322     2693.00000
    44.0453     2530.00000
    44.0584     2699.00000
    44.0715     2639.00000
    44.0847     2641.00000
    44.0978     2608.00000
    44.1109     2685.00000
    44.1241     2662.00000
    44.1372     2751.00000
    44.1503     2737.00000
    44.1635     2902.00000
    44.1766     3069.00000
    44.1897     3036.00000
    44.2029     3351.00000
    44.2160     3405.00000
    44.2291     3728.00000
    44.2422     3702.00000
    44.2554     3856.00000
    44.2685     3934.00000
    44.2816     3677.00000
    44.2948     3548.00000
    44.3079     3345.00000
    44.3210     3163.00000
    44.3342     3067.00000
    44.3473     3127.00000
    44.3604     3291.00000
    44.3735     3197.00000
    44.3867     3234.00000
    44.3998     3047.00000
    44.4129     3099.00000
    44.4261     2846.00000
    44.4392     2901.00000
    44.4523     2792.00000
    44.4655     2837.00000
    44.4786     2737.00000
    44.4917     2786.00000
    44.5048     2931.00000
    44.5180     2821.00000
    44.5311     2934.00000
    44.5442     3002.00000
    44.5574     3224.00000
    44.5705     3401.00000
    44.5836     3553.00000
    44.5968     4042.00000
    44.6099     4405.00000
    44.6230     5122.00000
    44.6362     5595.00000
    44.6493     5884.00000
    44.6624     5724.00000
    44.6755     5185.00000
    44.6887     4972.00000
    44.7018     4346.00000
    44.7149     4040.00000
    44.7281     3986.00000
    44.7412     4029.00000
    44.7543     4236.00000
    44.7675     4438.00000
    44.7806     4160.00000
    44.7937     3862.00000
    44.8068     3661.00000
    44.8200     3311.00000
    44.8331     3114.00000
    44.8462     3044.00000
    44.8594     2904.00000
    44.8725     2761.00000
    44.8856     2701.00000
    44.8988     2665.00000
    44.9119     2777.00000
    44.9250     2834.00000
    44.9381     2669.00000
    44.9513     2807.00000
    44.9644     2751.00000
    44.9775     2655.00000
    44.9907     2637.00000
    45.0038     2692.00000
    45.0169     2560.00000
    45.0301     2585.00000
    45.0432     2639.00000
    45.0563     2665.00000
    45.0695     2598.00000
    45.0826     2506.00000
    45.0957     2616.00000
    45.1088     2579.00000
    45.1220     2681.00000
    45.1351     2587.00000
    45.1482     2619.00000
    45.1614     2624.00000
    45.1745     2566.00000
    45.1876     2693.00000
    45.2008     2634.00000
    45.2139     2619.00000
    45.2270     2621.00000
    45.2401     2520.00000
    45.2533     2621.00000
    45.2664     2611.00000
    45.2795     2649.00000
    45.2927     2645.00000
    45.3058     2582.00000
    45.3189     2571.00000
    45.3321     2663.00000
    45.3452     2525.00000
    45.3583     2634.00000
    45.3714     2665.00000
    45.3846     2704.00000
    45.3977     2639.00000
    45.4108     2700.00000
    45.4240     2608.00000
    45.4371     2654.00000
    45.4502     2721.00000
    45.4634     2776.00000
    45.4765     2765.00000
    45.4896     2839.00000
    45.5028     2776.00000
    45.5159     2820.00000
    45.5290     2849.00000
    45.5421     2854.00000
    45.5553     2920.00000
    45.5684     2832.00000
    45.5815     3058.00000
    45.5947     2968.00000
    45.6078     3126.00000
    45.6209     3229.00000
    45.6341     3355.00000
    45.6472     3865.00000
    45.6603     4462.00000
    45.6734     5659.00000
    45.6866     7825.00000
    45.6997    10382.00000
    45.7128    12196.00000
    45.7260    12093.00000
    45.7391    10177.00000
    45.7522     7787.00000
    45.7654     6119.00000
    45.7785     5355.00000
    45.7916     5108.00000
    45.8047     5631.00000
    45.8179     6582.00000
    45.8310     7472.00000
    45.8441     7370.00000
    45.8573     6610.00000
    45.8704     5398.00000
    45.8835     4673.00000
    45.8967     3775.00000
    45.9098     3284.00000
    45.9229     3118.00000
    45.9361     3053.00000
    45.9492     2875.00000
    45.9623     2804.00000
    45.9754     2848.00000
    45.9886     2782.00000
    46.0017     2693.00000
    46.0148     2701.00000
    46.0280     2801.00000
    46.0411     2767.00000
    46.0542     2656.00000
    46.0674     2828.00000
    46.0805     2698.00000
    46.0936     2687.00000
    46.1067     2728.00000
    46.1199     2769.00000
    46.1330     2745.00000
    46.1461     2768.00000
    46.1593     2844.00000
    46.1724     2793.00000
    46.1855     2672.00000
    46.1987     2919.00000
    46.2118     2815.00000
    46.2249     2896.00000
    46.2380     2986.00000
    46.2512     3054.00000
    46.2643     3107.00000
    46.2774     3309.00000
    46.2906     3776.00000
    46.3037     4343.00000
    46.3168     5342.00000
    46.3300     6820.00000
    46.3431     7543.00000
    46.3562     7291.00000
    46.3694     6378.00000
    46.3825     5477.00000
    46.3956     4343.00000
    46.4087     4045.00000
    46.4219     4022.00000
    46.4350     4157.00000
    46.4481     4730.00000
    46.4613     5100.00000
    46.4744     5146.00000
    46.4875     4730.00000
    46.5007     4129.00000
    46.5138     3679.00000
    46.5269     3307.00000
    46.5400     3050.00000
    46.5532     2937.00000
    46.5663     2811.00000
    46.5794     2746.00000
    46.5926     2874.00000
    46.6057     2727.00000
    46.6188     2721.00000
    46.6320     2753.00000
    46.6451     2714.00000
    46.6582     2721.00000
    46.6713     2737.00000
    46.6845     2730.00000
    46.6976     2664.00000
    46.7107     2778.00000
    46.7239     2727.00000
    46.7370     2672.00000
    46.7501     2611.00000
    46.7633     2748.00000
    46.7764     2705.00000
    46.7895     2686.00000
    46.8027     2595.00000
    46.8158     2780.00000
    46.8289     2715.00000
    46.8420     2686.00000
    46.8552     2654.00000
    46.8683     2662.00000
    46.8814     2708.00000
    46.8946     2669.00000
    46.9077     2691.00000
    46.9208     2746.00000
    46.9340     2654.00000
    46.9471     2694.00000
    46.9602     2823.00000
    46.9733     2769.00000
    46.9865     2857.00000
    46.9996     2872.00000
    47.0127     2964.00000
    47.0259     2874.00000
    47.0390     2946.00000
    47.0521     2903.00000
    47.0653     2974.00000
    47.0784     2935.00000
    47.0915     3020.00000
    47.1046     3233.00000
    47.1178     3344.00000
    47.1309     3544.00000
    47.1440     3840.00000
    47.1572     4335.00000
    47.1703     4998.00000
    47.1834     5884.00000
    47.1966     6951.00000
    47.2097     7982.00000
    47.2228     8793.00000
    47.2359     8849.00000
    47.2491     8411.00000
    47.2622     7359.00000
    47.2753     5731.00000
    47.2885     5228.00000
    47.3016     5228.00000
    47.3147     5405.00000
    47.3279     5505.00000
    47.3410     5850.00000
    47.3541     5943.00000
    47.3673     5863.00000
    47.3804     5247.00000
    47.3935     4586.00000
    47.4066     3942.00000
    47.4198     3619.00000
    47.4329     3354.00000
    47.4460     3154.00000
    47.4592     3037.00000
    47.4723     3029.00000
    47.4854     2986.00000
    47.4986     2957.00000
    47.5117     2943.00000
    47.5248     2966.00000
    47.5379     3001.00000
    47.5511     2939.00000
    47.5642     3101.00000
    47.5773     3092.00000
    47.5905     3217.00000
    47.6036     3195.00000
    47.6167     3179.00000
    47.6299     3309.00000
    47.6430     3353.00000
    47.6561     3355.00000
    47.6692     3386.00000
    47.6824     3519.00000
    47.6955     3597.00000
    47.7086     3607.00000
    47.7218     3717.00000
    47.7349     3771.00000
    47.7480     4034.00000
    47.7612     4410.00000
    47.7743     4732.00000
    47.7874     5292.00000
    47.8005     6202.00000
    47.8137     7500.00000
    47.8268     9393.00000
    47.8399    11992.00000
    47.8531    15589.00000
    47.8662    18397.00000
    47.8793    20093.00000
    47.8925    19463.00000
    47.9056    16865.00000
    47.9187    13928.00000
    47.9319    11524.00000
    47.9450    10049.00000
    47.9581     9569.00000
    47.9712    10179.00000
    47.9844    11153.00000
    47.9975    12132.00000
    48.0106    12232.00000
    48.0238    11059.00000
    48.0369     9439.00000
    48.0500     7811.00000
    48.0632     6392.00000
    48.0763     5378.00000
    48.0894     4872.00000
    48.1025     4176.00000
    48.1157     4069.00000
    48.1288     3693.00000
    48.1419     3523.00000
    48.1551     3480.00000
    48.1682     3350.00000
    48.1813     3363.00000
    48.1945     3258.00000
    48.2076     3341.00000
    48.2207     3358.00000
    48.2338     3343.00000
    48.2470     3400.00000
    48.2601     3250.00000
    48.2732     3328.00000
    48.2864     3422.00000
    48.2995     3361.00000
    48.3126     3521.00000
    48.3258     3555.00000
    48.3389     3787.00000
    48.3520     4125.00000
    48.3652     4942.00000
    48.3783     6160.00000
    48.3914     7710.00000
    48.4045     9876.00000
    48.4177    11818.00000
    48.4308    12534.00000
    48.4439    12599.00000
    48.4571    12867.00000
    48.4702    12816.00000
    48.4833    12290.00000
    48.4965    11728.00000
    48.5096    10762.00000
    48.5227    10312.00000
    48.5358     9905.00000
    48.5490     9501.00000
    48.5621     8845.00000
    48.5752     8396.00000
    48.5884     8220.00000
    48.6015     8151.00000
    48.6146     7702.00000
    48.6278     6836.00000
    48.6409     6462.00000
    48.6540     5668.00000
    48.6671     4882.00000
    48.6803     4406.00000
    48.6934     3898.00000
    48.7065     3955.00000
    48.7197     3836.00000
    48.7328     4155.00000
    48.7459     4385.00000
    48.7591     5022.00000
    48.7722     5839.00000
    48.7853     7309.00000
    48.7985     9126.00000
    48.8116    11498.00000
    48.8247    12803.00000
    48.8378    13253.00000
    48.8510    11591.00000
    48.8641     9688.00000
    48.8772     7731.00000
    48.8904     6452.00000
    48.9035     6057.00000
    48.9166     6229.00000
    48.9298     7105.00000
    48.9429     7737.00000
    48.9560     8207.00000
    48.9691     8065.00000
    48.9823     7036.00000
    48.9954     6043.00000
    49.0085     5038.00000
    49.0217     4318.00000
    49.0348     3721.00000
    49.0479     3512.00000
    49.0611     3330.00000
    49.0742     3348.00000
    49.0873     3140.00000
    49.1004     3072.00000
    49.1136     2977.00000
    49.1267     2957.00000
    49.1398     2997.00000
    49.1530     2881.00000
    49.1661     2865.00000
    49.1792     2866.00000
    49.1924     2892.00000
    49.2055     2903.00000
    49.2186     2657.00000
    49.2318     2913.00000
    49.2449     2880.00000
    49.2580     2738.00000
    49.2711     2814.00000
    49.2843     2841.00000
    49.2974     2824.00000
    49.3105     2847.00000
    49.3237     2785.00000
    49.3368     2749.00000
    49.3499     2863.00000
    49.3631     2922.00000
    49.3762     2890.00000
    49.3893     3069.00000
    49.4024     3268.00000
    49.4156     3349.00000
    49.4287     3558.00000
    49.4418     3365.00000
    49.4550     3360.00000
    49.4681     3278.00000
    49.4812     3208.00000
    49.4944     3106.00000
    49.5075     3165.00000
    49.5206     3171.00000
    49.5337     3159.00000
    49.5469     3325.00000
    49.5600     3355.00000
    49.5731     3345.00000
    49.5863     3286.00000
    49.5994     3121.00000
    49.6125     3238.00000
    49.6257     3259.00000
    49.6388     3419.00000
    49.6519     3296.00000
    49.6651     3236.00000
    49.6782     3197.00000
    49.6913     3155.00000
    49.7044     3111.00000
    49.7176     3075.00000
    49.7307     3083.00000
    49.7438     3125.00000
    49.7570     3164.00000
    49.7701     3159.00000
    49.7832     3296.00000
    49.7964     3460.00000
    49.8095     3428.00000
    49.8226     3441.00000
    49.8357     3327.00000
    49.8489     3428.00000
    49.8620     3354.00000
    49.8751     3454.00000
    49.8883     3483.00000
    49.9014     3679.00000
    49.9145     3892.00000
    49.9277     4174.00000
    49.9408     4684.00000
    49.9539     5290.00000
    49.9670     6369.00000
    49.9802     8052.00000
    49.9933    10477.00000
    50.0064    13895.00000
    50.0196    17084.00000
    50.0327    18687.00000
    50.0458    18828.00000
    50.0590    16956.00000
    50.0721    14066.00000
    50.0852    11605.00000
    50.0984    10214.00000
    50.1115     9596.00000
    50.1246    10171.00000
    50.1377    11110.00000
    50.1509    12241.00000
    50.1640    12825.00000
    50.1771    12708.00000
    50.1903    11352.00000
    50.2034     9316.00000
    50.2165     7736.00000
    50.2297     6355.00000
    50.2428     5815.00000
    50.2559     5259.00000
    50.2690     4851.00000
    50.2822     4801.00000
    50.2953     4482.00000
    50.3084     4212.00000
    50.3216     3891.00000
    50.3347     3613.00000
    50.3478     3444.00000
    50.3610     3440.00000
    50.3741     3345.00000
    50.3872     3291.00000
    50.4003     3292.00000
    50.4135     3187.00000
    50.4266     3274.00000
    50.4397     3267.00000
    50.4529     3400.00000
    50.4660     3425.00000
    50.4791     3436.00000
    50.4923     3573.00000
    50.5054     3743.00000
    50.5185     4009.00000
    50.5317     4251.00000
    50.5448     4549.00000
    50.5579     5263.00000
    50.5710     6002.00000
    50.5842     7207.00000
    50.5973     8520.00000
    50.6104     9749.00000
    50.6236    10761.00000
    50.6367    11198.00000
    50.6498    10643.00000
    50.6630     9282.00000
    50.6761     7798.00000
    50.6892     6736.00000
    50.7023     6170.00000
    50.7155     6104.00000
    50.7286     6328.00000
    50.7417     6757.00000
    50.7549     7159.00000
    50.7680     7111.00000
    50.7811     6902.00000
    50.7943     6310.00000
    50.8074     5501.00000
    50.8205     4789.00000
    50.8336     4084.00000
    50.8468     3836.00000
    50.8599     3464.00000
    50.8730     3299.00000
    50.8862     3240.00000
    50.8993     3153.00000
    50.9124     3002.00000
    50.9256     2836.00000
    50.9387     2965.00000
    50.9518     2878.00000
    50.9649     2834.00000
    50.9781     2920.00000
    50.9912     2836.00000
    51.0043     2780.00000
    51.0175     2797.00000
    51.0306     2774.00000
    51.0437     2842.00000
    51.0569     2668.00000
    51.0700     2739.00000
    51.0831     2808.00000
    51.0963     2816.00000
    51.1094     2763.00000
    51.1225     2769.00000
    51.1356     2719.00000
    51.1488     2779.00000
    51.1619     2766.00000
    51.1750     2780.00000
    51.1882     2851.00000
    51.2013     2666.00000
    51.2144     2789.00000
    51.2276     2743.00000
    51.2407     2747.00000
    51.2538     2842.00000
    51.2669     2784.00000
    51.2801     2934.00000
    51.2932     2859.00000
    51.3063     2978.00000
    51.3195     2991.00000
    51.3326     2776.00000
    51.3457     2970.00000
    51.3589     2867.00000
    51.3720     2985.00000
    51.3851     3014.00000
    51.3982     3168.00000
    51.4114     3385.00000
    51.4245     3394.00000
    51.4376     3539.00000
    51.4508     3847.00000
    51.4639     4335.00000
    51.4770     4982.00000
    51.4902     5955.00000
    51.5033     7309.00000
    51.5164     8772.00000
    51.5296     9216.00000
    51.5427     8687.00000
    51.5558     7237.00000
    51.5689     5868.00000
    51.5821     4932.00000
    51.5952     4248.00000
    51.6083     4215.00000
    51.6215     4555.00000
    51.6346     5035.00000
    51.6477     5672.00000
    51.6609     5941.00000
    51.6740     5847.00000
    51.6871     5419.00000
    51.7002     4942.00000
    51.7134     4257.00000
    51.7265     3886.00000
    51.7396     3840.00000
    51.7528     3801.00000
    51.7659     3691.00000
    51.7790     3639.00000
    51.7922     3305.00000
    51.8053     3161.00000
    51.8184     3087.00000
    51.8315     3038.00000
    51.8447     2858.00000
    51.8578     2995.00000
    51.8709     2986.00000
    51.8841     3113.00000
    51.8972     3153.00000
    51.9103     3208.00000
    51.9235     3072.00000
    51.9366     2964.00000
    51.9497     2907.00000
    51.9628     2977.00000
    51.9760     2872.00000
    51.9891     2770.00000
    52.0022     2735.00000
    52.0154     2751.00000
    52.0285     2779.00000
    52.0416     2802.00000
    52.0548     2739.00000
    52.0679     2770.00000
    52.0810     2728.00000
    52.0942     2689.00000
    52.1073     2697.00000
    52.1204     2781.00000
    52.1335     2647.00000
    52.1467     2686.00000
    52.1598     2773.00000
    52.1729     2817.00000
    52.1861     2746.00000
    52.1992     2776.00000
    52.2123     2699.00000
    52.2255     2717.00000
    52.2386     2731.00000
    52.2517     2721.00000
    52.2648     2807.00000
    52.2780     2739.00000
    52.2911     2833.00000
    52.3042     2693.00000
    52.3174     2916.00000
    52.3305     2716.00000
    52.3436     2843.00000
    52.3568     2908.00000
    52.3699     2924.00000
    52.3830     2975.00000
    52.3961     3012.00000
    52.4093     2943.00000
    52.4224     2888.00000
    52.4355     3089.00000
    52.4487     3181.00000
    52.4618     3300.00000
    52.4749     3417.00000
    52.4881     3771.00000
    52.5012     4150.00000
    52.5143     4859.00000
    52.5275     6041.00000
    52.5406     7351.00000
    52.5537     8526.00000
    52.5668     9621.00000
    52.5800    10322.00000
    52.5931    10801.00000
    52.6062    10728.00000
    52.6194     9721.00000
    52.6325     8323.00000
    52.6456     7064.00000
    52.6588     6134.00000
    52.6719     5684.00000
    52.6850     5844.00000
    52.6981     6329.00000
    52.7113     6556.00000
    52.7244     6782.00000
    52.7375     6827.00000
    52.7507     6510.00000
    52.7638     5980.00000
    52.7769     5256.00000
    52.7901     4544.00000
    52.8032     4010.00000
    52.8163     3506.00000
    52.8294     3189.00000
    52.8426     3186.00000
    52.8557     3119.00000
    52.8688     2969.00000
    52.8820     2985.00000
    52.8951     2992.00000
    52.9082     3087.00000
    52.9214     3049.00000
    52.9345     3339.00000
    52.9476     3305.00000
    52.9608     3688.00000
    52.9739     4154.00000
    52.9870     4536.00000
    53.0001     4916.00000
    53.0133     5261.00000
    53.0264     5447.00000
    53.0395     5484.00000
    53.0527     5637.00000
    53.0658     5715.00000
    53.0789     5474.00000
    53.0921     5318.00000
    53.1052     4770.00000
    53.1183     4440.00000
    53.1314     4405.00000
    53.1446     4104.00000
    53.1577     4177.00000
    53.1708     4126.00000
    53.1840     4189.00000
    53.1971     4233.00000
    53.2102     4087.00000
    53.2234     3962.00000
    53.2365     3761.00000
    53.2496     3558.00000
    53.2627     3325.00000
    53.2759     3144.00000
    53.2890     2969.00000
    53.3021     2832.00000
    53.3153     2780.00000
    53.3284     2687.00000
    53.3415     2702.00000
    53.3547     2759.00000
    53.3678     2702.00000
    53.3809     2773.00000
    53.3941     2725.00000
    53.4072     2666.00000
    53.4203     2663.00000
    53.4334     2754.00000
    53.4466     2835.00000
    53.4597     2890.00000
    53.4728     2902.00000
    53.4860     2982.00000
    53.4991     3198.00000
    53.5122     3475.00000
    53.5254     3725.00000
    53.5385     4090.00000
    53.5516     4368.00000
    53.5647     4454.00000
    53.5779     4334.00000
    53.5910     4045.00000
    53.6041     3546.00000
    53.6173     3560.00000
    53.6304     3426.00000
    53.6435     3142.00000
    53.6567     3211.00000
    53.6698     3354.00000
    53.6829     3583.00000
    53.6960     3533.00000
    53.7092     3665.00000
    53.7223     3636.00000
    53.7354     3601.00000
    53.7486     3294.00000
    53.7617     3222.00000
    53.7748     3027.00000
    53.7880     2874.00000
    53.8011     2886.00000
    53.8142     2743.00000
    53.8274     2753.00000
    53.8405     2773.00000
    53.8536     2711.00000
    53.8667     2733.00000
    53.8799     2669.00000
    53.8930     2695.00000
    53.9061     2726.00000
    53.9193     2637.00000
    53.9324     2606.00000
    53.9455     2622.00000
    53.9587     2617.00000
    53.9718     2566.00000
    53.9849     2602.00000
    53.9980     2655.00000
    54.0112     2577.00000
    54.0243     2556.00000
    54.0374     2760.00000
    54.0506     2570.00000
    54.0637     2518.00000
    54.0768     2582.00000
    54.0900     2590.00000
    54.1031     2539.00000
    54.1162     2527.00000
    54.1293     2608.00000
    54.1425     2578.00000
    54.1556     2598.00000
    54.1687     2566.00000
    54.1819     2527.00000
    54.1950     2539.00000
    54.2081     2658.00000
    54.2213     2562.00000
    54.2344     2610.00000
    54.2475     2561.00000
    54.2607     2591.00000
    54.2738     2593.00000
    54.2869     2548.00000
    54.3000     2587.00000
    54.3132     2616.00000
    54.3263     2646.00000
    54.3394     2619.00000
    54.3526     2695.00000
    54.3657     2692.00000
    54.3788     2700.00000
    54.3920     2768.00000
    54.4051     2846.00000
    54.4182     2917.00000
    54.4313     2893.00000
    54.4445     2971.00000
    54.4576     2940.00000
    54.4707     3024.00000
    54.4839     2876.00000
    54.4970     2961.00000
    54.5101     2824.00000
    54.5233     2933.00000
    54.5364     2871.00000
    54.5495     2775.00000
    54.5626     2854.00000
    54.5758     2875.00000
    54.5889     2736.00000
    54.6020     2869.00000
    54.6152     2792.00000
    54.6283     2806.00000
    54.6414     2761.00000
    54.6546     2758.00000
    54.6677     2733.00000
    54.6808     2720.00000
    54.6940     2650.00000
    54.7071     2631.00000
    54.7202     2683.00000
    54.7333     2704.00000
    54.7465     2513.00000
    54.7596     2593.00000
    54.7727     2655.00000
    54.7859     2602.00000
    54.7990     2516.00000
    54.8121     2621.00000
    54.8253     2600.00000
    54.8384     2615.00000
    54.8515     2635.00000
    54.8646     2628.00000
    54.8778     2625.00000
    54.8909     2620.00000
    54.9040     2525.00000
    54.9172     2623.00000
    54.9303     2722.00000
    54.9434     2488.00000
    54.9566     2588.00000
    54.9697     2766.00000
    54.9828     2653.00000
    54.9959     2651.00000
    55.0091     2628.00000
    55.0222     2607.00000
    55.0353     2638.00000
    55.0485     2577.00000
    55.0616     2651.00000
    55.0747     2592.00000
    55.0879     2600.00000
    55.1010     2576.00000
    55.1141     2686.00000
    55.1272     2596.00000
    55.1404     2633.00000
    55.1535     2651.00000
    55.1666     2660.00000
    55.1798     2636.00000
    55.1929     2683.00000
    55.2060     2722.00000
    55.2192     2730.00000
    55.2323     2701.00000
    55.2454     2827.00000
    55.2586     2759.00000
    55.2717     2783.00000
    55.2848     2822.00000
    55.2979     2859.00000
    55.3111     2851.00000
    55.3242     2861.00000
    55.3373     2841.00000
    55.3505     2903.00000
    55.3636     2942.00000
    55.3767     3095.00000
    55.3899     3033.00000
    55.4030     3102.00000
    55.4161     3167.00000
    55.4292     3305.00000
    55.4424     3485.00000
    55.4555     3797.00000
    55.4686     4057.00000
    55.4818     4358.00000
    55.4949     5107.00000
    55.5080     6161.00000
    55.5212     7546.00000
    55.5343     9317.00000
    55.5474    10898.00000
    55.5605    11949.00000
    55.5737    11501.00000
    55.5868    10486.00000
    55.5999     8898.00000
    55.6131     7368.00000
    55.6262     6251.00000
    55.6393     5664.00000
    55.6525     5606.00000
    55.6656     5762.00000
    55.6787     6522.00000
    55.6918     7193.00000
    55.7050     7700.00000
    55.7181     7810.00000
    55.7312     7160.00000
    55.7444     6360.00000
    55.7575     5588.00000
    55.7706     4709.00000
    55.7838     4144.00000
    55.7969     3884.00000
    55.8100     3622.00000
    55.8232     3480.00000
    55.8363     3385.00000
    55.8494     3506.00000
    55.8625     3441.00000
    55.8757     3564.00000
    55.8888     3709.00000
    55.9019     3629.00000
    55.9151     3501.00000
    55.9282     3384.00000
    55.9413     3227.00000
    55.9545     3138.00000
    55.9676     3044.00000
    55.9807     2905.00000
    55.9938     2820.00000
    56.0070     3047.00000
    56.0201     3129.00000
    56.0332     3122.00000
    56.0464     3208.00000
    56.0595     3291.00000
    56.0726     3129.00000
    56.0858     3151.00000
    56.0989     2996.00000
    56.1120     3115.00000
    56.1251     3041.00000
    56.1383     2971.00000
    56.1514     3075.00000
    56.1645     2968.00000
    56.1777     3061.00000
    56.1908     3049.00000
    56.2039     3027.00000
    56.2171     3106.00000
    56.2302     3384.00000
    56.2433     3628.00000
    56.2565     3770.00000
    56.2696     4176.00000
    56.2827     5070.00000
    56.2958     5958.00000
    56.3090     7458.00000
    56.3221     8833.00000
    56.3352    10341.00000
    56.3484    11391.00000
    56.3615    11444.00000
    56.3746    11065.00000
    56.3878    10010.00000
    56.4009     9017.00000
    56.4140     8315.00000
    56.4271     8167.00000
    56.4403     8275.00000
    56.4534     8401.00000
    56.4665     8553.00000
    56.4797     8501.00000
    56.4928     8627.00000
    56.5059     8731.00000
    56.5191     8841.00000
    56.5322     8631.00000
    56.5453     8120.00000
    56.5584     7687.00000
    56.5716     7207.00000
    56.5847     6761.00000
    56.5978     6071.00000
    56.6110     5487.00000
    56.6241     4828.00000
    56.6372     4494.00000
    56.6504     4058.00000
    56.6635     4025.00000
    56.6766     3953.00000
    56.6898     4036.00000
    56.7029     4123.00000
    56.7160     3978.00000
    56.7291     3806.00000
    56.7423     3708.00000
    56.7554     3320.00000
    56.7685     3248.00000
    56.7817     3039.00000
    56.7948     3051.00000
    56.8079     2938.00000
    56.8211     2928.00000
    56.8342     2822.00000
    56.8473     2841.00000
    56.8604     2914.00000
    56.8736     2874.00000
    56.8867     2895.00000
    56.8998     2970.00000
    56.9130     2948.00000
    56.9261     2916.00000
    56.9392     2946.00000
    56.9524     2873.00000
    56.9655     2861.00000
    56.9786     2930.00000
    56.9917     3017.00000
    57.0049     3027.00000
    57.0180     3113.00000
    57.0311     3116.00000
    57.0443     3214.00000
    57.0574     3237.00000
    57.0705     3273.00000
    57.0837     3548.00000
    57.0968     3907.00000
    57.1099     4267.00000
    57.1231     4537.00000
    57.1362     5234.00000
    57.1493     6029.00000
    57.1624     6718.00000
    57.1756     7722.00000
    57.1887     8303.00000
    57.2018     8961.00000
    57.2150     9481.00000
    57.2281     9943.00000
    57.2412    10138.00000
    57.2544    10222.00000
    57.2675     9797.00000
    57.2806     9217.00000
    57.2937     8128.00000
    57.3069     7525.00000
    57.3200     7016.00000
    57.3331     7014.00000
    57.3463     7310.00000
    57.3594     7866.00000
    57.3725     8266.00000
    57.3857     8879.00000
    57.3988     9705.00000
    57.4119     9920.00000
    57.4250     9462.00000
    57.4382     8696.00000
    57.4513     7482.00000
    57.4644     6261.00000
    57.4776     5384.00000
    57.4907     4759.00000
    57.5038     4342.00000
    57.5170     4279.00000
    57.5301     4366.00000
    57.5432     4465.00000
    57.5564     4725.00000
    57.5695     4908.00000
    57.5826     4793.00000
    57.5957     4487.00000
    57.6089     4173.00000
    57.6220     3810.00000
    57.6351     3538.00000
    57.6483     3548.00000
    57.6614     3231.00000
    57.6745     3081.00000
    57.6877     3161.00000
    57.7008     3119.00000
    57.7139     3121.00000
    57.7270     2988.00000
    57.7402     3074.00000
    57.7533     3077.00000
    57.7664     3003.00000
    57.7796     3008.00000
    57.7927     3241.00000
    57.8058     3219.00000
    57.8190     3267.00000
    57.8321     3267.00000
    57.8452     3370.00000
    57.8583     3661.00000
    57.8715     3899.00000
    57.8846     4272.00000
    57.8977     5067.00000
    57.9109     5937.00000
    57.9240     6831.00000
    57.9371     7934.00000
    57.9503     8612.00000
    57.9634     8379.00000
    57.9765     7457.00000
    57.9897     6402.00000
    58.0028     5663.00000
    58.0159     4991.00000
    58.0290     4730.00000
    58.0422     4652.00000
    58.0553     4700.00000
    58.0684     5084.00000
    58.0816     5645.00000
    58.0947     6445.00000
    58.1078     6641.00000
    58.1210     6580.00000
    58.1341     6024.00000
    58.1472     5211.00000
    58.1603     4590.00000
    58.1735     4246.00000
    58.1866     3895.00000
    58.1997     3899.00000
    58.2129     3961.00000
    58.2260     3761.00000
    58.2391     3870.00000
    58.2523     3860.00000
    58.2654     3945.00000
    58.2785     3881.00000
    58.2916     3531.00000
    58.3048     3393.00000
    58.3179     3177.00000
    58.3310     3117.00000
    58.3442     3166.00000
    58.3573     3193.00000
    58.3704     3205.00000
    58.3836     3137.00000
    58.3967     3324.00000
    58.4098     3177.00000
    58.4230     3085.00000
    58.4361     3135.00000
    58.4492     3074.00000
    58.4623     3088.00000
    58.4755     2976.00000
    58.4886     3059.00000
    58.5017     3004.00000
    58.5149     3109.00000
    58.5280     3094.00000
    58.5411     3262.00000
    58.5543     3245.00000
    58.5674     3366.00000
    58.5805     3476.00000
    58.5936     3860.00000
    58.6068     4024.00000
    58.6199     4328.00000
    58.6330     4760.00000
    58.6462     5347.00000
    58.6593     5990.00000
    58.6724     6855.00000
    58.6856     7482.00000
    58.6987     8102.00000
    58.7118     8203.00000
    58.7249     8309.00000
    58.7381     7709.00000
    58.7512     6821.00000
    58.7643     6124.00000
    58.7775     5703.00000
    58.7906     5515.00000
    58.8037     5606.00000
    58.8169     6158.00000
    58.8300     6689.00000
    58.8431     7506.00000
    58.8562     8870.00000
    58.8694     9990.00000
    58.8825    10955.00000
    58.8956    11424.00000
    58.9088    10884.00000
    58.9219     9830.00000
    58.9350     8024.00000
    58.9482     6600.00000
    58.9613     5557.00000
    58.9744     4936.00000
    58.9876     4835.00000
    59.0007     5036.00000
    59.0138     5128.00000
    59.0269     5638.00000
    59.0401     6185.00000
    59.0532     6457.00000
    59.0663     6599.00000
    59.0795     6375.00000
    59.0926     5816.00000
    59.1057     5354.00000
    59.1189     5195.00000
    59.1320     5075.00000
    59.1451     5186.00000
    59.1582     6018.00000
    59.1714     6798.00000
    59.1845     7748.00000
    59.1976     8753.00000
    59.2108     9597.00000
    59.2239     9671.00000
    59.2370     9238.00000
    59.2502     8156.00000
    59.2633     6915.00000
    59.2764     5806.00000
    59.2895     5050.00000
    59.3027     4868.00000
    59.3158     4876.00000
    59.3289     4991.00000
    59.3421     5388.00000
    59.3552     5680.00000
    59.3683     6144.00000
    59.3815     6256.00000
    59.3946     6037.00000
    59.4077     5607.00000
    59.4208     5000.00000
    59.4340     4345.00000
    59.4471     3931.00000
    59.4602     3622.00000
    59.4734     3420.00000
    59.4865     3320.00000
    59.4996     3180.00000
    59.5128     3157.00000
    59.5259     3125.00000
    59.5390     3226.00000
    59.5522     3149.00000
    59.5653     3170.00000
    59.5784     3134.00000
    59.5915     3041.00000
    59.6047     3175.00000
    59.6178     3272.00000
    59.6309     3324.00000
    59.6441     3319.00000
    59.6572     3654.00000
    59.6703     3949.00000
    59.6835     4422.00000
    59.6966     4897.00000
    59.7097     5690.00000
    59.7228     6595.00000
    59.7360     7355.00000
    59.7491     8296.00000
    59.7622     9323.00000
    59.7754     9898.00000
    59.7885    10277.00000
    59.8016    10023.00000
    59.8148     9545.00000
    59.8279     8807.00000
    59.8410     8164.00000
    59.8541     7693.00000
    59.8673     7500.00000
    59.8804     7898.00000
    59.8935     8980.00000
    59.9067    10795.00000
    59.9198    12928.00000
    59.9329    14046.00000
    59.9461    14265.00000
    59.9592    13240.00000
    59.9723    11505.00000
    59.9855     9450.00000
    59.9986     7948.00000
    60.0117     6717.00000
    60.0248     5925.00000
    60.0380     5370.00000
    60.0511     5433.00000
    60.0642     5811.00000
    60.0774     6276.00000
    60.0905     6897.00000
    60.1036     7225.00000
    60.1168     6623.00000
    60.1299     5926.00000
    60.1430     5124.00000
    60.1561     4599.00000
    60.1693     4140.00000
    60.1824     3732.00000
    60.1955     3529.00000
    60.2087     3160.00000
    60.2218     3142.00000
    60.2349     3006.00000
    60.2481     3032.00000
    60.2612     2959.00000
    60.2743     2884.00000
    60.2874     2870.00000
    60.3006     2790.00000
    60.3137     2857.00000
    60.3268     2832.00000
    60.3400     2722.00000
    60.3531     2704.00000
    60.3662     2766.00000
    60.3794     2802.00000
    60.3925     2792.00000
    60.4056     2780.00000
    60.4188     2790.00000
    60.4319     2807.00000
    60.4450     2758.00000
    60.4581     2826.00000
    60.4713     2905.00000
    60.4844     2887.00000
    60.4975     2828.00000
    60.5107     2752.00000
    60.5238     2823.00000
    60.5369     2889.00000
    60.5501     2969.00000
    60.5632     2904.00000
    60.5763     2969.00000
    60.5894     3090.00000
    60.6026     3104.00000
    60.6157     3161.00000
    60.6288     3246.00000
    60.6420     3378.00000
    60.6551     3580.00000
    60.6682     3647.00000
    60.6814     3883.00000
    60.6945     4381.00000
    60.7076     4915.00000
    60.7207     5956.00000
    60.7339     7119.00000
    60.7470     8457.00000
    60.7601     9769.00000
    60.7733    10123.00000
    60.7864    10000.00000
    60.7995     9568.00000
    60.8127     8758.00000
    60.8258     8263.00000
    60.8389     8375.00000
    60.8521     8834.00000
    60.8652     9182.00000
    60.8783     9773.00000
    60.8914    10045.00000
    60.9046    10201.00000
    60.9177    10014.00000
    60.9308     9448.00000
    60.9440     8944.00000
    60.9571     8199.00000
    60.9702     7325.00000
    60.9834     6754.00000
    60.9965     6831.00000
    61.0096     6608.00000
    61.0227     7135.00000
    61.0359     7287.00000
    61.0490     7297.00000
    61.0621     7424.00000
    61.0753     7208.00000
    61.0884     6675.00000
    61.1015     6331.00000
    61.1147     5886.00000
    61.1278     5432.00000
    61.1409     5286.00000
    61.1540     4986.00000
    61.1672     5066.00000
    61.1803     5072.00000
    61.1934     5414.00000
    61.2066     5531.00000
    61.2197     5654.00000
    61.2328     5746.00000
    61.2460     5805.00000
    61.2591     5719.00000
    61.2722     5511.00000
    61.2854     5163.00000
    61.2985     4520.00000
    61.3116     4184.00000
    61.3247     3883.00000
    61.3379     3775.00000
    61.3510     3589.00000
    61.3641     3730.00000
    61.3773     3707.00000
    61.3904     3798.00000
    61.4035     3771.00000
    61.4167     3708.00000
    61.4298     3630.00000
    61.4429     3537.00000
    61.4560     3394.00000
    61.4692     3082.00000
    61.4823     2893.00000
    61.4954     2763.00000
    61.5086     2786.00000
    61.5217     2717.00000
    61.5348     2653.00000
    61.5480     2602.00000
    61.5611     2672.00000
    61.5742     2535.00000
    61.5873     2586.00000
    61.6005     2616.00000
    61.6136     2644.00000
    61.6267     2641.00000
    61.6399     2564.00000
    61.6530     2623.00000
    61.6661     2563.00000
    61.6793     2515.00000
    61.6924     2510.00000
    61.7055     2531.00000
    61.7187     2547.00000
    61.7318     2590.00000
    61.7449     2497.00000
    61.7580     2592.00000
    61.7712     2499.00000
    61.7843     2470.00000
    61.7974     2529.00000
    61.8106     2440.00000
    61.8237     2510.00000
    61.8368     2494.00000
    61.8500     2537.00000
    61.8631     2472.00000
    61.8762     2590.00000
    61.8893     2505.00000
    61.9025     2592.00000
    61.9156     2435.00000
    61.9287     2522.00000
    61.9419     2482.00000
    61.9550     2544.00000
    61.9681     2529.00000
    61.9813     2415.00000
    61.9944     2566.00000
    62.0075     2512.00000
    62.0206     2523.00000
    62.0338     2403.00000
    62.0469     2445.00000
    62.0600     2514.00000
    62.0732     2558.00000
    62.0863     2559.00000
    62.0994     2426.00000
    62.1126     2432.00000
    62.1257     2555.00000
    62.1388     2425.00000
    62.1520     2486.00000
    62.1651     2493.00000
    62.1782     2448.00000
    62.1913     2415.00000
    62.2045     2562.00000
    62.2176     2525.00000
    62.2307     2429.00000
    62.2439     2503.00000
    62.2570     2477.00000
    62.2701     2442.00000
    62.2833     2502.00000
    62.2964     2415.00000
    62.3095     2386.00000
    62.3226     2403.00000
    62.3358     2468.00000
    62.3489     2403.00000
    62.3620     2485.00000
    62.3752     2576.00000
    62.3883     2481.00000
    62.4014     2621.00000
    62.4146     2667.00000
    62.4277     2659.00000
    62.4408     2558.00000
    62.4539     2636.00000
    62.4671     2540.00000
    62.4802     2438.00000
    62.4933     2527.00000
    62.5065     2406.00000
    62.5196     2406.00000
    62.5327     2505.00000
    62.5459     2434.00000
    62.5590     2473.00000
    62.5721     2482.00000
    62.5852     2490.00000
    62.5984     2499.00000
    62.6115     2505.00000
    62.6246     2470.00000
    62.6378     2490.00000
    62.6509     2506.00000
    62.6640     2431.00000
    62.6772     2492.00000
    62.6903     2431.00000
    62.7034     2404.00000
    62.7166     2446.00000
    62.7297     2450.00000
    62.7428     2472.00000
    62.7559     2461.00000
    62.7691     2393.00000
    62.7822     2468.00000
    62.7953     2447.00000
    62.8085     2493.00000
    62.8216     2388.00000
    62.8347     2465.00000
    62.8479     2433.00000
    62.8610     2362.00000
    62.8741     2411.00000
    62.8872     2357.00000
    62.9004     2390.00000
    62.9135     2519.00000
    62.9266     2519.00000
    62.9398     2400.00000
    62.9529     2368.00000
    62.9660     2421.00000
    62.9792     2397.00000
    62.9923     2416.00000
    63.0054     2479.00000
    63.0185     2433.00000
    63.0317     2392.00000
    63.0448     2389.00000
    63.0579     2387.00000
    63.0711     2417.00000
    63.0842     2393.00000
    63.0973     2386.00000
    63.1105     2427.00000
    63.1236     2365.00000
    63.1367     2368.00000
    63.1499     2373.00000
    63.1630     2429.00000
    63.1761     2350.00000
    63.1892     2321.00000
    63.2024     2570.00000
    63.2155     2468.00000
    63.2286     2421.00000
    63.2418     2470.00000
    63.2549     2422.00000
    63.2680     2397.00000
    63.2812     2393.00000
    63.2943     2401.00000
    63.3074     2476.00000
    63.3205     2368.00000
    63.3337     2435.00000
    63.3468     2466.00000
    63.3599     2363.00000
    63.3731     2404.00000
    63.3862     2471.00000
    63.3993     2509.00000
    63.4125     2406.00000
    63.4256     2407.00000
    63.4387     2347.00000
    63.4518     2527.00000
    63.4650     2535.00000
    63.4781     2454.00000
    63.4912     2497.00000
    63.5044     2493.00000
    63.5175     2493.00000
    63.5306     2664.00000
    63.5438     2622.00000
    63.5569     2623.00000
    63.5700     2668.00000
    63.5831     2768.00000
    63.5963     2763.00000
    63.6094     2795.00000
    63.6225     2879.00000
    63.6357     3030.00000
    63.6488     3070.00000
    63.6619     3221.00000
    63.6751     3456.00000
    63.6882     3650.00000
    63.7013     3840.00000
    63.7145     4106.00000
    63.7276     4062.00000
    63.7407     3994.00000
    63.7538     3778.00000
    63.7670     3481.00000
    63.7801     3236.00000
    63.7932     3154.00000
    63.8064     2927.00000
    63.8195     3028.00000
    63.8326     2976.00000
    63.8458     2950.00000
    63.8589     3150.00000
    63.8720     3239.00000
    63.8851     3260.00000
    63.8983     3403.00000
    63.9114     3286.00000
    63.9245     3142.00000
    63.9377     3078.00000
    63.9508     2825.00000
    63.9639     2771.00000
    63.9771     2740.00000
    63.9902     2697.00000
    64.0033     2695.00000
    64.0164     2652.00000
    64.0296     2616.00000
    64.0427     2720.00000
    64.0558     2624.00000
    64.0690     2565.00000
    64.0821     2627.00000
    64.0952     2716.00000
    64.1084     2707.00000
    64.1215     2918.00000
    64.1346     2981.00000
    64.1478     3118.00000
    64.1609     3287.00000
    64.1740     3572.00000
    64.1871     3941.00000
    64.2003     4387.00000
    64.2134     4954.00000
    64.2265     5233.00000
    64.2397     5503.00000
    64.2528     5516.00000
    64.2659     5350.00000
    64.2791     5022.00000
    64.2922     4689.00000
    64.3053     4157.00000
    64.3184     3787.00000
    64.3316     3535.00000
    64.3447     3478.00000
    64.3578     3396.00000
    64.3710     3509.00000
    64.3841     3615.00000
    64.3972     3819.00000
    64.4104     4041.00000
    64.4235     4125.00000
    64.4366     4029.00000
    64.4498     3863.00000
    64.4629     3726.00000
    64.4760     3468.00000
    64.4891     3148.00000
    64.5023     2895.00000
    64.5154     2867.00000
    64.5285     2675.00000
    64.5417     2740.00000
    64.5548     2608.00000
    64.5679     2458.00000
    64.5811     2525.00000
    64.5942     2438.00000
    64.6073     2434.00000
    64.6204     2387.00000
    64.6336     2454.00000
    64.6467     2468.00000
    64.6598     2506.00000
    64.6730     2500.00000
    64.6861     2382.00000
    64.6992     2411.00000
    64.7124     2440.00000
    64.7255     2341.00000
    64.7386     2371.00000
    64.7517     2417.00000
    64.7649     2302.00000
    64.7780     2357.00000
    64.7911     2342.00000
    64.8043     2349.00000
    64.8174     2431.00000
    64.8305     2418.00000
    64.8437     2351.00000
    64.8568     2375.00000
    64.8699     2380.00000
    64.8830     2381.00000
    64.8962     2390.00000
    64.9093     2327.00000
    64.9224     2423.00000
    64.9356     2406.00000
    64.9487     2471.00000
    64.9618     2482.00000
    64.9750     2425.00000
    64.9881     2462.00000
    65.0012     2461.00000
    65.0144     2566.00000
    65.0275     2678.00000
    65.0406     2576.00000
    65.0537     2635.00000
    65.0669     2539.00000
    65.0800     2550.00000
    65.0931     2602.00000
    65.1063     2609.00000
    65.1194     2716.00000
    65.1325     2672.00000
    65.1457     2541.00000
    65.1588     2562.00000
    65.1719     2596.00000
    65.1850     2681.00000
    65.1982     2692.00000
    65.2113     2794.00000
    65.2244     2858.00000
    65.2376     2785.00000
    65.2507     2743.00000
    65.2638     2569.00000
    65.2770     2604.00000
    65.2901     2657.00000
    65.3032     2648.00000
    65.3163     2574.00000
    65.3295     2484.00000
    65.3426     2505.00000
    65.3557     2467.00000
    65.3689     2474.00000
    65.3820     2538.00000
    65.3951     2473.00000
    65.4083     2385.00000
    65.4214     2431.00000
    65.4345     2444.00000
    65.4476     2386.00000
    65.4608     2360.00000
    65.4739     2386.00000
    65.4870     2433.00000
    65.5002     2347.00000
    65.5133     2383.00000
    65.5264     2295.00000
    65.5396     2353.00000
    65.5527     2434.00000
    65.5658     2311.00000
    65.5790     2439.00000
    65.5921     2409.00000
    65.6052     2321.00000
    65.6183     2376.00000
    65.6315     2324.00000
    65.6446     2453.00000
    65.6577     2422.00000
    65.6709     2367.00000
    65.6840     2362.00000
    65.6971     2414.00000
    65.7103     2343.00000
    65.7234     2331.00000
    65.7365     2316.00000
    65.7496     2321.00000
    65.7628     2357.00000
    65.7759     2400.00000
    65.7890     2318.00000
    65.8022     2366.00000
    65.8153     2394.00000
    65.8284     2351.00000
    65.8416     2441.00000
    65.8547     2383.00000
    65.8678     2413.00000
    65.8810     2342.00000
    65.8941     2490.00000
    65.9072     2455.00000
    65.9203     2436.00000
    65.9335     2304.00000
    65.9466     2317.00000
    65.9597     2379.00000
    65.9729     2353.00000
    65.9860     2336.00000
    65.9991     2373.00000
    66.0123     2381.00000
    66.0254     2370.00000
    66.0385     2462.00000
    66.0516     2364.00000
    66.0648     2375.00000
    66.0779     2349.00000
    66.0910     2378.00000
    66.1042     2471.00000
    66.1173     2340.00000
    66.1304     2370.00000
    66.1436     2306.00000
    66.1567     2224.00000
    66.1698     2384.00000
    66.1829     2287.00000
    66.1961     2351.00000
    66.2092     2325.00000
    66.2223     2325.00000
    66.2355     2311.00000
    66.2486     2408.00000
    66.2617     2330.00000
    66.2749     2365.00000
    66.2880     2350.00000
    66.3011     2352.00000
    66.3142     2345.00000
    66.3274     2283.00000
    66.3405     2309.00000
    66.3536     2385.00000
    66.3668     2317.00000
    66.3799     2318.00000
    66.3930     2398.00000
    66.4062     2283.00000
    66.4193     2329.00000
    66.4324     2355.00000
    66.4455     2372.00000
    66.4587     2343.00000
    66.4718     2355.00000
    66.4849     2382.00000
    66.4981     2326.00000
    66.5112     2396.00000
    66.5243     2464.00000
    66.5375     2435.00000
    66.5506     2528.00000
    66.5637     2445.00000
    66.5769     2495.00000
    66.5900     2584.00000
    66.6031     2399.00000
    66.6162     2433.00000
    66.6294     2415.00000
    66.6425     2359.00000
    66.6556     2412.00000
    66.6688     2509.00000
    66.6819     2431.00000
    66.6950     2522.00000
    66.7082     2419.00000
    66.7213     2434.00000
    66.7344     2531.00000
    66.7476     2539.00000
    66.7607     2559.00000
    66.7738     2583.00000
    66.7869     2549.00000
    66.8001     2557.00000
    66.8132     2421.00000
    66.8263     2493.00000
    66.8395     2351.00000
    66.8526     2399.00000
    66.8657     2352.00000
    66.8789     2341.00000
    66.8920     2459.00000
    66.9051     2377.00000
    66.9182     2389.00000
    66.9314     2416.00000
    66.9445     2525.00000
    66.9576     2448.00000
    66.9708     2413.00000
    66.9839     2367.00000
    66.9970     2412.00000
    67.0102     2432.00000
    67.0233     2396.00000
    67.0364     2314.00000
    67.0495     2341.00000
    67.0627     2396.00000
    67.0758     2339.00000
    67.0889     2328.00000
    67.1021     2364.00000
    67.1152     2415.00000
    67.1283     2331.00000
    67.1415     2316.00000
    67.1546     2373.00000
    67.1677     2368.00000
    67.1808     2413.00000
    67.1940     2375.00000
    67.2071     2326.00000
    67.2202     2373.00000
    67.2334     2266.00000
    67.2465     2388.00000
    67.2596     2286.00000
    67.2728     2365.00000
    67.2859     2272.00000
    67.2990     2275.00000
    67.3121     2423.00000
    67.3253     2330.00000
    67.3384     2321.00000
    67.3515     2357.00000
    67.3647     2276.00000
    67.3778     2223.00000
    67.3909     2312.00000
    67.4041     2332.00000
    67.4172     2314.00000
    67.4303     2379.00000
    67.4435     2347.00000
    67.4566     2301.00000
    67.4697     2320.00000
    67.4828     2336.00000
    67.4960     2335.00000
    67.5091     2295.00000
    67.5222     2412.00000
    67.5354     2374.00000
    67.5485     2342.00000
    67.5616     2296.00000
    67.5748     2363.00000
    67.5879     2312.00000
    67.6010     2395.00000
    67.6142     2360.00000
    67.6273     2336.00000
    67.6404     2392.00000
    67.6535     2296.00000
    67.6667     2384.00000
    67.6798     2358.00000
    67.6929     2381.00000
    67.7061     2371.00000
    67.7192     2201.00000
    67.7323     2326.00000
    67.7455     2420.00000
    67.7586     2351.00000
    67.7717     2355.00000
    67.7848     2303.00000
    67.7980     2391.00000
    67.8111     2358.00000
    67.8242     2441.00000
    67.8374     2400.00000
    67.8505     2402.00000
    67.8636     2456.00000
    67.8768     2411.00000
    67.8899     2339.00000
    67.9030     2421.00000
    67.9161     2460.00000
    67.9293     2500.00000
    67.9424     2490.00000
    67.9555     2495.00000
    67.9687     2646.00000
    67.9818     2563.00000
    67.9949     2772.00000
    68.0081     2987.00000
    68.0212     3261.00000
    68.0343     3355.00000
    68.0474     3606.00000
    68.0606     3522.00000
    68.0737     3451.00000
    68.0868     3305.00000
    68.1000     3079.00000
    68.1131     2804.00000
    68.1262     2762.00000
    68.1394     2741.00000
    68.1525     2648.00000
    68.1656     2573.00000
    68.1787     2678.00000
    68.1919     2653.00000
    68.2050     2801.00000
    68.2181     2874.00000
    68.2313     2859.00000
    68.2444     3004.00000
    68.2575     2996.00000
    68.2707     2921.00000
    68.2838     2885.00000
    68.2969     2789.00000
    68.3101     2802.00000
    68.3232     2716.00000
    68.3363     2790.00000
    68.3494     2792.00000
    68.3626     2819.00000
    68.3757     2926.00000
    68.3888     2810.00000
    68.4020     2804.00000
    68.4151     2703.00000
    68.4282     2742.00000
    68.4414     2739.00000
    68.4545     2723.00000
    68.4676     2621.00000
    68.4807     2726.00000
    68.4939     2694.00000
    68.5070     2696.00000
    68.5201     2736.00000
    68.5333     2750.00000
    68.5464     2708.00000
    68.5595     2654.00000
    68.5727     2730.00000
    68.5858     2733.00000
    68.5989     2722.00000
    68.6120     2658.00000
    68.6252     2703.00000
    68.6383     2635.00000
    68.6514     2662.00000
    68.6646     2722.00000
    68.6777     2677.00000
    68.6908     2751.00000
    68.7040     2733.00000
    68.7171     2851.00000
    68.7302     3013.00000
    68.7434     3281.00000
    68.7565     3503.00000
    68.7696     3950.00000
    68.7827     4672.00000
    68.7959     5181.00000
    68.8090     5437.00000
    68.8221     5155.00000
    68.8353     4447.00000
    68.8484     3901.00000
    68.8615     3412.00000
    68.8747     3108.00000
    68.8878     2917.00000
    68.9009     2865.00000
    68.9140     2759.00000
    68.9272     2813.00000
    68.9403     2948.00000
    68.9534     3198.00000
    68.9666     3324.00000
    68.9797     3628.00000
    68.9928     3907.00000
    69.0060     3819.00000
    69.0191     3812.00000
    69.0322     3374.00000
    69.0453     3162.00000
    69.0585     2987.00000
    69.0716     2775.00000
    69.0847     2650.00000
    69.0979     2695.00000
    69.1110     2661.00000
    69.1241     2549.00000
    69.1373     2687.00000
    69.1504     2458.00000
    69.1635     2509.00000
    69.1767     2636.00000
    69.1898     2608.00000
    69.2029     2590.00000
    69.2160     2846.00000
    69.2292     2833.00000
    69.2423     2957.00000
    69.2554     3368.00000
    69.2686     3771.00000
    69.2817     3966.00000
    69.2948     4009.00000
    69.3080     3709.00000
    69.3211     3567.00000
    69.3342     3303.00000
    69.3473     2985.00000
    69.3605     2826.00000
    69.3736     2806.00000
    69.3867     2709.00000
    69.3999     2657.00000
    69.4130     2818.00000
    69.4261     2738.00000
    69.4393     2942.00000
    69.4524     3091.00000
    69.4655     3164.00000
    69.4786     3369.00000
    69.4918     3384.00000
    69.5049     3355.00000
    69.5180     3333.00000
    69.5312     3355.00000
    69.5443     3372.00000
    69.5574     3390.00000
    69.5706     3507.00000
    69.5837     3494.00000
    69.5968     3638.00000
    69.6099     3826.00000
    69.6231     3786.00000
    69.6362     3755.00000
    69.6493     3614.00000
    69.6625     3763.00000
    69.6756     3427.00000
    69.6887     3377.00000
    69.7019     3147.00000
    69.7150     3093.00000
    69.7281     3057.00000
    69.7413     3131.00000
    69.7544     3206.00000
    69.7675     3274.00000
    69.7806     3291.00000
    69.7938     3400.00000
    69.8069     3302.00000
    69.8200     3479.00000
    69.8332     3562.00000
    69.8463     3982.00000
    69.8594     4221.00000
    69.8726     4604.00000
    69.8857     4976.00000
    69.8988     5505.00000
    69.9119     6285.00000
    69.9251     6689.00000
    69.9382     7385.00000
    69.9513     7189.00000
    69.9645     6679.00000
    69.9776     5975.00000
    69.9907     5453.00000
    70.0039     4710.00000
    70.0170     4186.00000
    70.0301     3912.00000
    70.0433     3800.00000
    70.0564     3723.00000
    70.0695     3805.00000
    70.0826     4106.00000
    70.0958     4477.00000
    70.1089     4853.00000
    70.1220     5209.00000
    70.1352     5717.00000
    70.1483     6048.00000
    70.1614     6108.00000
    70.1746     5829.00000
    70.1877     5521.00000
    70.2008     5208.00000
    70.2139     4595.00000
    70.2271     4164.00000
    70.2402     3859.00000
    70.2533     3707.00000
    70.2665     3383.00000
    70.2796     3409.00000
    70.2927     3398.00000
    70.3059     3512.00000
    70.3190     3409.00000
    70.3321     3577.00000
    70.3452     3754.00000
    70.3584     3836.00000
    70.3715     3893.00000
    70.3846     3999.00000
    70.3978     3992.00000
    70.4109     4068.00000
    70.4240     4044.00000
    70.4372     4068.00000
    70.4503     4253.00000
    70.4634     4639.00000
    70.4765     4859.00000
    70.4897     5315.00000
    70.5028     5091.00000
    70.5159     5031.00000
    70.5291     4487.00000
    70.5422     4166.00000
    70.5553     3924.00000
    70.5685     3587.00000
    70.5816     3393.00000
    70.5947     3274.00000
    70.6078     3314.00000
    70.6210     3225.00000
    70.6341     3384.00000
    70.6472     3529.00000
    70.6604     3875.00000
    70.6735     3840.00000
    70.6866     4035.00000
    70.6998     4137.00000
    70.7129     4039.00000
    70.7260     3828.00000
    70.7392     3578.00000
    70.7523     3363.00000
    70.7654     3256.00000
    70.7785     3166.00000
    70.7917     3090.00000
    70.8048     2989.00000
    70.8179     3003.00000
    70.8311     2981.00000
    70.8442     2818.00000
    70.8573     2901.00000
    70.8705     2946.00000
    70.8836     2811.00000
    70.8967     2750.00000
    70.9099     2768.00000
    70.9230     2848.00000
    70.9361     2945.00000
    70.9492     2903.00000
    70.9624     3040.00000
    70.9755     2961.00000
    70.9886     3072.00000
    71.0018     3249.00000
    71.0149     3418.00000
    71.0280     3680.00000
    71.0412     3910.00000
    71.0543     3905.00000
    71.0674     3961.00000
    71.0805     4196.00000
    71.0937     4259.00000
    71.1068     4174.00000
    71.1199     4270.00000
    71.1331     4331.00000
    71.1462     4201.00000
    71.1593     3985.00000
    71.1725     3909.00000
    71.1856     3647.00000
    71.1987     3589.00000
    71.2118     3572.00000
    71.2250     3710.00000
    71.2381     3949.00000
    71.2512     4177.00000
    71.2644     4785.00000
    71.2775     5540.00000
    71.2906     5959.00000
    71.3038     6061.00000
    71.3169     5803.00000
    71.3300     5386.00000
    71.3431     4750.00000
    71.3563     4335.00000
    71.3694     3904.00000
    71.3825     3535.00000
    71.3957     3274.00000
    71.4088     3211.00000
    71.4219     3000.00000
    71.4351     2980.00000
    71.4482     3185.00000
    71.4613     3267.00000
    71.4744     3516.00000
    71.4876     3728.00000
    71.5007     3800.00000
    71.5138     3876.00000
    71.5270     3681.00000
    71.5401     3482.00000
    71.5532     3160.00000
    71.5664     2970.00000
    71.5795     2823.00000
    71.5926     2860.00000
    71.6058     2911.00000
    71.6189     2756.00000
    71.6320     2883.00000
    71.6451     3043.00000
    71.6583     3139.00000
    71.6714     3370.00000
    71.6845     3606.00000
    71.6977     3887.00000
    71.7108     4086.00000
    71.7239     4164.00000
    71.7371     3985.00000
    71.7502     3754.00000
    71.7633     3503.00000
    71.7764     3184.00000
    71.7896     2944.00000
    71.8027     2996.00000
    71.8158     2915.00000
    71.8290     2895.00000
    71.8421     2902.00000
    71.8552     2923.00000
    71.8684     3065.00000
    71.8815     3116.00000
    71.8946     3355.00000
    71.9078     3444.00000
    71.9209     3567.00000
    71.9340     3594.00000
    71.9471     3659.00000
    71.9603     3572.00000
    71.9734     3485.00000
    71.9865     3523.00000
    71.9997     3461.00000
    72.0128     3504.00000
    72.0259     3524.00000
    72.0391     3558.00000
    72.0522     3577.00000
    72.0653     3595.00000
    72.0784     3502.00000
    72.0916     3423.00000
    72.1047     3239.00000
    72.1178     3109.00000
    72.1310     2938.00000
    72.1441     2946.00000
    72.1572     2916.00000
    72.1704     2897.00000
    72.1835     2861.00000
    72.1966     2880.00000
    72.2097     2898.00000
    72.2229     2932.00000
    72.2360     2897.00000
    72.2491     2930.00000
    72.2623     2995.00000
    72.2754     2938.00000
    72.2885     2916.00000
    72.3017     2871.00000
    72.3148     2824.00000
    72.3279     2748.00000
    72.3410     2686.00000
    72.3542     2591.00000
    72.3673     2520.00000
    72.3804     2551.00000
    72.3936     2588.00000
    72.4067     2535.00000
    72.4198     2582.00000
    72.4330     2532.00000
    72.4461     2576.00000
    72.4592     2480.00000
    72.4724     2493.00000
    72.4855     2498.00000
    72.4986     2488.00000
    72.5117     2548.00000
    72.5249     2540.00000
    72.5380     2511.00000
    72.5511     2539.00000
    72.5643     2515.00000
    72.5774     2530.00000
    72.5905     2553.00000
    72.6037     2581.00000
    72.6168     2545.00000
    72.6299     2575.00000
    72.6430     2621.00000
    72.6562     2671.00000
    72.6693     2765.00000
    72.6824     2911.00000
    72.6956     3015.00000
    72.7087     3182.00000
    72.7218     3457.00000
    72.7350     3582.00000
    72.7481     3876.00000
    72.7612     4149.00000
    72.7743     4184.00000
    72.7875     4174.00000
    72.8006     4024.00000
    72.8137     3734.00000
    72.8269     3525.00000
    72.8400     3178.00000
    72.8531     3005.00000
    72.8663     2919.00000
    72.8794     2841.00000
    72.8925     2816.00000
    72.9057     3005.00000
    72.9188     2901.00000
    72.9319     3019.00000
    72.9450     3119.00000
    72.9582     3333.00000
    72.9713     3265.00000
    72.9844     3404.00000
    72.9976     3365.00000
    73.0107     3213.00000
    73.0238     3023.00000
    73.0370     3003.00000
    73.0501     2869.00000
    73.0632     2772.00000
    73.0763     2688.00000
    73.0895     2637.00000
    73.1026     2584.00000
    73.1157     2641.00000
    73.1289     2630.00000
    73.1420     2679.00000
    73.1551     2818.00000
    73.1683     2962.00000
    73.1814     3155.00000
    73.1945     3292.00000
    73.2076     3544.00000
    73.2208     3870.00000
    73.2339     3970.00000
    73.2470     4127.00000
    73.2602     4154.00000
    73.2733     4257.00000
    73.2864     3975.00000
    73.2996     3750.00000
    73.3127     3563.00000
    73.3258     3373.00000
    73.3390     3280.00000
    73.3521     3238.00000
    73.3652     3356.00000
    73.3783     3264.00000
    73.3915     3189.00000
    73.4046     3387.00000
    73.4177     3312.00000
    73.4309     3351.00000
    73.4440     3410.00000
    73.4571     3508.00000
    73.4703     3684.00000
    73.4834     3418.00000
    73.4965     3363.00000
    73.5096     3396.00000
    73.5228     3261.00000
    73.5359     3261.00000
    73.5490     3195.00000
    73.5622     3347.00000
    73.5753     3382.00000
    73.5884     3646.00000
    73.6016     3685.00000
    73.6147     3889.00000
    73.6278     4106.00000
    73.6409     4075.00000
    73.6541     4098.00000
    73.6672     4261.00000
    73.6803     4233.00000
    73.6935     3956.00000
    73.7066     3839.00000
    73.7197     3635.00000
    73.7329     3308.00000
    73.7460     3257.00000
    73.7591     3108.00000
    73.7722     3178.00000
    73.7854     3087.00000
    73.7985     3239.00000
    73.8116     3135.00000
    73.8248     3313.00000
    73.8379     3239.00000
    73.8510     3321.00000
    73.8642     3357.00000
    73.8773     3407.00000
    73.8904     3362.00000
    73.9035     3379.00000
    73.9167     3222.00000
    73.9298     3103.00000
    73.9429     2937.00000
    73.9561     2964.00000
    73.9692     2860.00000
    73.9823     2726.00000
    73.9955     2869.00000
    74.0086     2873.00000
    74.0217     2818.00000
    74.0349     2905.00000
    74.0480     2900.00000
    74.0611     3121.00000
    74.0742     3298.00000
    74.0874     3683.00000
    74.1005     4113.00000
    74.1136     4648.00000
    74.1268     4932.00000
    74.1399     5182.00000
    74.1530     5304.00000
    74.1662     5208.00000
    74.1793     5096.00000
    74.1924     4942.00000
    74.2056     5075.00000
    74.2187     5388.00000
    74.2318     5358.00000
    74.2449     5345.00000
    74.2581     5095.00000
    74.2712     4685.00000
    74.2843     4280.00000
    74.2975     3938.00000
    74.3106     3840.00000
    74.3237     3901.00000
    74.3369     3911.00000
    74.3500     3971.00000
    74.3631     3869.00000
    74.3762     4012.00000
    74.3894     3805.00000
    74.4025     3788.00000
    74.4156     3743.00000
    74.4288     3810.00000
    74.4419     3887.00000
    74.4550     3783.00000
    74.4682     3705.00000
    74.4813     3564.00000
    74.4944     3288.00000
    74.5075     3024.00000
    74.5207     2944.00000
    74.5338     2711.00000
    74.5469     2629.00000
    74.5601     2615.00000
    74.5732     2597.00000
    74.5863     2466.00000
    74.5995     2475.00000
    74.6126     2451.00000
    74.6257     2525.00000
    74.6388     2335.00000
    74.6520     2414.00000
    74.6651     2385.00000
    74.6782     2462.00000
    74.6914     2515.00000
    74.7045     2505.00000
    74.7176     2402.00000
    74.7308     2347.00000
    74.7439     2413.00000
    74.7570     2335.00000
    74.7701     2333.00000
    74.7833     2439.00000
    74.7964     2341.00000
    74.8095     2238.00000
    74.8227     2352.00000
    74.8358     2311.00000
    74.8489     2419.00000
    74.8621     2409.00000
    74.8752     2345.00000
    74.8883     2363.00000
    74.9015     2413.00000
    74.9146     2429.00000
    74.9277     2316.00000
    74.9408     2265.00000
    74.9540     2348.00000
    74.9671     2387.00000
    74.9802     2258.00000
    74.9934     2440.00000
    75.0065     2285.00000
    75.0196     2291.00000
    75.0328     2394.00000
    75.0459     2315.00000
    75.0590     2364.00000
    75.0722     2330.00000
    75.0853     2318.00000
    75.0984     2299.00000
    75.1115     2308.00000
    75.1247     2394.00000
    75.1378     2379.00000
    75.1509     2399.00000
    75.1641     2399.00000
    75.1772     2297.00000
    75.1903     2368.00000
    75.2035     2319.00000
    75.2166     2362.00000
    75.2297     2338.00000
    75.2428     2322.00000
    75.2560     2281.00000
    75.2691     2311.00000
    75.2822     2324.00000
    75.2954     2253.00000
    75.3085     2265.00000
    75.3216     2399.00000
    75.3348     2367.00000
    75.3479     2386.00000
    75.3610     2316.00000
    75.3741     2347.00000
    75.3873     2332.00000
    75.4004     2310.00000
    75.4135     2454.00000
    75.4267     2301.00000
    75.4398     2335.00000
    75.4529     2305.00000
    75.4661     2315.00000
    75.4792     2353.00000
    75.4923     2290.00000
    75.5054     2347.00000
    75.5186     2310.00000
    75.5317     2325.00000
    75.5448     2249.00000
    75.5580     2375.00000
    75.5711     2304.00000
    75.5842     2415.00000
    75.5974     2286.00000
    75.6105     2381.00000
    75.6236     2447.00000
    75.6367     2292.00000
    75.6499     2408.00000
    75.6630     2454.00000
    75.6761     2571.00000
    75.6893     2437.00000
    75.7024     2549.00000
    75.7155     2532.00000
    75.7287     2536.00000
    75.7418     2534.00000
    75.7549     2595.00000
    75.7681     2477.00000
    75.7812     2431.00000
    75.7943     2461.00000
    75.8074     2441.00000
    75.8206     2437.00000
    75.8337     2446.00000
    75.8468     2454.00000
    75.8600     2507.00000
    75.8731     2450.00000
    75.8862     2482.00000
    75.8994     2441.00000
    75.9125     2523.00000
    75.9256     2438.00000
    75.9387     2446.00000
    75.9519     2405.00000
    75.9650     2508.00000
    75.9781     2450.00000
    75.9913     2455.00000
    76.0044     2393.00000
    76.0175     2474.00000
    76.0307     2412.00000
    76.0438     2518.00000
    76.0569     2590.00000
    76.0701     2614.00000
    76.0832     2660.00000
    76.0963     2611.00000
    76.1094     2652.00000
    76.1226     2653.00000
    76.1357     2786.00000
    76.1488     2757.00000
    76.1620     2777.00000
    76.1751     2857.00000
    76.1882     2872.00000
    76.2014     2824.00000
    76.2145     2866.00000
    76.2276     2845.00000
    76.2407     2854.00000
    76.2539     2811.00000
    76.2670     2672.00000
    76.2801     2782.00000
    76.2933     2853.00000
    76.3064     3025.00000
    76.3195     3088.00000
    76.3327     3340.00000
    76.3458     3301.00000
    76.3589     3550.00000
    76.3720     3866.00000
    76.3852     4050.00000
    76.3983     4246.00000
    76.4114     4678.00000
    76.4246     4831.00000
    76.4377     4775.00000
    76.4508     4698.00000
    76.4640     4636.00000
    76.4771     4370.00000
    76.4902     4033.00000
    76.5033     3805.00000
    76.5165     3593.00000
    76.5296     3344.00000
    76.5427     3212.00000
    76.5559     3152.00000
    76.5690     3184.00000
    76.5821     3161.00000
    76.5953     3211.00000
    76.6084     3202.00000
    76.6215     3316.00000
    76.6347     3470.00000
    76.6478     3500.00000
    76.6609     3514.00000
    76.6740     3574.00000
    76.6872     3412.00000
    76.7003     3319.00000
    76.7134     3190.00000
    76.7266     3102.00000
    76.7397     2918.00000
    76.7528     2806.00000
    76.7660     2793.00000
    76.7791     2706.00000
    76.7922     2639.00000
    76.8053     2522.00000
    76.8185     2506.00000
    76.8316     2540.00000
    76.8447     2617.00000
    76.8579     2646.00000
    76.8710     2576.00000
    76.8841     2565.00000
    76.8973     2498.00000
    76.9104     2516.00000
    76.9235     2554.00000
    76.9366     2561.00000
    76.9498     2616.00000
    76.9629     2605.00000
    76.9760     2571.00000
    76.9892     2533.00000
    77.0023     2685.00000
    77.0154     2705.00000
    77.0286     2741.00000
    77.0417     2784.00000
    77.0548     2873.00000
    77.0679     3052.00000
    77.0811     3173.00000
    77.0942     3290.00000
    77.1073     3587.00000
    77.1205     3771.00000
    77.1336     4052.00000
    77.1467     4209.00000
    77.1599     4469.00000
    77.1730     4423.00000
    77.1861     4439.00000
    77.1993     4394.00000
    77.2124     4460.00000
    77.2255     4294.00000
    77.2386     3980.00000
    77.2518     3750.00000
    77.2649     3413.00000
    77.2780     3215.00000
    77.2912     3236.00000
    77.3043     3227.00000
    77.3174     3101.00000
    77.3306     3173.00000
    77.3437     3303.00000
    77.3568     3291.00000
    77.3699     3338.00000
    77.3831     3435.00000
    77.3962     3486.00000
    77.4093     3440.00000
    77.4225     3375.00000
    77.4356     3403.00000
    77.4487     3185.00000
    77.4619     3299.00000
    77.4750     3130.00000
    77.4881     2922.00000
    77.5013     2921.00000
    77.5144     2841.00000
    77.5275     2678.00000
    77.5406     2664.00000
    77.5538     2687.00000
    77.5669     2737.00000
    77.5800     2799.00000
    77.5932     2776.00000
    77.6063     2912.00000
    77.6194     3003.00000
    77.6326     3278.00000
    77.6457     3233.00000
    77.6588     3115.00000
    77.6719     2950.00000
    77.6851     2936.00000
    77.6982     2758.00000
    77.7113     2668.00000
    77.7245     2671.00000
    77.7376     2638.00000
    77.7507     2504.00000
    77.7639     2538.00000
    77.7770     2525.00000
    77.7901     2445.00000
    77.8032     2561.00000
    77.8164     2707.00000
    77.8295     2619.00000
    77.8426     2700.00000
    77.8558     2776.00000
    77.8689     2875.00000
    77.8820     2768.00000
    77.8952     2657.00000
    77.9083     2617.00000
    77.9214     2722.00000
    77.9345     2628.00000
    77.9477     2582.00000
    77.9608     2524.00000
    77.9739     2614.00000
    77.9871     2613.00000
    78.0002     2667.00000
    78.0133     2734.00000
    78.0265     2837.00000
    78.0396     2962.00000
    78.0527     2921.00000
    78.0658     3037.00000
    78.0790     2945.00000
    78.0921     2851.00000
    78.1052     2685.00000
    78.1184     2605.00000
    78.1315     2590.00000
    78.1446     2513.00000
    78.1578     2507.00000
    78.1709     2537.00000
    78.1840     2531.00000
    78.1972     2444.00000
    78.2103     2494.00000
    78.2234     2527.00000
    78.2365     2561.00000
    78.2497     2557.00000
    78.2628     2778.00000
    78.2759     2674.00000
    78.2891     2731.00000
    78.3022     2702.00000
    78.3153     2654.00000
    78.3285     2671.00000
    78.3416     2683.00000
    78.3547     2758.00000
    78.3679     2746.00000
    78.3810     2729.00000
    78.3941     3003.00000
    78.4072     3043.00000
    78.4204     3098.00000
    78.4335     3284.00000
    78.4466     3347.00000
    78.4598     3372.00000
    78.4729     3551.00000
    78.4860     3589.00000
    78.4992     3441.00000
    78.5123     3479.00000
    78.5254     3467.00000
    78.5385     3434.00000
    78.5517     3503.00000
    78.5648     3383.00000
    78.5779     3272.00000
    78.5911     3140.00000
    78.6042     3112.00000
    78.6173     2988.00000
    78.6305     3018.00000
    78.6436     2994.00000
    78.6567     3051.00000
    78.6698     3080.00000
    78.6830     3184.00000
    78.6961     3204.00000
    78.7092     3165.00000
    78.7224     3278.00000
    78.7355     3353.00000
    78.7486     3426.00000
    78.7618     3402.00000
    78.7749     3533.00000
    78.7880     3606.00000
    78.8011     3643.00000
    78.8143     3565.00000
    78.8274     3550.00000
    78.8405     3504.00000
    78.8537     3361.00000
    78.8668     3531.00000
    78.8799     3412.00000
    78.8931     3377.00000
    78.9062     3455.00000
    78.9193     3528.00000
    78.9324     3808.00000
    78.9456     3890.00000
    78.9587     4006.00000
    78.9718     4107.00000
    78.9850     4010.00000
    78.9981     3996.00000
    79.0112     3852.00000
    79.0244     3816.00000
    79.0375     3946.00000
    79.0506     3943.00000
    79.0638     3843.00000
    79.0769     4002.00000
    79.0900     4058.00000
    79.1031     3799.00000
    79.1163     3995.00000
    79.1294     4054.00000
    79.1425     3924.00000
    79.1557     4085.00000
    79.1688     4028.00000
    79.1819     3976.00000
    79.1951     3820.00000
    79.2082     3744.00000
    79.2213     3558.00000
    79.2345     3462.00000
    79.2476     3288.00000
    79.2607     3290.00000
    79.2738     3230.00000
    79.2870     3237.00000
    79.3001     3185.00000
    79.3132     3229.00000
    79.3264     3205.00000
    79.3395     3227.00000
    79.3526     3217.00000
    79.3658     3221.00000
    79.3789     3160.00000
    79.3920     3180.00000
    79.4051     3231.00000
    79.4183     3324.00000
    79.4314     3220.00000
    79.4445     3216.00000
    79.4577     3218.00000
    79.4708     3304.00000
    79.4839     3460.00000
    79.4971     3614.00000
    79.5102     3803.00000
    79.5233     4050.00000
    79.5364     4216.00000
    79.5496     4199.00000
    79.5627     4089.00000
    79.5758     3875.00000
    79.5890     3616.00000
    79.6021     3519.00000
    79.6152     3186.00000
    79.6284     3129.00000
    79.6415     3148.00000
    79.6546     2982.00000
    79.6677     3011.00000
    79.6809     2972.00000
    79.6940     2908.00000
    79.7071     2937.00000
    79.7203     3035.00000
    79.7334     3171.00000
    79.7465     3337.00000
    79.7597     3372.00000
    79.7728     3471.00000
    79.7859     3478.00000
    79.7990     3490.00000
    79.8122     3474.00000
    79.8253     3355.00000
    79.8384     3303.00000
    79.8516     3128.00000
    79.8647     3207.00000
    79.8778     2976.00000
    79.8910     2928.00000
    79.9041     2921.00000
    79.9172     2738.00000
    79.9304     2728.00000
    79.9435     2777.00000
    79.9566     2712.00000
    79.9697     2689.00000
    79.9829     2759.00000
    79.9960     2726.00000
    80.0091     2595.00000
    80.0223     2665.00000
    80.0354     2742.00000
    80.0485     2730.00000
    80.0617     2791.00000
    80.0748     2867.00000
    80.0879     2853.00000
    80.1010     2861.00000
    80.1142     2897.00000
    80.1273     2910.00000
    80.1404     3024.00000
    80.1536     3114.00000
    80.1667     3091.00000
    80.1798     3219.00000
    80.1930     3348.00000
    80.2061     3470.00000
    80.2192     3672.00000
    80.2323     3826.00000
    80.2455     4064.00000
    80.2586     4260.00000
    80.2717     4422.00000
    80.2849     4705.00000
    80.2980     4923.00000
    80.3111     5166.00000
    80.3243     5421.00000
    80.3374     5741.00000
    80.3505     6060.00000
    80.3637     6508.00000
    80.3768     6798.00000
    80.3899     6716.00000
    80.4030     6537.00000
    80.4162     6084.00000
    80.4293     5813.00000
    80.4424     5521.00000
    80.4556     5170.00000
    80.4687     5078.00000
    80.4818     4832.00000
    80.4950     4870.00000
    80.5081     4735.00000
    80.5212     4726.00000
    80.5343     4729.00000
    80.5475     4709.00000
    80.5606     5029.00000
    80.5737     5332.00000
    80.5869     5747.00000
    80.6000     6048.00000
    80.6131     5956.00000
    80.6263     6049.00000
    80.6394     5987.00000
    80.6525     5606.00000
    80.6656     5170.00000
    80.6788     5030.00000
    80.6919     4981.00000
    80.7050     4887.00000
    80.7182     4893.00000
    80.7313     4801.00000
    80.7444     4695.00000
    80.7576     4604.00000
    80.7707     4301.00000
    80.7838     4027.00000
    80.7970     4005.00000
    80.8101     3760.00000
    80.8232     3694.00000
    80.8363     3711.00000
    80.8495     3653.00000
    80.8626     3515.00000
    80.8757     3635.00000
    80.8889     3426.00000
    80.9020     3386.00000
    80.9151     3298.00000
    80.9283     3341.00000
    80.9414     3297.00000
    80.9545     3407.00000
    80.9676     3450.00000
    80.9808     3513.00000
    80.9939     3606.00000
    81.0070     3529.00000
    81.0202     3609.00000
    81.0333     3587.00000
    81.0464     3630.00000
    81.0596     3547.00000
    81.0727     3617.00000
    81.0858     3541.00000
    81.0989     3639.00000
    81.1121     3486.00000
    81.1252     3398.00000
    81.1383     3408.00000
    81.1515     3356.00000
    81.1646     3295.00000
    81.1777     3322.00000
    81.1909     3257.00000
    81.2040     3215.00000
    81.2171     3347.00000
    81.2302     3391.00000
    81.2434     3573.00000
    81.2565     3497.00000
    81.2696     3600.00000
    81.2828     3631.00000
    81.2959     3594.00000
    81.3090     3554.00000
    81.3222     3584.00000
    81.3353     3427.00000
    81.3484     3433.00000
    81.3616     3385.00000
    81.3747     3170.00000
    81.3878     3102.00000
    81.4009     2963.00000
    81.4141     2868.00000
    81.4272     2850.00000
    81.4403     2798.00000
    81.4535     2869.00000
    81.4666     2818.00000
    81.4797     2820.00000
    81.4929     2785.00000
    81.5060     2807.00000
    81.5191     2921.00000
    81.5322     2903.00000
    81.5454     2956.00000
    81.5585     2840.00000
    81.5716     2850.00000
    81.5848     2741.00000
    81.5979     2646.00000
    81.6110     2603.00000
    81.6242     2652.00000
    81.6373     2598.00000
    81.6504     2472.00000
    81.6636     2484.00000
    81.6767     2502.00000
    81.6898     2552.00000
    81.7029     2463.00000
    81.7161     2517.00000
    81.7292     2459.00000
    81.7423     2492.00000
    81.7555     2474.00000
    81.7686     2453.00000
    81.7817     2403.00000
    81.7949     2453.00000
    81.8080     2471.00000
    81.8211     2410.00000
    81.8342     2469.00000
    81.8474     2434.00000
    81.8605     2453.00000
    81.8736     2545.00000
    81.8868     2388.00000
    81.8999     2467.00000
    81.9130     2366.00000
    81.9262     2575.00000
    81.9393     2590.00000
    81.9524     2563.00000
    81.9655     2582.00000
    81.9787     2594.00000
    81.9918     2542.00000
    82.0049     2620.00000
    82.0181     2580.00000
    82.0312     2749.00000
    82.0443     2628.00000
    82.0575     2705.00000
    82.0706     2765.00000
    82.0837     2793.00000
    82.0968     2887.00000
    82.1100     3062.00000
    82.1231     3198.00000
    82.1362     3383.00000
    82.1494     3563.00000
    82.1625     3678.00000
    82.1756     3770.00000
    82.1888     4055.00000
    82.2019     4168.00000
    82.2150     4287.00000
    82.2281     4151.00000
    82.2413     4368.00000
    82.2544     4101.00000
    82.2675     4055.00000
    82.2807     3932.00000
    82.2938     3627.00000
    82.3069     3481.00000
    82.3201     3203.00000
    82.3332     3263.00000
    82.3463     3090.00000
    82.3595     3020.00000
    82.3726     3078.00000
    82.3857     2914.00000
    82.3988     3093.00000
    82.4120     3203.00000
    82.4251     3273.00000
    82.4382     3361.00000
    82.4514     3343.00000
    82.4645     3392.00000
    82.4776     3410.00000
    82.4908     3501.00000
    82.5039     3410.00000
    82.5170     3378.00000
    82.5302     3496.00000
    82.5433     3274.00000
    82.5564     3424.00000
    82.5695     3547.00000
    82.5827     3671.00000
    82.5958     3794.00000
    82.6089     3861.00000
    82.6221     3928.00000
    82.6352     3664.00000
    82.6483     3288.00000
    82.6615     3113.00000
    82.6746     2901.00000
    82.6877     2849.00000
    82.7008     2683.00000
    82.7140     2718.00000
    82.7271     2594.00000
    82.7402     2576.00000
    82.7534     2617.00000
    82.7665     2643.00000
    82.7796     2632.00000
    82.7928     2676.00000
    82.8059     2722.00000
    82.8190     2873.00000
    82.8321     3002.00000
    82.8453     3033.00000
    82.8584     3169.00000
    82.8715     3137.00000
    82.8847     3100.00000
    82.8978     2950.00000
    82.9109     2888.00000
    82.9241     2830.00000
    82.9372     2556.00000
    82.9503     2651.00000
    82.9634     2575.00000
    82.9766     2468.00000
    82.9897     2471.00000
    83.0028     2496.00000
    83.0160     2515.00000
    83.0291     2419.00000
    83.0422     2344.00000
    83.0554     2381.00000
    83.0685     2412.00000
    83.0816     2478.00000
    83.0947     2536.00000
    83.1079     2393.00000
    83.1210     2542.00000
    83.1341     2441.00000
    83.1473     2403.00000
    83.1604     2341.00000
    83.1735     2408.00000
    83.1867     2435.00000
    83.1998     2457.00000
    83.2129     2438.00000
    83.2261     2448.00000
    83.2392     2437.00000
    83.2523     2481.00000
    83.2654     2427.00000
    83.2786     2387.00000
    83.2917     2412.00000
    83.3048     2419.00000
    83.3180     2323.00000
    83.3311     2409.00000
    83.3442     2371.00000
    83.3574     2514.00000
    83.3705     2449.00000
    83.3836     2403.00000
    83.3967     2520.00000
    83.4099     2565.00000
    83.4230     2534.00000
    83.4361     2591.00000
    83.4493     2655.00000
    83.4624     2795.00000
    83.4755     2686.00000
    83.4887     2676.00000
    83.5018     2651.00000
    83.5149     2647.00000
    83.5281     2545.00000
    83.5412     2592.00000
    83.5543     2692.00000
    83.5674     2599.00000
    83.5806     2590.00000
    83.5937     2593.00000
    83.6068     2619.00000
    83.6200     2705.00000
    83.6331     2770.00000
    83.6462     2683.00000
    83.6594     2676.00000
    83.6725     2675.00000
    83.6856     2699.00000
    83.6987     2683.00000
    83.7119     2773.00000
    83.7250     2752.00000
    83.7381     2848.00000
    83.7513     2957.00000
    83.7644     3053.00000
    83.7775     3215.00000
    83.7907     3305.00000
    83.8038     3406.00000
    83.8169     3377.00000
    83.8300     3370.00000
    83.8432     3166.00000
    83.8563     3052.00000
    83.8694     2897.00000
    83.8826     2803.00000
    83.8957     2679.00000
    83.9088     2643.00000
    83.9220     2624.00000
    83.9351     2577.00000
    83.9482     2563.00000
    83.9613     2593.00000
    83.9745     2526.00000
    83.9876     2625.00000
    84.0007     2612.00000
    84.0139     2685.00000
    84.0270     2737.00000
    84.0401     2768.00000
    84.0533     2767.00000
    84.0664     2802.00000
    84.0795     2799.00000
    84.0927     2803.00000
    84.1058     2681.00000
    84.1189     2621.00000
    84.1320     2657.00000
    84.1452     2565.00000
    84.1583     2437.00000
    84.1714     2413.00000
    84.1846     2347.00000
    84.1977     2488.00000
    84.2108     2400.00000
    84.2240     2349.00000
    84.2371     2408.00000
    84.2502     2420.00000
    84.2633     2454.00000
    84.2765     2326.00000
    84.2896     2340.00000
    84.3027     2417.00000
    84.3159     2407.00000
    84.3290     2315.00000
    84.3421     2393.00000
    84.3553     2385.00000
    84.3684     2417.00000
    84.3815     2367.00000
    84.3946     2408.00000
    84.4078     2504.00000
    84.4209     2482.00000
    84.4340     2539.00000
    84.4472     2471.00000
    84.4603     2452.00000
    84.4734     2495.00000
    84.4866     2508.00000
    84.4997     2485.00000
    84.5128     2494.00000
    84.5260     2498.00000
    84.5391     2578.00000
    84.5522     2486.00000
    84.5653     2529.00000
    84.5785     2528.00000
    84.5916     2566.00000
    84.6047     2407.00000
    84.6179     2365.00000
    84.6310     2481.00000
    84.6441     2453.00000
    84.6573     2322.00000
    84.6704     2345.00000
    84.6835     2346.00000
    84.6966     2456.00000
    84.7098     2336.00000
    84.7229     2318.00000
    84.7360     2344.00000
    84.7492     2437.00000
    84.7623     2481.00000
    84.7754     2399.00000
    84.7886     2459.00000
    84.8017     2402.00000
    84.8148     2430.00000
    84.8279     2401.00000
    84.8411     2497.00000
    84.8542     2458.00000
    84.8673     2497.00000
    84.8805     2419.00000
    84.8936     2425.00000
    84.9067     2348.00000
    84.9199     2400.00000
    84.9330     2405.00000
    84.9461     2540.00000
    84.9593     2468.00000
    84.9724     2367.00000
    84.9855     2456.00000
    84.9986     2383.00000
    85.0118     2396.00000
    85.0249     2391.00000
    85.0380     2294.00000
    85.0512     2424.00000
    85.0643     2302.00000
    85.0774     2349.00000
    85.0906     2388.00000
    85.1037     2342.00000
    85.1168     2443.00000
    85.1299     2431.00000
    85.1431     2330.00000
    85.1562     2445.00000
    85.1693     2537.00000
    85.1825     2307.00000
    85.1956     2391.00000
    85.2087     2412.00000
    85.2219     2417.00000
    85.2350     2401.00000
    85.2481     2397.00000
    85.2612     2504.00000
    85.2744     2480.00000
    85.2875     2582.00000
    85.3006     2530.00000
    85.3138     2540.00000
    85.3269     2635.00000
    85.3400     2663.00000
    85.3532     2826.00000
    85.3663     2851.00000
    85.3794     2689.00000
    85.3925     2863.00000
    85.4057     2785.00000
    85.4188     2914.00000
    85.4319     2858.00000
    85.4451     2897.00000
    85.4582     2921.00000
    85.4713     3105.00000
    85.4845     3059.00000
    85.4976     2983.00000
    85.5107     2989.00000
    85.5238     2951.00000
    85.5370     2869.00000
    85.5501     2798.00000
    85.5632     2863.00000
    85.5764     2948.00000
    85.5895     2974.00000
    85.6026     3071.00000
    85.6158     3189.00000
    85.6289     3302.00000
    85.6420     3472.00000
    85.6552     3662.00000
    85.6683     3800.00000
    85.6814     3943.00000
    85.6945     4123.00000
    85.7077     4187.00000
    85.7208     4034.00000
    85.7339     3999.00000
    85.7471     4032.00000
    85.7602     3887.00000
    85.7733     3958.00000
    85.7865     3768.00000
    85.7996     3622.00000
    85.8127     3623.00000
    85.8259     3396.00000
    85.8390     3416.00000
    85.8521     3282.00000
    85.8652     3332.00000
    85.8784     3262.00000
    85.8915     3359.00000
    85.9046     3473.00000
    85.9178     3555.00000
    85.9309     3472.00000
    85.9440     3657.00000
    85.9572     3604.00000
    85.9703     3490.00000
    85.9834     3488.00000
    85.9965     3346.00000
    86.0097     3231.00000
    86.0228     3253.00000
    86.0359     3168.00000
    86.0491     3095.00000
    86.0622     3039.00000
    86.0753     2932.00000
    86.0885     2827.00000
    86.1016     2765.00000
    86.1147     2755.00000
    86.1278     2720.00000
    86.1410     2776.00000
    86.1541     2735.00000
    86.1672     2806.00000
    86.1804     2565.00000
    86.1935     2685.00000
    86.2066     2716.00000
    86.2198     2749.00000
    86.2329     2646.00000
    86.2460     2579.00000
    86.2591     2602.00000
    86.2723     2551.00000
    86.2854     2477.00000
    86.2985     2515.00000
    86.3117     2491.00000
    86.3248     2549.00000
    86.3379     2438.00000
    86.3511     2465.00000
    86.3642     2434.00000
    86.3773     2427.00000
    86.3904     2474.00000
    86.4036     2400.00000
    86.4167     2424.00000
    86.4298     2408.00000
    86.4430     2469.00000
    86.4561     2489.00000
    86.4692     2446.00000
    86.4824     2574.00000
    86.4955     2573.00000
    86.5086     2632.00000
    86.5218     2758.00000
    86.5349     2698.00000
    86.5480     2859.00000
    86.5611     2895.00000
    86.5743     2862.00000
    86.5874     3019.00000
    86.6005     3086.00000
    86.6137     3077.00000
    86.6268     2956.00000
    86.6399     2943.00000
    86.6531     2860.00000
    86.6662     2725.00000
    86.6793     2640.00000
    86.6925     2634.00000
    86.7056     2626.00000
    86.7187     2523.00000
    86.7318     2497.00000
    86.7450     2565.00000
    86.7581     2572.00000
    86.7712     2501.00000
    86.7844     2582.00000
    86.7975     2571.00000
    86.8106     2621.00000
    86.8238     2670.00000
    86.8369     2713.00000
    86.8500     2684.00000
    86.8631     2730.00000
    86.8763     2705.00000
    86.8894     2760.00000
    86.9025     2772.00000
    86.9157     2732.00000
    86.9288     2799.00000
    86.9419     2819.00000
    86.9551     2741.00000
    86.9682     2816.00000
    86.9813     2794.00000
    86.9944     2770.00000
    87.0076     3050.00000
    87.0207     2999.00000
    87.0338     3218.00000
    87.0470     3164.00000
    87.0601     3310.00000
    87.0732     3292.00000
    87.0864     3245.00000
    87.0995     3015.00000
    87.1126     2938.00000
    87.1257     2892.00000
    87.1389     2833.00000
    87.1520     2776.00000
    87.1651     2691.00000
    87.1783     2710.00000
    87.1914     2731.00000
    87.2045     2754.00000
    87.2177     2767.00000
    87.2308     2832.00000
    87.2439     2846.00000
    87.2570     3036.00000
    87.2702     3008.00000
    87.2833     3097.00000
    87.2964     3265.00000
    87.3096     3246.00000
    87.3227     3268.00000
    87.3358     3177.00000
    87.3490     3021.00000
    87.3621     2909.00000
    87.3752     2900.00000
    87.3884     2710.00000
    87.4015     2725.00000
    87.4146     2729.00000
    87.4277     2763.00000
    87.4409     2701.00000
    87.4540     2643.00000
    87.4671     2616.00000
    87.4803     2593.00000
    87.4934     2621.00000
    87.5065     2565.00000
    87.5197     2634.00000
    87.5328     2811.00000
    87.5459     2649.00000
    87.5590     2749.00000
    87.5722     2850.00000
    87.5853     2873.00000
    87.5984     2949.00000
    87.6116     2830.00000
    87.6247     3016.00000
    87.6378     3044.00000
    87.6510     3036.00000
    87.6641     3154.00000
    87.6772     3297.00000
    87.6904     3313.00000
    87.7035     3401.00000
    87.7166     3327.00000
    87.7297     3098.00000
    87.7429     3211.00000
    87.7560     3048.00000
    87.7691     2956.00000
    87.7823     2870.00000
    87.7954     2826.00000
    87.8085     2718.00000
    87.8217     2691.00000
    87.8348     2742.00000
    87.8479     2847.00000
    87.8610     2825.00000
    87.8742     2852.00000
    87.8873     3013.00000
    87.9004     2967.00000
    87.9136     3162.00000
    87.9267     3379.00000
    87.9398     3416.00000
    87.9530     3672.00000
    87.9661     3819.00000
    87.9792     4023.00000
    87.9923     3903.00000
    88.0055     3856.00000
    88.0186     3593.00000
    88.0317     3563.00000
    88.0449     3255.00000
    88.0580     3219.00000
    88.0711     3019.00000
    88.0843     2903.00000
    88.0974     3038.00000
    88.1105     2842.00000
    88.1236     2903.00000
    88.1368     2908.00000
    88.1499     2960.00000
    88.1630     2940.00000
    88.1762     2880.00000
    88.1893     2884.00000
    88.2024     2919.00000
    88.2156     3016.00000
    88.2287     3079.00000
    88.2418     3134.00000
    88.2550     3123.00000
    88.2681     3076.00000
    88.2812     3131.00000
    88.2943     2996.00000
    88.3075     2925.00000
    88.3206     2914.00000
    88.3337     2821.00000
    88.3469     2781.00000
    88.3600     2604.00000
    88.3731     2691.00000
    88.3863     2753.00000
    88.3994     2877.00000
    88.4125     2862.00000
    88.4256     2961.00000
    88.4388     3014.00000
    88.4519     2929.00000
    88.4650     3022.00000
    88.4782     3034.00000
    88.4913     3078.00000
    88.5044     2998.00000
    88.5176     3009.00000
    88.5307     3178.00000
    88.5438     3245.00000
    88.5569     3380.00000
    88.5701     3468.00000
    88.5832     3633.00000
    88.5963     3666.00000
    88.6095     3924.00000
    88.6226     3860.00000
    88.6357     3899.00000
    88.6489     3665.00000
    88.6620     3514.00000
    88.6751     3341.00000
    88.6882     3183.00000
    88.7014     3069.00000
    88.7145     2937.00000
    88.7276     2899.00000
    88.7408     2719.00000
    88.7539     2845.00000
    88.7670     2809.00000
    88.7802     2754.00000
    88.7933     2780.00000
    88.8064     2825.00000
    88.8196     2790.00000
    88.8327     2868.00000
    88.8458     2954.00000
    88.8589     2956.00000
    88.8721     3084.00000
    88.8852     3014.00000
    88.8983     3092.00000
    88.9115     2978.00000
    88.9246     3074.00000
    88.9377     2942.00000
    88.9509     2861.00000
    88.9640     2813.00000
    88.9771     2734.00000
    88.9902     2550.00000
    89.0034     2623.00000
    89.0165     2605.00000
    89.0296     2582.00000
    89.0428     2565.00000
    89.0559     2714.00000
    89.0690     2618.00000
    89.0822     2758.00000
    89.0953     2731.00000
    89.1084     2809.00000
    89.1216     2915.00000
    89.1347     3044.00000
    89.1478     3310.00000
    89.1609     3264.00000
    89.1741     3292.00000
    89.1872     3332.00000
    89.2003     3306.00000
    89.2135     3151.00000
    89.2266     3072.00000
    89.2397     2915.00000
    89.2529     2877.00000
    89.2660     2670.00000
    89.2791     2660.00000
    89.2922     2564.00000
    89.3054     2600.00000
    89.3185     2469.00000
    89.3316     2606.00000
    89.3448     2661.00000
    89.3579     2500.00000
    89.3710     2537.00000
    89.3842     2700.00000
    89.3973     2621.00000
    89.4104     2778.00000
    89.4235     2816.00000
    89.4367     2857.00000
    89.4498     2942.00000
    89.4629     2796.00000
    89.4761     2920.00000
    89.4892     2861.00000
    89.5023     2799.00000
    89.5155     2692.00000
    89.5286     2683.00000
    89.5417     2647.00000
    89.5548     2518.00000
    89.5680     2604.00000
    89.5811     2488.00000
    89.5942     2551.00000
    89.6074     2511.00000
    89.6205     2437.00000
    89.6336     2458.00000
    89.6468     2386.00000
    89.6599     2397.00000
    89.6730     2479.00000
    89.6861     2444.00000
    89.6993     2554.00000
    89.7124     2476.00000
    89.7255     2565.00000
    89.7387     2637.00000
    89.7518     2676.00000
    89.7649     2715.00000
    89.7781     2815.00000
    89.7912     2908.00000
    89.8043     3136.00000
    89.8175     3196.00000
    89.8306     3518.00000
    89.8437     3706.00000
    89.8568     3851.00000
    89.8700     3885.00000
    89.8831     3822.00000
    89.8962     3535.00000
    89.9094     3301.00000
    89.9225     3140.00000
    89.9356     3026.00000
    89.9488     2823.00000
    89.9619     2828.00000
    89.9750     2691.00000
    89.9882     2725.00000
    90.0013     2661.00000
    90.0144     2574.00000
    90.0275     2534.00000
    90.0407     2661.00000
    90.0538     2750.00000
    90.0669     2667.00000
    90.0801     2765.00000
    90.0932     2912.00000
    90.1063     2935.00000
    90.1195     3092.00000
    90.1326     3166.00000
    90.1457     3181.00000
    90.1588     3163.00000
    90.1720     3081.00000
    90.1851     3091.00000
    90.1982     2937.00000
    90.2114     3045.00000
    90.2245     3008.00000
    90.2376     3004.00000
    90.2508     3037.00000
    90.2639     2875.00000
    90.2770     3119.00000
    90.2901     3218.00000
    90.3033     3105.00000
    90.3164     3203.00000
    90.3295     3343.00000
    90.3427     3253.00000
    90.3558     3182.00000
    90.3689     3153.00000
    90.3821     2971.00000
    90.3952     2968.00000
    90.4083     2995.00000
    90.4214     3024.00000
    90.4346     3009.00000
    90.4477     2857.00000
    90.4608     3018.00000
    90.4740     3058.00000
    90.4871     3148.00000
    90.5002     3019.00000
    90.5134     2971.00000
    90.5265     2878.00000
    90.5396     2955.00000
    90.5527     2988.00000
    90.5659     3040.00000
    90.5790     3058.00000
    90.5921     2958.00000
    90.6053     3142.00000
    90.6184     3174.00000
    90.6315     3160.00000
    90.6447     3221.00000
    90.6578     3091.00000
    90.6709     3162.00000
    90.6841     3237.00000
    90.6972     3123.00000
    90.7103     3103.00000
    90.7234     3006.00000
    90.7366     2970.00000
    90.7497     2961.00000
    90.7628     3006.00000
    90.7760     2890.00000
    90.7891     2948.00000
    90.8022     2951.00000
    90.8154     2790.00000
    90.8285     2850.00000
    90.8416     2781.00000
    90.8548     2819.00000
    90.8679     2771.00000
    90.8810     2793.00000
    90.8941     2962.00000
    90.9073     2926.00000
    90.9204     3098.00000
    90.9335     3308.00000
    90.9467     3264.00000
    90.9598     3347.00000
    90.9729     3477.00000
    90.9861     3332.00000
    90.9992     3237.00000
    91.0123     3339.00000
    91.0254     2982.00000
    91.0386     2920.00000
    91.0517     2815.00000
    91.0648     2765.00000
    91.0780     2758.00000
    91.0911     2687.00000
    91.1042     2701.00000
    91.1174     2635.00000
    91.1305     2736.00000
    91.1436     2714.00000
    91.1567     2878.00000
    91.1699     2823.00000
    91.1830     2734.00000
    91.1961     2768.00000
    91.2093     2965.00000
    91.2224     2970.00000
    91.2355     3154.00000
    91.2487     3214.00000
    91.2618     3330.00000
    91.2749     3557.00000
    91.2880     3562.00000
    91.3012     3717.00000
    91.3143     3804.00000
    91.3274     3827.00000
    91.3406     3962.00000
    91.3537     3991.00000
    91.3668     4035.00000
    91.3800     4162.00000
    91.3931     3955.00000
    91.4062     3929.00000
    91.4193     3774.00000
    91.4325     3692.00000
    91.4456     3624.00000
    91.4587     3524.00000
    91.4719     3475.00000
    91.4850     3176.00000
    91.4981     3046.00000
    91.5113     2866.00000
    91.5244     2901.00000
    91.5375     2902.00000
    91.5507     2930.00000
    91.5638     3044.00000
    91.5769     3064.00000
    91.5900     3095.00000
    91.6032     3136.00000
    91.6163     3363.00000
    91.6294     3289.00000
    91.6426     3483.00000
    91.6557     3295.00000
    91.6688     3422.00000
    91.6820     3510.00000
    91.6951     3580.00000
    91.7082     3565.00000
    91.7213     3626.00000
    91.7345     3766.00000
    91.7476     3793.00000
    91.7607     3935.00000
    91.7739     3996.00000
    91.7870     3959.00000
    91.8001     3820.00000
    91.8133     3655.00000
    91.8264     3496.00000
    91.8395     3359.00000
    91.8526     3380.00000
    91.8658     3053.00000
    91.8789     2964.00000
    91.8920     2836.00000
    91.9052     2919.00000
    91.9183     2843.00000
    91.9314     2840.00000
    91.9446     2962.00000
    91.9577     2876.00000
    91.9708     2832.00000
    91.9840     2965.00000
    91.9971     3055.00000
    92.0102     2999.00000
    92.0233     3143.00000
    92.0365     3129.00000
    92.0496     3304.00000
    92.0627     3382.00000
    92.0759     3426.00000
    92.0890     3348.00000
    92.1021     3346.00000
    92.1153     3301.00000
    92.1284     3103.00000
    92.1415     3111.00000
    92.1546     2919.00000
    92.1678     2940.00000
    92.1809     2856.00000
    92.1940     2844.00000
    92.2072     2830.00000
    92.2203     2772.00000
    92.2334     2796.00000
    92.2466     2709.00000
    92.2597     2789.00000
    92.2728     2795.00000
    92.2859     2749.00000
    92.2991     2700.00000
    92.3122     2735.00000
    92.3253     2670.00000
    92.3385     2550.00000
    92.3516     2638.00000
    92.3647     2654.00000
    92.3779     2542.00000
    92.3910     2689.00000
    92.4041     2566.00000
    92.4173     2661.00000
    92.4304     2567.00000
    92.4435     2559.00000
    92.4566     2543.00000
    92.4698     2602.00000
    92.4829     2629.00000
    92.4960     2642.00000
    92.5092     2673.00000
    92.5223     2765.00000
    92.5354     2673.00000
    92.5486     2616.00000
    92.5617     2779.00000
    92.5748     2962.00000
    92.5879     2884.00000
    92.6011     2810.00000
    92.6142     2779.00000
    92.6273     2818.00000
    92.6405     2727.00000
    92.6536     2681.00000
    92.6667     2708.00000
    92.6799     2712.00000
    92.6930     2648.00000
    92.7061     2832.00000
    92.7192     2857.00000
    92.7324     2786.00000
    92.7455     2773.00000
    92.7586     2927.00000
    92.7718     2719.00000
    92.7849     2868.00000
    92.7980     2948.00000
    92.8112     2868.00000
    92.8243     2896.00000
    92.8374     2923.00000
    92.8505     3004.00000
    92.8637     3129.00000
    92.8768     3089.00000
    92.8899     3251.00000
    92.9031     3392.00000
    92.9162     3372.00000
    92.9293     3456.00000
    92.9425     3681.00000
    92.9556     3751.00000
    92.9687     3817.00000
    92.9819     3758.00000
    92.9950     3725.00000
    93.0081     3643.00000
    93.0212     3493.00000
    93.0344     3277.00000
    93.0475     3217.00000
    93.0606     3094.00000
    93.0738     2864.00000
    93.0869     2851.00000
    93.1000     2759.00000
    93.1132     2816.00000
    93.1263     2793.00000
    93.1394     2693.00000
    93.1525     2690.00000
    93.1657     2686.00000
    93.1788     2725.00000
    93.1919     2744.00000
    93.2051     2771.00000
    93.2182     2761.00000
    93.2313     2935.00000
    93.2445     2925.00000
    93.2576     2984.00000
    93.2707     2924.00000
    93.2839     3017.00000
    93.2970     3020.00000
    93.3101     2887.00000
    93.3232     2943.00000
    93.3364     2772.00000
    93.3495     2638.00000
    93.3626     2642.00000
    93.3758     2516.00000
    93.3889     2499.00000
    93.4020     2511.00000
    93.4152     2511.00000
    93.4283     2465.00000
    93.4414     2451.00000
    93.4545     2521.00000
    93.4677     2473.00000
    93.4808     2449.00000
    93.4939     2447.00000
    93.5071     2449.00000
    93.5202     2379.00000
    93.5333     2343.00000
    93.5465     2380.00000
    93.5596     2292.00000
    93.5727     2349.00000
    93.5858     2341.00000
    93.5990     2393.00000
    93.6121     2390.00000
    93.6252     2406.00000
    93.6384     2424.00000
    93.6515     2339.00000
    93.6646     2416.00000
    93.6778     2310.00000
    93.6909     2393.00000
    93.7040     2407.00000
    93.7171     2350.00000
    93.7303     2312.00000
    93.7434     2403.00000
    93.7565     2275.00000
    93.7697     2357.00000
    93.7828     2291.00000
    93.7959     2386.00000
    93.8091     2287.00000
    93.8222     2377.00000
    93.8353     2339.00000
    93.8484     2360.00000
    93.8616     2289.00000
    93.8747     2317.00000
    93.8878     2350.00000
    93.9010     2353.00000
    93.9141     2295.00000
    93.9272     2387.00000
    93.9404     2439.00000
    93.9535     2357.00000
    93.9666     2299.00000
    93.9798     2342.00000
    93.9929     2337.00000
    94.0060     2290.00000
    94.0191     2370.00000
    94.0323     2383.00000
    94.0454     2457.00000
    94.0585     2422.00000
    94.0717     2455.00000
    94.0848     2494.00000
    94.0979     2447.00000
    94.1111     2597.00000
    94.1242     2665.00000
    94.1373     2706.00000
    94.1505     2735.00000
    94.1636     2974.00000
    94.1767     2918.00000
    94.1898     3086.00000
    94.2030     3134.00000
    94.2161     3258.00000
    94.2292     3232.00000
    94.2424     3084.00000
    94.2555     3180.00000
    94.2686     3024.00000
    94.2818     2974.00000
    94.2949     2817.00000
    94.3080     2896.00000
    94.3211     2802.00000
    94.3343     2729.00000
    94.3474     2873.00000
    94.3605     2870.00000
    94.3737     2809.00000
    94.3868     2856.00000
    94.3999     2758.00000
    94.4131     2737.00000
    94.4262     2878.00000
    94.4393     2770.00000
    94.4524     2678.00000
    94.4656     2851.00000
    94.4787     2871.00000
    94.4918     2866.00000
    94.5050     2969.00000
    94.5181     2993.00000
    94.5312     2917.00000
    94.5444     2897.00000
    94.5575     2810.00000
    94.5706     2803.00000
    94.5837     2742.00000
    94.5969     2583.00000
    94.6100     2662.00000
    94.6231     2686.00000
    94.6363     2697.00000
    94.6494     2691.00000
    94.6625     2717.00000
    94.6757     2708.00000
    94.6888     2648.00000
    94.7019     2628.00000
    94.7150     2661.00000
    94.7282     2628.00000
    94.7413     2720.00000
    94.7544     2733.00000
    94.7676     2830.00000
    94.7807     2838.00000
    94.7938     2839.00000
    94.8070     3017.00000
    94.8201     3063.00000
    94.8332     3093.00000
    94.8464     3289.00000
    94.8595     3379.00000
    94.8726     3421.00000
    94.8857     3465.00000
    94.8989     3354.00000
    94.9120     3443.00000
    94.9251     3389.00000
    94.9383     3244.00000
    94.9514     3270.00000
    94.9645     3172.00000
    94.9777     3064.00000
    94.9908     3122.00000
    95.0039     3018.00000
    95.0170     2887.00000
    95.0302     2910.00000
    95.0433     2844.00000
    95.0564     2837.00000
    95.0696     2777.00000
    95.0827     2781.00000
    95.0958     2722.00000
    95.1090     2727.00000
    95.1221     2676.00000
    95.1352     2808.00000
    95.1484     2717.00000
    95.1615     2799.00000
    95.1746     2831.00000
    95.1877     2906.00000
    95.2009     2893.00000
    95.2140     2805.00000
    95.2271     2791.00000
    95.2403     2880.00000
    95.2534     2700.00000
    95.2665     2716.00000
    95.2797     2679.00000
    95.2928     2636.00000
    95.3059     2598.00000
    95.3190     2528.00000
    95.3322     2497.00000
    95.3453     2513.00000
    95.3584     2647.00000
    95.3716     2404.00000
    95.3847     2502.00000
    95.3978     2489.00000
    95.4110     2440.00000
    95.4241     2389.00000
    95.4372     2351.00000
    95.4503     2371.00000
    95.4635     2393.00000
    95.4766     2328.00000
    95.4897     2321.00000
    95.5029     2387.00000
    95.5160     2414.00000
    95.5291     2274.00000
    95.5423     2289.00000
    95.5554     2339.00000
    95.5685     2294.00000
    95.5816     2329.00000
    95.5948     2321.00000
    95.6079     2363.00000
    95.6210     2404.00000
    95.6342     2338.00000
    95.6473     2371.00000
    95.6604     2295.00000
    95.6736     2324.00000
    95.6867     2263.00000
    95.6998     2320.00000
    95.7130     2390.00000
    95.7261     2412.00000
    95.7392     2331.00000
    95.7523     2266.00000
    95.7655     2324.00000
    95.7786     2366.00000
    95.7917     2338.00000
    95.8049     2273.00000
    95.8180     2371.00000
    95.8311     2363.00000
    95.8443     2332.00000
    95.8574     2270.00000
    95.8705     2550.00000
    95.8836     2335.00000
    95.8968     2344.00000
    95.9099     2336.00000
    95.9230     2310.00000
    95.9362     2244.00000
    95.9493     2372.00000
    95.9624     2217.00000
    95.9756     2326.00000
    95.9887     2296.00000
    96.0018     2279.00000
    96.0149     2354.00000
    96.0281     2277.00000
    96.0412     2289.00000
    96.0543     2351.00000
    96.0675     2319.00000
    96.0806     2290.00000
    96.0937     2277.00000
    96.1069     2297.00000
    96.1200     2392.00000
    96.1331     2294.00000
    96.1463     2346.00000
    96.1594     2275.00000
    96.1725     2279.00000
    96.1856     2298.00000
    96.1988     2332.00000
    96.2119     2290.00000
    96.2250     2323.00000
    96.2382     2308.00000
    96.2513     2403.00000
    96.2644     2401.00000
    96.2776     2290.00000
    96.2907     2372.00000
    96.3038     2390.00000
    96.3169     2398.00000
    96.3301     2364.00000
    96.3432     2370.00000
    96.3563     2434.00000
    96.3695     2409.00000
    96.3826     2372.00000
    96.3957     2452.00000
    96.4089     2519.00000
    96.4220     2500.00000
    96.4351     2495.00000
    96.4482     2612.00000
    96.4614     2556.00000
    96.4745     2468.00000
    96.4876     2455.00000
    96.5008     2514.00000
    96.5139     2490.00000
    96.5270     2510.00000
    96.5402     2373.00000
    96.5533     2370.00000
    96.5664     2474.00000
    96.5796     2437.00000
    96.5927     2457.00000
    96.6058     2398.00000
    96.6189     2457.00000
    96.6321     2395.00000
    96.6452     2481.00000
    96.6583     2372.00000
    96.6715     2438.00000
    96.6846     2526.00000
    96.6977     2373.00000
    96.7109     2498.00000
    96.7240     2531.00000
    96.7371     2541.00000
    96.7502     2494.00000
    96.7634     2594.00000
    96.7765     2698.00000
    96.7896     2841.00000
    96.8028     2800.00000
    96.8159     2788.00000
    96.8290     2749.00000
    96.8422     2885.00000
    96.8553     2916.00000
    96.8684     2897.00000
    96.8815     2934.00000
    96.8947     3024.00000
    96.9078     2960.00000
    96.9209     2985.00000
    96.9341     3111.00000
    96.9472     3141.00000
    96.9603     3213.00000
    96.9735     3299.00000
    96.9866     3431.00000
    96.9997     3469.00000
    97.0128     3536.00000
    97.0260     3508.00000
    97.0391     3439.00000
    97.0522     3471.00000
    97.0654     3342.00000
    97.0785     3207.00000
    97.0916     3071.00000
    97.1048     3052.00000
    97.1179     2943.00000
    97.1310     2883.00000
    97.1442     2851.00000
    97.1573     2995.00000
    97.1704     2827.00000
    97.1835     2914.00000
    97.1967     2904.00000
    97.2098     2997.00000
    97.2229     3011.00000
    97.2361     3099.00000
    97.2492     3356.00000
    97.2623     3337.00000
    97.2755     3463.00000
    97.2886     3444.00000
    97.3017     3517.00000
    97.3148     3555.00000
    97.3280     3601.00000
    97.3411     3611.00000
    97.3542     3407.00000
    97.3674     3341.00000
    97.3805     3187.00000
    97.3936     3028.00000
    97.4068     3006.00000
    97.4199     2834.00000
    97.4330     2747.00000
    97.4462     2764.00000
    97.4593     2647.00000
    97.4724     2755.00000
    97.4855     2666.00000
    97.4987     2764.00000
    97.5118     2776.00000
    97.5249     2712.00000
    97.5381     2749.00000
    97.5512     2932.00000
    97.5643     3071.00000
    97.5775     3126.00000
    97.5906     3243.00000
    97.6037     3249.00000
    97.6168     3193.00000
    97.6300     3354.00000
    97.6431     3238.00000
    97.6562     3356.00000
    97.6694     3285.00000
    97.6825     3299.00000
    97.6956     3120.00000
    97.7088     3092.00000
    97.7219     3005.00000
    97.7350     3085.00000
    97.7481     2962.00000
    97.7613     2967.00000
    97.7744     3097.00000
    97.7875     3045.00000
    97.8007     3033.00000
    97.8138     2996.00000
    97.8269     3174.00000
    97.8401     3189.00000
    97.8532     3311.00000
    97.8663     3120.00000
    97.8794     3130.00000
    97.8926     2943.00000
    97.9057     2869.00000
    97.9188     2822.00000
    97.9320     2887.00000
    97.9451     2928.00000
    97.9582     2867.00000
    97.9714     2785.00000
    97.9845     2772.00000
    97.9976     2717.00000
    98.0107     2766.00000
    98.0239     2743.00000
    98.0370     2677.00000
    98.0501     2570.00000
    98.0633     2686.00000
    98.0764     2710.00000
    98.0895     2693.00000
    98.1027     2693.00000
    98.1158     2618.00000
    98.1289     2682.00000
    98.1421     2704.00000
    98.1552     2708.00000
    98.1683     2687.00000
    98.1814     2765.00000
    98.1946     2659.00000
    98.2077     2672.00000
    98.2208     2623.00000
    98.2340     2483.00000
    98.2471     2557.00000
    98.2602     2473.00000
    98.2734     2480.00000
    98.2865     2505.00000
    98.2996     2440.00000
    98.3128     2317.00000
    98.3259     2343.00000
    98.3390     2488.00000
    98.3521     2436.00000
    98.3653     2401.00000
    98.3784     2397.00000
    98.3915     2348.00000
    98.4047     2424.00000
    98.4178     2388.00000
    98.4309     2353.00000
    98.4441     2464.00000
    98.4572     2474.00000
    98.4703     2470.00000
    98.4834     2431.00000
    98.4966     2434.00000
    98.5097     2407.00000
    98.5228     2429.00000
    98.5360     2483.00000
    98.5491     2432.00000
    98.5622     2395.00000
    98.5754     2527.00000
    98.5885     2539.00000
    98.6016     2569.00000
    98.6147     2602.00000
    98.6279     2665.00000
    98.6410     2727.00000
    98.6541     2705.00000
    98.6673     2690.00000
    98.6804     2776.00000
    98.6935     2988.00000
    98.7067     3103.00000
    98.7198     3250.00000
    98.7329     3322.00000
    98.7460     3604.00000
    98.7592     3470.00000
    98.7723     3660.00000
    98.7854     3757.00000
    98.7986     3759.00000
    98.8117     3627.00000
    98.8248     3697.00000
    98.8380     3579.00000
    98.8511     3572.00000
    98.8642     3649.00000
    98.8773     3547.00000
    98.8905     3494.00000
    98.9036     3484.00000
    98.9167     3406.00000
    98.9299     3429.00000
    98.9430     3394.00000
    98.9561     3501.00000
    98.9693     3560.00000
    98.9824     3557.00000
    98.9955     3682.00000
    99.0087     3858.00000
    99.0218     3928.00000
    99.0349     4024.00000
    99.0480     4250.00000
    99.0612     4212.00000
    99.0743     4361.00000
    99.0874     4427.00000
    99.1006     4540.00000
    99.1137     4621.00000
    99.1268     4688.00000
    99.1400     4688.00000
    99.1531     4666.00000
    99.1662     4537.00000
    99.1793     4414.00000
    99.1925     4414.00000
    99.2056     4103.00000
    99.2187     4092.00000
    99.2319     3824.00000
    99.2450     3600.00000
    99.2581     3526.00000
    99.2713     3567.00000
    99.2844     3260.00000
    99.2975     3290.00000
    99.3107     3312.00000
    99.3238     3367.00000
    99.3369     3384.00000
    99.3500     3428.00000
    99.3632     3403.00000
    99.3763     3385.00000
    99.3894     3351.00000
    99.4026     3544.00000
    99.4157     3473.00000
    99.4288     3622.00000
    99.4420     3767.00000
    99.4551     3745.00000
    99.4682     3742.00000
    99.4813     3842.00000
    99.4945     3898.00000
    99.5076     3822.00000
    99.5207     3921.00000
    99.5339     3849.00000
    99.5470     3813.00000
    99.5601     3758.00000
    99.5733     3927.00000
    99.5864     3673.00000
    99.5995     3846.00000
    99.6126     3740.00000
    99.6258     3601.00000
    99.6389     3712.00000
    99.6520     3726.00000
    99.6652     3619.00000
    99.6783     3558.00000
    99.6914     3526.00000
    99.7046     3463.00000
    99.7177     3374.00000
    99.7308     3328.00000
    99.7439     3344.00000
    99.7571     3260.00000
    99.7702     3083.00000
    99.7833     3034.00000
    99.7965     2993.00000
    99.8096     2876.00000
    99.8227     2960.00000
    99.8359     2904.00000
    99.8490     2897.00000
    99.8621     2865.00000
    99.8753     2969.00000
    99.8884     3110.00000
    99.9015     3061.00000
    99.9146     3016.00000
    99.9278     3110.00000
    99.9409     3179.00000
    99.9540     3114.00000
    99.9672     3367.00000
    99.9803     3372.00000
    99.9934     3573.00000
