! Initial file:   D:\ZAKARY_OUAIL\MA_THESE\Deuxième_année_de_thèse\DRX\Manips_DRX\1st_NaTaO2F2_XRK900\NaTaO2F2-Lent_120°C.xrdml
! Initial format:  58
! WAVE (A):      1.54060     1.54060     1.00000
! REM : data have been multiplied by     1.0000
! X_data : 2 Theta (deg.)                                                                                                                                                                                                                                                  
! Y_data : Intensity (arb. units)                                                                                                                                                                                                                                          
!     X         Y
!--------------------------------------------------------------------------------
    10.0116     7127.00000
    10.0247     6951.00000
    10.0379     7091.00000
    10.0510     6933.00000
    10.0641     6847.00000
    10.0772     6962.00000
    10.0904     6835.00000
    10.1035     6916.00000
    10.1166     6890.00000
    10.1298     6854.00000
    10.1429     6902.00000
    10.1560     6946.00000
    10.1692     6749.00000
    10.1823     6851.00000
    10.1954     6715.00000
    10.2086     6805.00000
    10.2217     6932.00000
    10.2348     6790.00000
    10.2479     6739.00000
    10.2611     6733.00000
    10.2742     6887.00000
    10.2873     6811.00000
    10.3005     6627.00000
    10.3136     6942.00000
    10.3267     6756.00000
    10.3399     6722.00000
    10.3530     6817.00000
    10.3661     6689.00000
    10.3792     6725.00000
    10.3924     6718.00000
    10.4055     6901.00000
    10.4186     6826.00000
    10.4318     6641.00000
    10.4449     6784.00000
    10.4580     6617.00000
    10.4712     6791.00000
    10.4843     6686.00000
    10.4974     6650.00000
    10.5105     6648.00000
    10.5237     6731.00000
    10.5368     6650.00000
    10.5499     6740.00000
    10.5631     6741.00000
    10.5762     6561.00000
    10.5893     6684.00000
    10.6025     6678.00000
    10.6156     6763.00000
    10.6287     6822.00000
    10.6418     6805.00000
    10.6550     6697.00000
    10.6681     6665.00000
    10.6812     6671.00000
    10.6944     6822.00000
    10.7075     6786.00000
    10.7206     6740.00000
    10.7338     6801.00000
    10.7469     6749.00000
    10.7600     6809.00000
    10.7732     6934.00000
    10.7863     6756.00000
    10.7994     6752.00000
    10.8125     6756.00000
    10.8257     6885.00000
    10.8388     7004.00000
    10.8519     6768.00000
    10.8651     6924.00000
    10.8782     7157.00000
    10.8913     7064.00000
    10.9045     7266.00000
    10.9176     7109.00000
    10.9307     7425.00000
    10.9438     7456.00000
    10.9570     7793.00000
    10.9701     8050.00000
    10.9832     8648.00000
    10.9964     9312.00000
    11.0095    10183.00000
    11.0226    11712.00000
    11.0358    13165.00000
    11.0489    16451.00000
    11.0620    21458.00000
    11.0751    27637.00000
    11.0883    35155.00000
    11.1014    43884.00000
    11.1145    50835.00000
    11.1277    51599.00000
    11.1408    47271.00000
    11.1539    39442.00000
    11.1671    31623.00000
    11.1802    25523.00000
    11.1933    19528.00000
    11.2065    15062.00000
    11.2196    12106.00000
    11.2327     9767.00000
    11.2458     8746.00000
    11.2590     7937.00000
    11.2721     7485.00000
    11.2852     7118.00000
    11.2984     7124.00000
    11.3115     7016.00000
    11.3246     6851.00000
    11.3378     6801.00000
    11.3509     6575.00000
    11.3640     6618.00000
    11.3771     6747.00000
    11.3903     6465.00000
    11.4034     6469.00000
    11.4165     6618.00000
    11.4297     6552.00000
    11.4428     6413.00000
    11.4559     6385.00000
    11.4691     6433.00000
    11.4822     6399.00000
    11.4953     6533.00000
    11.5084     6450.00000
    11.5216     6373.00000
    11.5347     6494.00000
    11.5478     6294.00000
    11.5610     6533.00000
    11.5741     6386.00000
    11.5872     6395.00000
    11.6004     6365.00000
    11.6135     6458.00000
    11.6266     6293.00000
    11.6398     6262.00000
    11.6529     6205.00000
    11.6660     6285.00000
    11.6791     6205.00000
    11.6923     6361.00000
    11.7054     6273.00000
    11.7185     6234.00000
    11.7317     6230.00000
    11.7448     6310.00000
    11.7579     6272.00000
    11.7711     6274.00000
    11.7842     6204.00000
    11.7973     6225.00000
    11.8104     6170.00000
    11.8236     6289.00000
    11.8367     6152.00000
    11.8498     6385.00000
    11.8630     6230.00000
    11.8761     6243.00000
    11.8892     6152.00000
    11.9024     6325.00000
    11.9155     6257.00000
    11.9286     6302.00000
    11.9417     6085.00000
    11.9549     6153.00000
    11.9680     6133.00000
    11.9811     6196.00000
    11.9943     6171.00000
    12.0074     6120.00000
    12.0205     6168.00000
    12.0337     6204.00000
    12.0468     6120.00000
    12.0599     6034.00000
    12.0731     6147.00000
    12.0862     6043.00000
    12.0993     6071.00000
    12.1124     6080.00000
    12.1256     6132.00000
    12.1387     6105.00000
    12.1518     6040.00000
    12.1650     6020.00000
    12.1781     6237.00000
    12.1912     6023.00000
    12.2044     5967.00000
    12.2175     6173.00000
    12.2306     6026.00000
    12.2437     5915.00000
    12.2569     6080.00000
    12.2700     6094.00000
    12.2831     6023.00000
    12.2963     5952.00000
    12.3094     6112.00000
    12.3225     5907.00000
    12.3357     6011.00000
    12.3488     5907.00000
    12.3619     5862.00000
    12.3750     5959.00000
    12.3882     5940.00000
    12.4013     5902.00000
    12.4144     5979.00000
    12.4276     5962.00000
    12.4407     6006.00000
    12.4538     6039.00000
    12.4670     5909.00000
    12.4801     5872.00000
    12.4932     5958.00000
    12.5063     5965.00000
    12.5195     5947.00000
    12.5326     5903.00000
    12.5457     5858.00000
    12.5589     5835.00000
    12.5720     5932.00000
    12.5851     5973.00000
    12.5983     5887.00000
    12.6114     5901.00000
    12.6245     5919.00000
    12.6377     5858.00000
    12.6508     6045.00000
    12.6639     5937.00000
    12.6770     6040.00000
    12.6902     5795.00000
    12.7033     5803.00000
    12.7164     5797.00000
    12.7296     5922.00000
    12.7427     5789.00000
    12.7558     5830.00000
    12.7690     5835.00000
    12.7821     5766.00000
    12.7952     5798.00000
    12.8083     5854.00000
    12.8215     5838.00000
    12.8346     5692.00000
    12.8477     5843.00000
    12.8609     5884.00000
    12.8740     5678.00000
    12.8871     5727.00000
    12.9003     5624.00000
    12.9134     5786.00000
    12.9265     5737.00000
    12.9396     5660.00000
    12.9528     5821.00000
    12.9659     5866.00000
    12.9790     5737.00000
    12.9922     5608.00000
    13.0053     5768.00000
    13.0184     5719.00000
    13.0316     5743.00000
    13.0447     5959.00000
    13.0578     5744.00000
    13.0710     5768.00000
    13.0841     5690.00000
    13.0972     5714.00000
    13.1103     5745.00000
    13.1235     5704.00000
    13.1366     5556.00000
    13.1497     5850.00000
    13.1629     5636.00000
    13.1760     5628.00000
    13.1891     5704.00000
    13.2023     5731.00000
    13.2154     5738.00000
    13.2285     5725.00000
    13.2416     5651.00000
    13.2548     5646.00000
    13.2679     5750.00000
    13.2810     5603.00000
    13.2942     5695.00000
    13.3073     5620.00000
    13.3204     5642.00000
    13.3336     5553.00000
    13.3467     5723.00000
    13.3598     5598.00000
    13.3729     5550.00000
    13.3861     5548.00000
    13.3992     5566.00000
    13.4123     5536.00000
    13.4255     5623.00000
    13.4386     5641.00000
    13.4517     5656.00000
    13.4649     5651.00000
    13.4780     5593.00000
    13.4911     5648.00000
    13.5043     5643.00000
    13.5174     5510.00000
    13.5305     5615.00000
    13.5436     5643.00000
    13.5568     5706.00000
    13.5699     5459.00000
    13.5830     5553.00000
    13.5962     5517.00000
    13.6093     5349.00000
    13.6224     5564.00000
    13.6356     5491.00000
    13.6487     5556.00000
    13.6618     5550.00000
    13.6749     5590.00000
    13.6881     5503.00000
    13.7012     5574.00000
    13.7143     5457.00000
    13.7275     5460.00000
    13.7406     5397.00000
    13.7537     5577.00000
    13.7669     5522.00000
    13.7800     5588.00000
    13.7931     5413.00000
    13.8062     5537.00000
    13.8194     5511.00000
    13.8325     5435.00000
    13.8456     5469.00000
    13.8588     5364.00000
    13.8719     5547.00000
    13.8850     5478.00000
    13.8982     5384.00000
    13.9113     5488.00000
    13.9244     5484.00000
    13.9376     5353.00000
    13.9507     5383.00000
    13.9638     5439.00000
    13.9769     5403.00000
    13.9901     5433.00000
    14.0032     5538.00000
    14.0163     5411.00000
    14.0295     5346.00000
    14.0426     5408.00000
    14.0557     5343.00000
    14.0689     5409.00000
    14.0820     5329.00000
    14.0951     5264.00000
    14.1082     5229.00000
    14.1214     5248.00000
    14.1345     5453.00000
    14.1476     5323.00000
    14.1608     5318.00000
    14.1739     5453.00000
    14.1870     5543.00000
    14.2002     5219.00000
    14.2133     5280.00000
    14.2264     5315.00000
    14.2395     5259.00000
    14.2527     5345.00000
    14.2658     5370.00000
    14.2789     5276.00000
    14.2921     5271.00000
    14.3052     5272.00000
    14.3183     5309.00000
    14.3315     5286.00000
    14.3446     5436.00000
    14.3577     5302.00000
    14.3708     5299.00000
    14.3840     5247.00000
    14.3971     5266.00000
    14.4102     5307.00000
    14.4234     5211.00000
    14.4365     5284.00000
    14.4496     5142.00000
    14.4628     5432.00000
    14.4759     5255.00000
    14.4890     5291.00000
    14.5022     5200.00000
    14.5153     5190.00000
    14.5284     5266.00000
    14.5415     5179.00000
    14.5547     5231.00000
    14.5678     5450.00000
    14.5809     5293.00000
    14.5941     5227.00000
    14.6072     5274.00000
    14.6203     5201.00000
    14.6335     5207.00000
    14.6466     5046.00000
    14.6597     5165.00000
    14.6728     5256.00000
    14.6860     5117.00000
    14.6991     5313.00000
    14.7122     5308.00000
    14.7254     5115.00000
    14.7385     5189.00000
    14.7516     5159.00000
    14.7648     5312.00000
    14.7779     5312.00000
    14.7910     5196.00000
    14.8041     5174.00000
    14.8173     5117.00000
    14.8304     5154.00000
    14.8435     5144.00000
    14.8567     5233.00000
    14.8698     5308.00000
    14.8829     5144.00000
    14.8961     5163.00000
    14.9092     5077.00000
    14.9223     5097.00000
    14.9355     5049.00000
    14.9486     5253.00000
    14.9617     5272.00000
    14.9748     5163.00000
    14.9880     5206.00000
    15.0011     5094.00000
    15.0142     5273.00000
    15.0274     5185.00000
    15.0405     5103.00000
    15.0536     5036.00000
    15.0668     5019.00000
    15.0799     5284.00000
    15.0930     5210.00000
    15.1061     5253.00000
    15.1193     5157.00000
    15.1324     5153.00000
    15.1455     5170.00000
    15.1587     5129.00000
    15.1718     4996.00000
    15.1849     4946.00000
    15.1981     5025.00000
    15.2112     5081.00000
    15.2243     5217.00000
    15.2374     5085.00000
    15.2506     4941.00000
    15.2637     4997.00000
    15.2768     5051.00000
    15.2900     5053.00000
    15.3031     5180.00000
    15.3162     5126.00000
    15.3294     5003.00000
    15.3425     5045.00000
    15.3556     5108.00000
    15.3688     5015.00000
    15.3819     5055.00000
    15.3950     5015.00000
    15.4081     5000.00000
    15.4213     5076.00000
    15.4344     5036.00000
    15.4475     4971.00000
    15.4607     5041.00000
    15.4738     5236.00000
    15.4869     5128.00000
    15.5001     4860.00000
    15.5132     5045.00000
    15.5263     4992.00000
    15.5394     4921.00000
    15.5526     4973.00000
    15.5657     4985.00000
    15.5788     4986.00000
    15.5920     5083.00000
    15.6051     4965.00000
    15.6182     4913.00000
    15.6314     5019.00000
    15.6445     4996.00000
    15.6576     5018.00000
    15.6707     4999.00000
    15.6839     5133.00000
    15.6970     4930.00000
    15.7101     4860.00000
    15.7233     4978.00000
    15.7364     4878.00000
    15.7495     4859.00000
    15.7627     5046.00000
    15.7758     5060.00000
    15.7889     5107.00000
    15.8021     4996.00000
    15.8152     4968.00000
    15.8283     4951.00000
    15.8414     4913.00000
    15.8546     4900.00000
    15.8677     4884.00000
    15.8808     4933.00000
    15.8940     4987.00000
    15.9071     4999.00000
    15.9202     4920.00000
    15.9334     4932.00000
    15.9465     4996.00000
    15.9596     4858.00000
    15.9727     4984.00000
    15.9859     4790.00000
    15.9990     4929.00000
    16.0121     5009.00000
    16.0253     4952.00000
    16.0384     5001.00000
    16.0515     5055.00000
    16.0647     5048.00000
    16.0778     4995.00000
    16.0909     4955.00000
    16.1040     4986.00000
    16.1172     5127.00000
    16.1303     5075.00000
    16.1434     4968.00000
    16.1566     5029.00000
    16.1697     4901.00000
    16.1828     5048.00000
    16.1960     5039.00000
    16.2091     5114.00000
    16.2222     5038.00000
    16.2353     5015.00000
    16.2485     5048.00000
    16.2616     5099.00000
    16.2747     4995.00000
    16.2879     4984.00000
    16.3010     5037.00000
    16.3141     5126.00000
    16.3273     5094.00000
    16.3404     4994.00000
    16.3535     5099.00000
    16.3667     5046.00000
    16.3798     5114.00000
    16.3929     5038.00000
    16.4060     5113.00000
    16.4192     5094.00000
    16.4323     5096.00000
    16.4454     5105.00000
    16.4586     5083.00000
    16.4717     5110.00000
    16.4848     5109.00000
    16.4980     5041.00000
    16.5111     5125.00000
    16.5242     5062.00000
    16.5373     5019.00000
    16.5505     4998.00000
    16.5636     4952.00000
    16.5767     4847.00000
    16.5899     4835.00000
    16.6030     4805.00000
    16.6161     4859.00000
    16.6293     4720.00000
    16.6424     4857.00000
    16.6555     4889.00000
    16.6686     4608.00000
    16.6818     4796.00000
    16.6949     4969.00000
    16.7080     4696.00000
    16.7212     4708.00000
    16.7343     4746.00000
    16.7474     4831.00000
    16.7606     4829.00000
    16.7737     4871.00000
    16.7868     4902.00000
    16.8000     4794.00000
    16.8131     4736.00000
    16.8262     4799.00000
    16.8393     4826.00000
    16.8525     4748.00000
    16.8656     4818.00000
    16.8787     4772.00000
    16.8919     4758.00000
    16.9050     4770.00000
    16.9181     4747.00000
    16.9313     4758.00000
    16.9444     4850.00000
    16.9575     4831.00000
    16.9706     4830.00000
    16.9838     4752.00000
    16.9969     4838.00000
    17.0100     4822.00000
    17.0232     4752.00000
    17.0363     4768.00000
    17.0494     4765.00000
    17.0626     4779.00000
    17.0757     4605.00000
    17.0888     4651.00000
    17.1019     4803.00000
    17.1151     4804.00000
    17.1282     4822.00000
    17.1413     4856.00000
    17.1545     4624.00000
    17.1676     4913.00000
    17.1807     4594.00000
    17.1939     4788.00000
    17.2070     4861.00000
    17.2201     4809.00000
    17.2333     4812.00000
    17.2464     4959.00000
    17.2595     4926.00000
    17.2726     4922.00000
    17.2858     4940.00000
    17.2989     5064.00000
    17.3120     4875.00000
    17.3252     4818.00000
    17.3383     4811.00000
    17.3514     4830.00000
    17.3646     4755.00000
    17.3777     4699.00000
    17.3908     4751.00000
    17.4039     4574.00000
    17.4171     4675.00000
    17.4302     4623.00000
    17.4433     4674.00000
    17.4565     4540.00000
    17.4696     4634.00000
    17.4827     4655.00000
    17.4959     4676.00000
    17.5090     4777.00000
    17.5221     4635.00000
    17.5352     4610.00000
    17.5484     4570.00000
    17.5615     4591.00000
    17.5746     4566.00000
    17.5878     4577.00000
    17.6009     4476.00000
    17.6140     4682.00000
    17.6272     4597.00000
    17.6403     4643.00000
    17.6534     4636.00000
    17.6666     4497.00000
    17.6797     4657.00000
    17.6928     4625.00000
    17.7059     4593.00000
    17.7191     4729.00000
    17.7322     4735.00000
    17.7453     4751.00000
    17.7585     4813.00000
    17.7716     4863.00000
    17.7847     4921.00000
    17.7979     4851.00000
    17.8110     4713.00000
    17.8241     4619.00000
    17.8372     4583.00000
    17.8504     4809.00000
    17.8635     4501.00000
    17.8766     4595.00000
    17.8898     4594.00000
    17.9029     4503.00000
    17.9160     4545.00000
    17.9292     4487.00000
    17.9423     4583.00000
    17.9554     4535.00000
    17.9685     4593.00000
    17.9817     4498.00000
    17.9948     4441.00000
    18.0079     4576.00000
    18.0211     4568.00000
    18.0342     4585.00000
    18.0473     4501.00000
    18.0605     4520.00000
    18.0736     4492.00000
    18.0867     4376.00000
    18.0998     4414.00000
    18.1130     4466.00000
    18.1261     4439.00000
    18.1392     4370.00000
    18.1524     4467.00000
    18.1655     4457.00000
    18.1786     4453.00000
    18.1918     4491.00000
    18.2049     4490.00000
    18.2180     4338.00000
    18.2312     4448.00000
    18.2443     4553.00000
    18.2574     4489.00000
    18.2705     4444.00000
    18.2837     4449.00000
    18.2968     4367.00000
    18.3099     4371.00000
    18.3231     4429.00000
    18.3362     4406.00000
    18.3493     4596.00000
    18.3625     4524.00000
    18.3756     4480.00000
    18.3887     4408.00000
    18.4018     4381.00000
    18.4150     4340.00000
    18.4281     4439.00000
    18.4412     4493.00000
    18.4544     4493.00000
    18.4675     4410.00000
    18.4806     4507.00000
    18.4938     4417.00000
    18.5069     4461.00000
    18.5200     4478.00000
    18.5331     4498.00000
    18.5463     4535.00000
    18.5594     4530.00000
    18.5725     4513.00000
    18.5857     4565.00000
    18.5988     4550.00000
    18.6119     4526.00000
    18.6251     4527.00000
    18.6382     4488.00000
    18.6513     4601.00000
    18.6645     4418.00000
    18.6776     4572.00000
    18.6907     4451.00000
    18.7038     4481.00000
    18.7170     4489.00000
    18.7301     4431.00000
    18.7432     4325.00000
    18.7564     4438.00000
    18.7695     4323.00000
    18.7826     4408.00000
    18.7958     4327.00000
    18.8089     4325.00000
    18.8220     4423.00000
    18.8351     4365.00000
    18.8483     4316.00000
    18.8614     4459.00000
    18.8745     4314.00000
    18.8877     4308.00000
    18.9008     4317.00000
    18.9139     4369.00000
    18.9271     4362.00000
    18.9402     4342.00000
    18.9533     4292.00000
    18.9664     4276.00000
    18.9796     4483.00000
    18.9927     4295.00000
    19.0058     4566.00000
    19.0190     4478.00000
    19.0321     4497.00000
    19.0452     4590.00000
    19.0584     4760.00000
    19.0715     4632.00000
    19.0846     4649.00000
    19.0978     4641.00000
    19.1109     4687.00000
    19.1240     4790.00000
    19.1371     4701.00000
    19.1503     4737.00000
    19.1634     4765.00000
    19.1765     4735.00000
    19.1897     4647.00000
    19.2028     4774.00000
    19.2159     4767.00000
    19.2291     4748.00000
    19.2422     4706.00000
    19.2553     4555.00000
    19.2684     4761.00000
    19.2816     4600.00000
    19.2947     4697.00000
    19.3078     4742.00000
    19.3210     4763.00000
    19.3341     4803.00000
    19.3472     4822.00000
    19.3604     4795.00000
    19.3735     4780.00000
    19.3866     4769.00000
    19.3997     4825.00000
    19.4129     4939.00000
    19.4260     5035.00000
    19.4391     5176.00000
    19.4523     5129.00000
    19.4654     5388.00000
    19.4785     5507.00000
    19.4917     5531.00000
    19.5048     5840.00000
    19.5179     6010.00000
    19.5311     6353.00000
    19.5442     6608.00000
    19.5573     7212.00000
    19.5704     7915.00000
    19.5836     9088.00000
    19.5967    10906.00000
    19.6098    14073.00000
    19.6230    18492.00000
    19.6361    25920.00000
    19.6492    37595.00000
    19.6624    55120.00000
    19.6755    79490.00000
    19.6886   103051.00000
    19.7017   118887.00000
    19.7149   121230.00000
    19.7280   113354.00000
    19.7411   101752.00000
    19.7543    89787.00000
    19.7674    73183.00000
    19.7805    54671.00000
    19.7937    38638.00000
    19.8068    27280.00000
    19.8199    19486.00000
    19.8330    14424.00000
    19.8462    10841.00000
    19.8593     8735.00000
    19.8724     7444.00000
    19.8856     6575.00000
    19.8987     6217.00000
    19.9118     5855.00000
    19.9250     5664.00000
    19.9381     5441.00000
    19.9512     5268.00000
    19.9643     5123.00000
    19.9775     4907.00000
    19.9906     4981.00000
    20.0037     4761.00000
    20.0169     4710.00000
    20.0300     4757.00000
    20.0431     4716.00000
    20.0563     4520.00000
    20.0694     4723.00000
    20.0825     4592.00000
    20.0957     4624.00000
    20.1088     4479.00000
    20.1219     4570.00000
    20.1350     4541.00000
    20.1482     4609.00000
    20.1613     4837.00000
    20.1744     4704.00000
    20.1876     4815.00000
    20.2007     4908.00000
    20.2138     4833.00000
    20.2270     4860.00000
    20.2401     4707.00000
    20.2532     4619.00000
    20.2663     4616.00000
    20.2795     4562.00000
    20.2926     4576.00000
    20.3057     4460.00000
    20.3189     4455.00000
    20.3320     4353.00000
    20.3451     4237.00000
    20.3583     4316.00000
    20.3714     4402.00000
    20.3845     4232.00000
    20.3976     4272.00000
    20.4108     4308.00000
    20.4239     4335.00000
    20.4370     4207.00000
    20.4502     4324.00000
    20.4633     4264.00000
    20.4764     4249.00000
    20.4896     4331.00000
    20.5027     4310.00000
    20.5158     4237.00000
    20.5290     4282.00000
    20.5421     4286.00000
    20.5552     4210.00000
    20.5683     4211.00000
    20.5815     4230.00000
    20.5946     4178.00000
    20.6077     4278.00000
    20.6209     4165.00000
    20.6340     4227.00000
    20.6471     4350.00000
    20.6603     4215.00000
    20.6734     4278.00000
    20.6865     4218.00000
    20.6996     4193.00000
    20.7128     4226.00000
    20.7259     4294.00000
    20.7390     4169.00000
    20.7522     4284.00000
    20.7653     4180.00000
    20.7784     4168.00000
    20.7916     4179.00000
    20.8047     4134.00000
    20.8178     4088.00000
    20.8309     4151.00000
    20.8441     4089.00000
    20.8572     4151.00000
    20.8703     4164.00000
    20.8835     4281.00000
    20.8966     4089.00000
    20.9097     4083.00000
    20.9229     4103.00000
    20.9360     4016.00000
    20.9491     4132.00000
    20.9623     4097.00000
    20.9754     4075.00000
    20.9885     4120.00000
    21.0016     4151.00000
    21.0148     4035.00000
    21.0279     4097.00000
    21.0410     3993.00000
    21.0542     3991.00000
    21.0673     3966.00000
    21.0804     4003.00000
    21.0936     4024.00000
    21.1067     4140.00000
    21.1198     4135.00000
    21.1329     4142.00000
    21.1461     4143.00000
    21.1592     4054.00000
    21.1723     4066.00000
    21.1855     3972.00000
    21.1986     4168.00000
    21.2117     4068.00000
    21.2249     4124.00000
    21.2380     4032.00000
    21.2511     4171.00000
    21.2642     3971.00000
    21.2774     4103.00000
    21.2905     4149.00000
    21.3036     4060.00000
    21.3168     4049.00000
    21.3299     4080.00000
    21.3430     3914.00000
    21.3562     4068.00000
    21.3693     3934.00000
    21.3824     4084.00000
    21.3956     3995.00000
    21.4087     3897.00000
    21.4218     3946.00000
    21.4349     4005.00000
    21.4481     3907.00000
    21.4612     4093.00000
    21.4743     3956.00000
    21.4875     3929.00000
    21.5006     3981.00000
    21.5137     3907.00000
    21.5269     3928.00000
    21.5400     3916.00000
    21.5531     3885.00000
    21.5662     3897.00000
    21.5794     3979.00000
    21.5925     3913.00000
    21.6056     4032.00000
    21.6188     3985.00000
    21.6319     4013.00000
    21.6450     4067.00000
    21.6582     3998.00000
    21.6713     4127.00000
    21.6844     3999.00000
    21.6975     4136.00000
    21.7107     3953.00000
    21.7238     4008.00000
    21.7369     4042.00000
    21.7501     4033.00000
    21.7632     4134.00000
    21.7763     3962.00000
    21.7895     4052.00000
    21.8026     4108.00000
    21.8157     4316.00000
    21.8288     4311.00000
    21.8420     4258.00000
    21.8551     4320.00000
    21.8682     4362.00000
    21.8814     4266.00000
    21.8945     4245.00000
    21.9076     4127.00000
    21.9208     4234.00000
    21.9339     4273.00000
    21.9470     4197.00000
    21.9602     4035.00000
    21.9733     4055.00000
    21.9864     3995.00000
    21.9995     4093.00000
    22.0127     4085.00000
    22.0258     4046.00000
    22.0389     4143.00000
    22.0521     4085.00000
    22.0652     4115.00000
    22.0783     3979.00000
    22.0915     4052.00000
    22.1046     4017.00000
    22.1177     4053.00000
    22.1308     4017.00000
    22.1440     4062.00000
    22.1571     4088.00000
    22.1702     4033.00000
    22.1834     3993.00000
    22.1965     4032.00000
    22.2096     4211.00000
    22.2228     4151.00000
    22.2359     4312.00000
    22.2490     4469.00000
    22.2621     4597.00000
    22.2753     4932.00000
    22.2884     5508.00000
    22.3015     6126.00000
    22.3147     7348.00000
    22.3278     9376.00000
    22.3409    12206.00000
    22.3541    16042.00000
    22.3672    19455.00000
    22.3803    19762.00000
    22.3935    18496.00000
    22.4066    16619.00000
    22.4197    16084.00000
    22.4328    15204.00000
    22.4460    12200.00000
    22.4591     9568.00000
    22.4722     7760.00000
    22.4854     6611.00000
    22.4985     5609.00000
    22.5116     4856.00000
    22.5248     4331.00000
    22.5379     4438.00000
    22.5510     4229.00000
    22.5641     4104.00000
    22.5773     4131.00000
    22.5904     4007.00000
    22.6035     4000.00000
    22.6167     3997.00000
    22.6298     3852.00000
    22.6429     3890.00000
    22.6561     3977.00000
    22.6692     4015.00000
    22.6823     3983.00000
    22.6954     3980.00000
    22.7086     3935.00000
    22.7217     3967.00000
    22.7348     3892.00000
    22.7480     4020.00000
    22.7611     3894.00000
    22.7742     4058.00000
    22.7874     4013.00000
    22.8005     3883.00000
    22.8136     3931.00000
    22.8268     3967.00000
    22.8399     3893.00000
    22.8530     3960.00000
    22.8661     4066.00000
    22.8793     3844.00000
    22.8924     3898.00000
    22.9055     3927.00000
    22.9187     3809.00000
    22.9318     3813.00000
    22.9449     3836.00000
    22.9581     3774.00000
    22.9712     3792.00000
    22.9843     3861.00000
    22.9974     3786.00000
    23.0106     3791.00000
    23.0237     3881.00000
    23.0368     3844.00000
    23.0500     3657.00000
    23.0631     3780.00000
    23.0762     3849.00000
    23.0894     3854.00000
    23.1025     3684.00000
    23.1156     3803.00000
    23.1287     3921.00000
    23.1419     3689.00000
    23.1550     3711.00000
    23.1681     3774.00000
    23.1813     3714.00000
    23.1944     3765.00000
    23.2075     3745.00000
    23.2207     3775.00000
    23.2338     3804.00000
    23.2469     3732.00000
    23.2601     3770.00000
    23.2732     3795.00000
    23.2863     3765.00000
    23.2994     3781.00000
    23.3126     3735.00000
    23.3257     3791.00000
    23.3388     3847.00000
    23.3520     3843.00000
    23.3651     3909.00000
    23.3782     3784.00000
    23.3914     3775.00000
    23.4045     3830.00000
    23.4176     3917.00000
    23.4307     3897.00000
    23.4439     3839.00000
    23.4570     3896.00000
    23.4701     3877.00000
    23.4833     3878.00000
    23.4964     3913.00000
    23.5095     3732.00000
    23.5227     3882.00000
    23.5358     3871.00000
    23.5489     3916.00000
    23.5620     3922.00000
    23.5752     3892.00000
    23.5883     3920.00000
    23.6014     3896.00000
    23.6146     3957.00000
    23.6277     3990.00000
    23.6408     3936.00000
    23.6540     3923.00000
    23.6671     3950.00000
    23.6802     4005.00000
    23.6933     3984.00000
    23.7065     4012.00000
    23.7196     4028.00000
    23.7327     3941.00000
    23.7459     4011.00000
    23.7590     4062.00000
    23.7721     3895.00000
    23.7853     3996.00000
    23.7984     4036.00000
    23.8115     3933.00000
    23.8247     3984.00000
    23.8378     4041.00000
    23.8509     4103.00000
    23.8640     4059.00000
    23.8772     4153.00000
    23.8903     4201.00000
    23.9034     4191.00000
    23.9166     4226.00000
    23.9297     4213.00000
    23.9428     4509.00000
    23.9560     4584.00000
    23.9691     4514.00000
    23.9822     4492.00000
    23.9953     4631.00000
    24.0085     4714.00000
    24.0216     4716.00000
    24.0347     4746.00000
    24.0479     4830.00000
    24.0610     4992.00000
    24.0741     5217.00000
    24.0873     5445.00000
    24.1004     5778.00000
    24.1135     6555.00000
    24.1266     7904.00000
    24.1398    10201.00000
    24.1529    14527.00000
    24.1660    20560.00000
    24.1792    27348.00000
    24.1923    36049.00000
    24.2054    43527.00000
    24.2186    46244.00000
    24.2317    43577.00000
    24.2448    38854.00000
    24.2580    34828.00000
    24.2711    31971.00000
    24.2842    27751.00000
    24.2973    22245.00000
    24.3105    17405.00000
    24.3236    14145.00000
    24.3367    12709.00000
    24.3499    13158.00000
    24.3630    15938.00000
    24.3761    22212.00000
    24.3893    30955.00000
    24.4024    39414.00000
    24.4155    44233.00000
    24.4286    48310.00000
    24.4418    48553.00000
    24.4549    46035.00000
    24.4680    40726.00000
    24.4812    35443.00000
    24.4943    30924.00000
    24.5074    24639.00000
    24.5206    18971.00000
    24.5337    14493.00000
    24.5468    10839.00000
    24.5599     8198.00000
    24.5731     6452.00000
    24.5862     5560.00000
    24.5993     4924.00000
    24.6125     4782.00000
    24.6256     4674.00000
    24.6387     4523.00000
    24.6519     4329.00000
    24.6650     4239.00000
    24.6781     4266.00000
    24.6913     4103.00000
    24.7044     3996.00000
    24.7175     3993.00000
    24.7306     4023.00000
    24.7438     4066.00000
    24.7569     3842.00000
    24.7700     3944.00000
    24.7832     3865.00000
    24.7963     3837.00000
    24.8094     3668.00000
    24.8226     3786.00000
    24.8357     3812.00000
    24.8488     3924.00000
    24.8619     3880.00000
    24.8751     3864.00000
    24.8882     3846.00000
    24.9013     3838.00000
    24.9145     3841.00000
    24.9276     3808.00000
    24.9407     3713.00000
    24.9539     3817.00000
    24.9670     3905.00000
    24.9801     3886.00000
    24.9932     3888.00000
    25.0064     3924.00000
    25.0195     4002.00000
    25.0326     3964.00000
    25.0458     3965.00000
    25.0589     3872.00000
    25.0720     3827.00000
    25.0852     3841.00000
    25.0983     3672.00000
    25.1114     3771.00000
    25.1246     3663.00000
    25.1377     3614.00000
    25.1508     3724.00000
    25.1639     3698.00000
    25.1771     3612.00000
    25.1902     3576.00000
    25.2033     3688.00000
    25.2165     3698.00000
    25.2296     3648.00000
    25.2427     3672.00000
    25.2559     3731.00000
    25.2690     3713.00000
    25.2821     3621.00000
    25.2952     3657.00000
    25.3084     3683.00000
    25.3215     3690.00000
    25.3346     3719.00000
    25.3478     3784.00000
    25.3609     3697.00000
    25.3740     3614.00000
    25.3872     3611.00000
    25.4003     3546.00000
    25.4134     3757.00000
    25.4265     3781.00000
    25.4397     3683.00000
    25.4528     3556.00000
    25.4659     3742.00000
    25.4791     3548.00000
    25.4922     3679.00000
    25.5053     3626.00000
    25.5185     3593.00000
    25.5316     3666.00000
    25.5447     3524.00000
    25.5579     3551.00000
    25.5710     3602.00000
    25.5841     3637.00000
    25.5972     3695.00000
    25.6104     3578.00000
    25.6235     3540.00000
    25.6366     3655.00000
    25.6498     3525.00000
    25.6629     3622.00000
    25.6760     3595.00000
    25.6892     3597.00000
    25.7023     3580.00000
    25.7154     3532.00000
    25.7285     3498.00000
    25.7417     3409.00000
    25.7548     3508.00000
    25.7679     3484.00000
    25.7811     3534.00000
    25.7942     3463.00000
    25.8073     3585.00000
    25.8205     3587.00000
    25.8336     3555.00000
    25.8467     3598.00000
    25.8598     3589.00000
    25.8730     3556.00000
    25.8861     3573.00000
    25.8992     3529.00000
    25.9124     3503.00000
    25.9255     3618.00000
    25.9386     3562.00000
    25.9518     3593.00000
    25.9649     3579.00000
    25.9780     3652.00000
    25.9911     3595.00000
    26.0043     3622.00000
    26.0174     3737.00000
    26.0305     3723.00000
    26.0437     3764.00000
    26.0568     3785.00000
    26.0699     4009.00000
    26.0831     4043.00000
    26.0962     4147.00000
    26.1093     4006.00000
    26.1225     4001.00000
    26.1356     3930.00000
    26.1487     3900.00000
    26.1618     3857.00000
    26.1750     3756.00000
    26.1881     3880.00000
    26.2012     3631.00000
    26.2144     3589.00000
    26.2275     3666.00000
    26.2406     3602.00000
    26.2538     3576.00000
    26.2669     3476.00000
    26.2800     3596.00000
    26.2931     3609.00000
    26.3063     3495.00000
    26.3194     3626.00000
    26.3325     3581.00000
    26.3457     3394.00000
    26.3588     3494.00000
    26.3719     3519.00000
    26.3851     3527.00000
    26.3982     3509.00000
    26.4113     3593.00000
    26.4244     3609.00000
    26.4376     3583.00000
    26.4507     3597.00000
    26.4638     3415.00000
    26.4770     3540.00000
    26.4901     3414.00000
    26.5032     3502.00000
    26.5164     3487.00000
    26.5295     3624.00000
    26.5426     3504.00000
    26.5558     3490.00000
    26.5689     3578.00000
    26.5820     3599.00000
    26.5951     3485.00000
    26.6083     3493.00000
    26.6214     3419.00000
    26.6345     3504.00000
    26.6477     3382.00000
    26.6608     3472.00000
    26.6739     3515.00000
    26.6871     3386.00000
    26.7002     3411.00000
    26.7133     3363.00000
    26.7264     3395.00000
    26.7396     3526.00000
    26.7527     3408.00000
    26.7658     3340.00000
    26.7790     3492.00000
    26.7921     3439.00000
    26.8052     3565.00000
    26.8184     3631.00000
    26.8315     3692.00000
    26.8446     3626.00000
    26.8577     3674.00000
    26.8709     3669.00000
    26.8840     3716.00000
    26.8971     3650.00000
    26.9103     3614.00000
    26.9234     3675.00000
    26.9365     3810.00000
    26.9497     3635.00000
    26.9628     3644.00000
    26.9759     3682.00000
    26.9891     3722.00000
    27.0022     3726.00000
    27.0153     3744.00000
    27.0284     3634.00000
    27.0416     3689.00000
    27.0547     3695.00000
    27.0678     3695.00000
    27.0810     3806.00000
    27.0941     3662.00000
    27.1072     3673.00000
    27.1204     3646.00000
    27.1335     3647.00000
    27.1466     3740.00000
    27.1597     3773.00000
    27.1729     3600.00000
    27.1860     3804.00000
    27.1991     3625.00000
    27.2123     3657.00000
    27.2254     3695.00000
    27.2385     3755.00000
    27.2517     3598.00000
    27.2648     3655.00000
    27.2779     3687.00000
    27.2910     3617.00000
    27.3042     3654.00000
    27.3173     3717.00000
    27.3304     3723.00000
    27.3436     3631.00000
    27.3567     3708.00000
    27.3698     3779.00000
    27.3830     3824.00000
    27.3961     3964.00000
    27.4092     3841.00000
    27.4224     3827.00000
    27.4355     3893.00000
    27.4486     4012.00000
    27.4617     4032.00000
    27.4749     4116.00000
    27.4880     4152.00000
    27.5011     4347.00000
    27.5143     4483.00000
    27.5274     4481.00000
    27.5405     4649.00000
    27.5537     4968.00000
    27.5668     4956.00000
    27.5799     5323.00000
    27.5930     5589.00000
    27.6062     5938.00000
    27.6193     6453.00000
    27.6324     7124.00000
    27.6456     7904.00000
    27.6587     9137.00000
    27.6718    11169.00000
    27.6850    14380.00000
    27.6981    19790.00000
    27.7112    29626.00000
    27.7243    44174.00000
    27.7375    61092.00000
    27.7506    75190.00000
    27.7637    82779.00000
    27.7769    80224.00000
    27.7900    71350.00000
    27.8031    64274.00000
    27.8163    58157.00000
    27.8294    53721.00000
    27.8425    46562.00000
    27.8556    38447.00000
    27.8688    28776.00000
    27.8819    20699.00000
    27.8950    14924.00000
    27.9082    10837.00000
    27.9213     8496.00000
    27.9344     7226.00000
    27.9476     6358.00000
    27.9607     5749.00000
    27.9738     5490.00000
    27.9870     4919.00000
    28.0001     4703.00000
    28.0132     4461.00000
    28.0263     4362.00000
    28.0395     4213.00000
    28.0526     4072.00000
    28.0657     3968.00000
    28.0789     3853.00000
    28.0920     3780.00000
    28.1051     3845.00000
    28.1183     3703.00000
    28.1314     3737.00000
    28.1445     3822.00000
    28.1576     3803.00000
    28.1708     3635.00000
    28.1839     3623.00000
    28.1970     3585.00000
    28.2102     3652.00000
    28.2233     3618.00000
    28.2364     3732.00000
    28.2496     3790.00000
    28.2627     3661.00000
    28.2758     3853.00000
    28.2889     3783.00000
    28.3021     3862.00000
    28.3152     3899.00000
    28.3283     3953.00000
    28.3415     3918.00000
    28.3546     4004.00000
    28.3677     3920.00000
    28.3809     3900.00000
    28.3940     3822.00000
    28.4071     3874.00000
    28.4203     3779.00000
    28.4334     3765.00000
    28.4465     3745.00000
    28.4596     3669.00000
    28.4728     3683.00000
    28.4859     3707.00000
    28.4990     3557.00000
    28.5122     3610.00000
    28.5253     3596.00000
    28.5384     3598.00000
    28.5516     3634.00000
    28.5647     3604.00000
    28.5778     3594.00000
    28.5909     3602.00000
    28.6041     3673.00000
    28.6172     3610.00000
    28.6303     3514.00000
    28.6435     3586.00000
    28.6566     3509.00000
    28.6697     3489.00000
    28.6829     3480.00000
    28.6960     3464.00000
    28.7091     3474.00000
    28.7222     3516.00000
    28.7354     3594.00000
    28.7485     3492.00000
    28.7616     3474.00000
    28.7748     3607.00000
    28.7879     3517.00000
    28.8010     3614.00000
    28.8142     3491.00000
    28.8273     3495.00000
    28.8404     3506.00000
    28.8536     3622.00000
    28.8667     3513.00000
    28.8798     3480.00000
    28.8929     3550.00000
    28.9061     3556.00000
    28.9192     3646.00000
    28.9323     3648.00000
    28.9455     3488.00000
    28.9586     3531.00000
    28.9717     3557.00000
    28.9849     3619.00000
    28.9980     3687.00000
    29.0111     3735.00000
    29.0242     3741.00000
    29.0374     3738.00000
    29.0505     3819.00000
    29.0636     3978.00000
    29.0768     4026.00000
    29.0899     4150.00000
    29.1030     4090.00000
    29.1162     4178.00000
    29.1293     4374.00000
    29.1424     4534.00000
    29.1555     4693.00000
    29.1687     4809.00000
    29.1818     5078.00000
    29.1949     5597.00000
    29.2081     6465.00000
    29.2212     8426.00000
    29.2343    11958.00000
    29.2475    17207.00000
    29.2606    24328.00000
    29.2737    30688.00000
    29.2869    33940.00000
    29.3000    32697.00000
    29.3131    28699.00000
    29.3262    25682.00000
    29.3394    24375.00000
    29.3525    23906.00000
    29.3656    22615.00000
    29.3788    19728.00000
    29.3919    16601.00000
    29.4050    14739.00000
    29.4182    14467.00000
    29.4313    15523.00000
    29.4444    17020.00000
    29.4575    19027.00000
    29.4707    19501.00000
    29.4838    18745.00000
    29.4969    17039.00000
    29.5101    15324.00000
    29.5232    13735.00000
    29.5363    12636.00000
    29.5495    11603.00000
    29.5626    10225.00000
    29.5757     8515.00000
    29.5888     7077.00000
    29.6020     5781.00000
    29.6151     4808.00000
    29.6282     4366.00000
    29.6414     4084.00000
    29.6545     4015.00000
    29.6676     3862.00000
    29.6808     3670.00000
    29.6939     3689.00000
    29.7070     3604.00000
    29.7201     3491.00000
    29.7333     3547.00000
    29.7464     3525.00000
    29.7595     3412.00000
    29.7727     3454.00000
    29.7858     3423.00000
    29.7989     3476.00000
    29.8121     3420.00000
    29.8252     3343.00000
    29.8383     3308.00000
    29.8515     3372.00000
    29.8646     3365.00000
    29.8777     3397.00000
    29.8908     3321.00000
    29.9040     3412.00000
    29.9171     3475.00000
    29.9302     3397.00000
    29.9434     3372.00000
    29.9565     3412.00000
    29.9696     3417.00000
    29.9828     3355.00000
    29.9959     3490.00000
    30.0090     3395.00000
    30.0221     3392.00000
    30.0353     3383.00000
    30.0484     3313.00000
    30.0615     3248.00000
    30.0747     3189.00000
    30.0878     3309.00000
    30.1009     3388.00000
    30.1141     3322.00000
    30.1272     3314.00000
    30.1403     3347.00000
    30.1535     3382.00000
    30.1666     3335.00000
    30.1797     3415.00000
    30.1928     3307.00000
    30.2060     3196.00000
    30.2191     3363.00000
    30.2322     3236.00000
    30.2454     3266.00000
    30.2585     3273.00000
    30.2716     3393.00000
    30.2848     3358.00000
    30.2979     3346.00000
    30.3110     3335.00000
    30.3241     3366.00000
    30.3373     3381.00000
    30.3504     3239.00000
    30.3635     3226.00000
    30.3767     3220.00000
    30.3898     3236.00000
    30.4029     3263.00000
    30.4161     3321.00000
    30.4292     3294.00000
    30.4423     3228.00000
    30.4554     3254.00000
    30.4686     3321.00000
    30.4817     3280.00000
    30.4948     3230.00000
    30.5080     3319.00000
    30.5211     3268.00000
    30.5342     3398.00000
    30.5474     3251.00000
    30.5605     3301.00000
    30.5736     3305.00000
    30.5868     3196.00000
    30.5999     3241.00000
    30.6130     3230.00000
    30.6261     3111.00000
    30.6393     3140.00000
    30.6524     3138.00000
    30.6655     3324.00000
    30.6787     3242.00000
    30.6918     3220.00000
    30.7049     3133.00000
    30.7181     3101.00000
    30.7312     3184.00000
    30.7443     3162.00000
    30.7574     3060.00000
    30.7706     3166.00000
    30.7837     3243.00000
    30.7968     3186.00000
    30.8100     3214.00000
    30.8231     3005.00000
    30.8362     3207.00000
    30.8494     3198.00000
    30.8625     3093.00000
    30.8756     3206.00000
    30.8887     3179.00000
    30.9019     3340.00000
    30.9150     3046.00000
    30.9281     3144.00000
    30.9413     3305.00000
    30.9544     3145.00000
    30.9675     3166.00000
    30.9807     3210.00000
    30.9938     3173.00000
    31.0069     3178.00000
    31.0200     3221.00000
    31.0332     3121.00000
    31.0463     3077.00000
    31.0594     3267.00000
    31.0726     3116.00000
    31.0857     3185.00000
    31.0988     3194.00000
    31.1120     3250.00000
    31.1251     3156.00000
    31.1382     3219.00000
    31.1514     3214.00000
    31.1645     3225.00000
    31.1776     3197.00000
    31.1907     3129.00000
    31.2039     3174.00000
    31.2170     3160.00000
    31.2301     3145.00000
    31.2433     3096.00000
    31.2564     3232.00000
    31.2695     3171.00000
    31.2827     3060.00000
    31.2958     3197.00000
    31.3089     3259.00000
    31.3220     3178.00000
    31.3352     3119.00000
    31.3483     3141.00000
    31.3614     3035.00000
    31.3746     3054.00000
    31.3877     3082.00000
    31.4008     3125.00000
    31.4140     3172.00000
    31.4271     3113.00000
    31.4402     3093.00000
    31.4533     3109.00000
    31.4665     3104.00000
    31.4796     3133.00000
    31.4927     3068.00000
    31.5059     3165.00000
    31.5190     3016.00000
    31.5321     3126.00000
    31.5453     3188.00000
    31.5584     3055.00000
    31.5715     3085.00000
    31.5847     3109.00000
    31.5978     3068.00000
    31.6109     3166.00000
    31.6240     3037.00000
    31.6372     3048.00000
    31.6503     3026.00000
    31.6634     3188.00000
    31.6766     3207.00000
    31.6897     3069.00000
    31.7028     3119.00000
    31.7160     3112.00000
    31.7291     3134.00000
    31.7422     3111.00000
    31.7553     3010.00000
    31.7685     2963.00000
    31.7816     3109.00000
    31.7947     3184.00000
    31.8079     3071.00000
    31.8210     3063.00000
    31.8341     3133.00000
    31.8473     3075.00000
    31.8604     3117.00000
    31.8735     3060.00000
    31.8866     3085.00000
    31.8998     3149.00000
    31.9129     3116.00000
    31.9260     3119.00000
    31.9392     3111.00000
    31.9523     3132.00000
    31.9654     3134.00000
    31.9786     3146.00000
    31.9917     3110.00000
    32.0048     3136.00000
    32.0180     3044.00000
    32.0311     3183.00000
    32.0442     3092.00000
    32.0573     3078.00000
    32.0705     3154.00000
    32.0836     3097.00000
    32.0967     3102.00000
    32.1099     3087.00000
    32.1230     3141.00000
    32.1361     3070.00000
    32.1493     3187.00000
    32.1624     3182.00000
    32.1755     3172.00000
    32.1886     3198.00000
    32.2018     3135.00000
    32.2149     3155.00000
    32.2280     3262.00000
    32.2412     3301.00000
    32.2543     3167.00000
    32.2674     3272.00000
    32.2806     3116.00000
    32.2937     3265.00000
    32.3068     3283.00000
    32.3199     3297.00000
    32.3331     3193.00000
    32.3462     3280.00000
    32.3593     3283.00000
    32.3725     3150.00000
    32.3856     3170.00000
    32.3987     3217.00000
    32.4119     3107.00000
    32.4250     3277.00000
    32.4381     3150.00000
    32.4512     3337.00000
    32.4644     3273.00000
    32.4775     3240.00000
    32.4906     3274.00000
    32.5038     3226.00000
    32.5169     3434.00000
    32.5300     3364.00000
    32.5432     3351.00000
    32.5563     3436.00000
    32.5694     3489.00000
    32.5826     3496.00000
    32.5957     3601.00000
    32.6088     3546.00000
    32.6219     3627.00000
    32.6351     3757.00000
    32.6482     3732.00000
    32.6613     3807.00000
    32.6745     4005.00000
    32.6876     4324.00000
    32.7007     4693.00000
    32.7139     5507.00000
    32.7270     7368.00000
    32.7401    10779.00000
    32.7532    15788.00000
    32.7664    20924.00000
    32.7795    22427.00000
    32.7926    19788.00000
    32.8058    15586.00000
    32.8189    13304.00000
    32.8320    12528.00000
    32.8452    13434.00000
    32.8583    13969.00000
    32.8714    12621.00000
    32.8845    10189.00000
    32.8977     7894.00000
    32.9108     6331.00000
    32.9239     5183.00000
    32.9371     4592.00000
    32.9502     4322.00000
    32.9633     3941.00000
    32.9765     3856.00000
    32.9896     3817.00000
    33.0027     3722.00000
    33.0159     3700.00000
    33.0290     3868.00000
    33.0421     3813.00000
    33.0552     3821.00000
    33.0684     3944.00000
    33.0815     3981.00000
    33.0946     4120.00000
    33.1078     4178.00000
    33.1209     4235.00000
    33.1340     4380.00000
    33.1472     4429.00000
    33.1603     4617.00000
    33.1734     4943.00000
    33.1865     5562.00000
    33.1997     6614.00000
    33.2128     8535.00000
    33.2259    12044.00000
    33.2391    17703.00000
    33.2522    24995.00000
    33.2653    32369.00000
    33.2785    36366.00000
    33.2916    34283.00000
    33.3047    28999.00000
    33.3178    24526.00000
    33.3310    22721.00000
    33.3441    21781.00000
    33.3572    22035.00000
    33.3704    20698.00000
    33.3835    18116.00000
    33.3966    14147.00000
    33.4098    10915.00000
    33.4229     8543.00000
    33.4360     6581.00000
    33.4492     5586.00000
    33.4623     5061.00000
    33.4754     4631.00000
    33.4885     4468.00000
    33.5017     4286.00000
    33.5148     4213.00000
    33.5279     4108.00000
    33.5411     4160.00000
    33.5542     4241.00000
    33.5673     4372.00000
    33.5805     4326.00000
    33.5936     4390.00000
    33.6067     4644.00000
    33.6198     4726.00000
    33.6330     5014.00000
    33.6461     5309.00000
    33.6592     5912.00000
    33.6724     6831.00000
    33.6855     8305.00000
    33.6986    10913.00000
    33.7118    14613.00000
    33.7249    18862.00000
    33.7380    23626.00000
    33.7511    27383.00000
    33.7643    30078.00000
    33.7774    30101.00000
    33.7905    27742.00000
    33.8037    26122.00000
    33.8168    25455.00000
    33.8299    27008.00000
    33.8431    29731.00000
    33.8562    30136.00000
    33.8693    27288.00000
    33.8825    22320.00000
    33.8956    17353.00000
    33.9087    14808.00000
    33.9218    13262.00000
    33.9350    12306.00000
    33.9481    11526.00000
    33.9612     9787.00000
    33.9744     7879.00000
    33.9875     6547.00000
    34.0006     5633.00000
    34.0138     4682.00000
    34.0269     4219.00000
    34.0400     3881.00000
    34.0531     3756.00000
    34.0663     3642.00000
    34.0794     3572.00000
    34.0925     3507.00000
    34.1057     3387.00000
    34.1188     3409.00000
    34.1319     3416.00000
    34.1451     3330.00000
    34.1582     3455.00000
    34.1713     3273.00000
    34.1844     3326.00000
    34.1976     3286.00000
    34.2107     3218.00000
    34.2238     3238.00000
    34.2370     3179.00000
    34.2501     3265.00000
    34.2632     3261.00000
    34.2764     3211.00000
    34.2895     3200.00000
    34.3026     3197.00000
    34.3158     3179.00000
    34.3289     3124.00000
    34.3420     3109.00000
    34.3551     3194.00000
    34.3683     3155.00000
    34.3814     3239.00000
    34.3945     3144.00000
    34.4077     3161.00000
    34.4208     3162.00000
    34.4339     3219.00000
    34.4471     3227.00000
    34.4602     3284.00000
    34.4733     3191.00000
    34.4864     3321.00000
    34.4996     3219.00000
    34.5127     3313.00000
    34.5258     3308.00000
    34.5390     3426.00000
    34.5521     3459.00000
    34.5652     3460.00000
    34.5784     3475.00000
    34.5915     3603.00000
    34.6046     3558.00000
    34.6177     3799.00000
    34.6309     3832.00000
    34.6440     4198.00000
    34.6571     4862.00000
    34.6703     5843.00000
    34.6834     7691.00000
    34.6965    10346.00000
    34.7097    12947.00000
    34.7228    14643.00000
    34.7359    13878.00000
    34.7491    11643.00000
    34.7622     9734.00000
    34.7753     8809.00000
    34.7884     8499.00000
    34.8016     9279.00000
    34.8147     9072.00000
    34.8278     8326.00000
    34.8410     7050.00000
    34.8541     5840.00000
    34.8672     4714.00000
    34.8804     4016.00000
    34.8935     3642.00000
    34.9066     3625.00000
    34.9197     3372.00000
    34.9329     3264.00000
    34.9460     3317.00000
    34.9591     3267.00000
    34.9723     3230.00000
    34.9854     3292.00000
    34.9985     3309.00000
    35.0117     3560.00000
    35.0248     3637.00000
    35.0379     3765.00000
    35.0510     3710.00000
    35.0642     3666.00000
    35.0773     3433.00000
    35.0904     3477.00000
    35.1036     3394.00000
    35.1167     3308.00000
    35.1298     3351.00000
    35.1430     3321.00000
    35.1561     3312.00000
    35.1692     3225.00000
    35.1824     3197.00000
    35.1955     3081.00000
    35.2086     3035.00000
    35.2217     3046.00000
    35.2349     3094.00000
    35.2480     3024.00000
    35.2611     2984.00000
    35.2743     2951.00000
    35.2874     2965.00000
    35.3005     2927.00000
    35.3137     2986.00000
    35.3268     3004.00000
    35.3399     3051.00000
    35.3530     2956.00000
    35.3662     2931.00000
    35.3793     2979.00000
    35.3924     2915.00000
    35.4056     2903.00000
    35.4187     2936.00000
    35.4318     3006.00000
    35.4450     3001.00000
    35.4581     2926.00000
    35.4712     2990.00000
    35.4843     2900.00000
    35.4975     2929.00000
    35.5106     2928.00000
    35.5237     2895.00000
    35.5369     3018.00000
    35.5500     2976.00000
    35.5631     2851.00000
    35.5763     2978.00000
    35.5894     2922.00000
    35.6025     2874.00000
    35.6156     2903.00000
    35.6288     2909.00000
    35.6419     2901.00000
    35.6550     2974.00000
    35.6682     2906.00000
    35.6813     2880.00000
    35.6944     2967.00000
    35.7076     2942.00000
    35.7207     2874.00000
    35.7338     2862.00000
    35.7470     2880.00000
    35.7601     3034.00000
    35.7732     2942.00000
    35.7863     2856.00000
    35.7995     2910.00000
    35.8126     2924.00000
    35.8257     2753.00000
    35.8389     2965.00000
    35.8520     2865.00000
    35.8651     2906.00000
    35.8783     3017.00000
    35.8914     2880.00000
    35.9045     2807.00000
    35.9176     2828.00000
    35.9308     2909.00000
    35.9439     2760.00000
    35.9570     2927.00000
    35.9702     2948.00000
    35.9833     2867.00000
    35.9964     2932.00000
    36.0096     2961.00000
    36.0227     2939.00000
    36.0358     2923.00000
    36.0489     3036.00000
    36.0621     3071.00000
    36.0752     3070.00000
    36.0883     3027.00000
    36.1015     3072.00000
    36.1146     3018.00000
    36.1277     3001.00000
    36.1409     3077.00000
    36.1540     3011.00000
    36.1671     3059.00000
    36.1802     3015.00000
    36.1934     2966.00000
    36.2065     3024.00000
    36.2196     2982.00000
    36.2328     2951.00000
    36.2459     2912.00000
    36.2590     2931.00000
    36.2722     2946.00000
    36.2853     2933.00000
    36.2984     2870.00000
    36.3116     2923.00000
    36.3247     2963.00000
    36.3378     2984.00000
    36.3509     2876.00000
    36.3641     2835.00000
    36.3772     2863.00000
    36.3903     2851.00000
    36.4035     2919.00000
    36.4166     3032.00000
    36.4297     2865.00000
    36.4429     2919.00000
    36.4560     3007.00000
    36.4691     3030.00000
    36.4822     3079.00000
    36.4954     3013.00000
    36.5085     2995.00000
    36.5216     3156.00000
    36.5348     3103.00000
    36.5479     3081.00000
    36.5610     3177.00000
    36.5742     3263.00000
    36.5873     3344.00000
    36.6004     3476.00000
    36.6135     3794.00000
    36.6267     4370.00000
    36.6398     5596.00000
    36.6529     7212.00000
    36.6661     8867.00000
    36.6792     9866.00000
    36.6923     9987.00000
    36.7055     8794.00000
    36.7186     7419.00000
    36.7317     6313.00000
    36.7449     5976.00000
    36.7580     6311.00000
    36.7711     6671.00000
    36.7842     6559.00000
    36.7974     6069.00000
    36.8105     5258.00000
    36.8236     4367.00000
    36.8368     3740.00000
    36.8499     3448.00000
    36.8630     3171.00000
    36.8762     3240.00000
    36.8893     3186.00000
    36.9024     3078.00000
    36.9155     3000.00000
    36.9287     3025.00000
    36.9418     3075.00000
    36.9549     3015.00000
    36.9681     2945.00000
    36.9812     2966.00000
    36.9943     2989.00000
    37.0075     2797.00000
    37.0206     2884.00000
    37.0337     3007.00000
    37.0468     3023.00000
    37.0600     2984.00000
    37.0731     2922.00000
    37.0862     2912.00000
    37.0994     2884.00000
    37.1125     2887.00000
    37.1256     3012.00000
    37.1388     2866.00000
    37.1519     2922.00000
    37.1650     2990.00000
    37.1782     2965.00000
    37.1913     3070.00000
    37.2044     3066.00000
    37.2175     3132.00000
    37.2307     3008.00000
    37.2438     3092.00000
    37.2569     3172.00000
    37.2701     3124.00000
    37.2832     3208.00000
    37.2963     3474.00000
    37.3095     3514.00000
    37.3226     3690.00000
    37.3357     4221.00000
    37.3488     4856.00000
    37.3620     5969.00000
    37.3751     7375.00000
    37.3882     8775.00000
    37.4014     9597.00000
    37.4145    10044.00000
    37.4276     9720.00000
    37.4408     8833.00000
    37.4539     8102.00000
    37.4670     7279.00000
    37.4801     7026.00000
    37.4933     6757.00000
    37.5064     6721.00000
    37.5195     6628.00000
    37.5327     6047.00000
    37.5458     5263.00000
    37.5589     4626.00000
    37.5721     4036.00000
    37.5852     3582.00000
    37.5983     3395.00000
    37.6115     3335.00000
    37.6246     3149.00000
    37.6377     3142.00000
    37.6508     3228.00000
    37.6640     3353.00000
    37.6771     3480.00000
    37.6902     3709.00000
    37.7034     3844.00000
    37.7165     3715.00000
    37.7296     3564.00000
    37.7428     3357.00000
    37.7559     3318.00000
    37.7690     3227.00000
    37.7821     3323.00000
    37.7953     3471.00000
    37.8084     3342.00000
    37.8215     3307.00000
    37.8347     3110.00000
    37.8478     3054.00000
    37.8609     2999.00000
    37.8741     2951.00000
    37.8872     2830.00000
    37.9003     2717.00000
    37.9134     2879.00000
    37.9266     2756.00000
    37.9397     2822.00000
    37.9528     2747.00000
    37.9660     2767.00000
    37.9791     2846.00000
    37.9922     2744.00000
    38.0054     2670.00000
    38.0185     2790.00000
    38.0316     2663.00000
    38.0448     2757.00000
    38.0579     2864.00000
    38.0710     2769.00000
    38.0841     2773.00000
    38.0973     2721.00000
    38.1104     2727.00000
    38.1235     2751.00000
    38.1367     2798.00000
    38.1498     2795.00000
    38.1629     2740.00000
    38.1761     2701.00000
    38.1892     2670.00000
    38.2023     2667.00000
    38.2154     2746.00000
    38.2286     2740.00000
    38.2417     2813.00000
    38.2548     2688.00000
    38.2680     2727.00000
    38.2811     2803.00000
    38.2942     2677.00000
    38.3074     2698.00000
    38.3205     2761.00000
    38.3336     2685.00000
    38.3467     2784.00000
    38.3599     2711.00000
    38.3730     2762.00000
    38.3861     2737.00000
    38.3993     2849.00000
    38.4124     2742.00000
    38.4255     2690.00000
    38.4387     2754.00000
    38.4518     2748.00000
    38.4649     2695.00000
    38.4781     2825.00000
    38.4912     2785.00000
    38.5043     2778.00000
    38.5174     2736.00000
    38.5306     2779.00000
    38.5437     2738.00000
    38.5568     2698.00000
    38.5700     2768.00000
    38.5831     2756.00000
    38.5962     2737.00000
    38.6094     2750.00000
    38.6225     2759.00000
    38.6356     2808.00000
    38.6487     2773.00000
    38.6619     2752.00000
    38.6750     2816.00000
    38.6881     2774.00000
    38.7013     2804.00000
    38.7144     2777.00000
    38.7275     2786.00000
    38.7407     2786.00000
    38.7538     2780.00000
    38.7669     2821.00000
    38.7800     2718.00000
    38.7932     2716.00000
    38.8063     2806.00000
    38.8194     2674.00000
    38.8326     2717.00000
    38.8457     2737.00000
    38.8588     2731.00000
    38.8720     2777.00000
    38.8851     2642.00000
    38.8982     2862.00000
    38.9114     2674.00000
    38.9245     2721.00000
    38.9376     2720.00000
    38.9507     2779.00000
    38.9639     2785.00000
    38.9770     2803.00000
    38.9901     2758.00000
    39.0033     2792.00000
    39.0164     2846.00000
    39.0295     2745.00000
    39.0427     2747.00000
    39.0558     2829.00000
    39.0689     2781.00000
    39.0820     2783.00000
    39.0952     2781.00000
    39.1083     2750.00000
    39.1214     2831.00000
    39.1346     2760.00000
    39.1477     2805.00000
    39.1608     2835.00000
    39.1740     2685.00000
    39.1871     2711.00000
    39.2002     2734.00000
    39.2133     2691.00000
    39.2265     2680.00000
    39.2396     2762.00000
    39.2527     2701.00000
    39.2659     2764.00000
    39.2790     2703.00000
    39.2921     2784.00000
    39.3053     2676.00000
    39.3184     2719.00000
    39.3315     2737.00000
    39.3446     2708.00000
    39.3578     2767.00000
    39.3709     2729.00000
    39.3840     2738.00000
    39.3972     2740.00000
    39.4103     2766.00000
    39.4234     2672.00000
    39.4366     2753.00000
    39.4497     2735.00000
    39.4628     2740.00000
    39.4760     2737.00000
    39.4891     2830.00000
    39.5022     2813.00000
    39.5153     2716.00000
    39.5285     2691.00000
    39.5416     2757.00000
    39.5547     2753.00000
    39.5679     2884.00000
    39.5810     2927.00000
    39.5941     2859.00000
    39.6073     2963.00000
    39.6204     3048.00000
    39.6335     3040.00000
    39.6466     3053.00000
    39.6598     3330.00000
    39.6729     3591.00000
    39.6860     3940.00000
    39.6992     4561.00000
    39.7123     4892.00000
    39.7254     5255.00000
    39.7386     5215.00000
    39.7517     4866.00000
    39.7648     4485.00000
    39.7779     4294.00000
    39.7911     4069.00000
    39.8042     4064.00000
    39.8173     4035.00000
    39.8305     4207.00000
    39.8436     4098.00000
    39.8567     3928.00000
    39.8699     3693.00000
    39.8830     3469.00000
    39.8961     3241.00000
    39.9092     3259.00000
    39.9224     3227.00000
    39.9355     3108.00000
    39.9486     3112.00000
    39.9618     3294.00000
    39.9749     3339.00000
    39.9880     3601.00000
    40.0012     3776.00000
    40.0143     4503.00000
    40.0274     5634.00000
    40.0406     6679.00000
    40.0537     7583.00000
    40.0668     7463.00000
    40.0799     7182.00000
    40.0931     6388.00000
    40.1062     5817.00000
    40.1193     5184.00000
    40.1325     5238.00000
    40.1456     5443.00000
    40.1587     5567.00000
    40.1719     5582.00000
    40.1850     5227.00000
    40.1981     4741.00000
    40.2112     4346.00000
    40.2244     3952.00000
    40.2375     3728.00000
    40.2506     3696.00000
    40.2638     3659.00000
    40.2769     3832.00000
    40.2900     4524.00000
    40.3032     5455.00000
    40.3163     6643.00000
    40.3294     8292.00000
    40.3425     9691.00000
    40.3557     9664.00000
    40.3688     8660.00000
    40.3819     7415.00000
    40.3951     6249.00000
    40.4082     5591.00000
    40.4213     5713.00000
    40.4345     6178.00000
    40.4476     6533.00000
    40.4607     6358.00000
    40.4739     6087.00000
    40.4870     5147.00000
    40.5001     4288.00000
    40.5132     3755.00000
    40.5264     3525.00000
    40.5395     3332.00000
    40.5526     3163.00000
    40.5658     3054.00000
    40.5789     3032.00000
    40.5920     2990.00000
    40.6052     2873.00000
    40.6183     2879.00000
    40.6314     3040.00000
    40.6445     2927.00000
    40.6577     2890.00000
    40.6708     2827.00000
    40.6839     2861.00000
    40.6971     2842.00000
    40.7102     2959.00000
    40.7233     2837.00000
    40.7365     2807.00000
    40.7496     2868.00000
    40.7627     3027.00000
    40.7758     2895.00000
    40.7890     2923.00000
    40.8021     3031.00000
    40.8152     2971.00000
    40.8284     3020.00000
    40.8415     3141.00000
    40.8546     3271.00000
    40.8678     3192.00000
    40.8809     3224.00000
    40.8940     3317.00000
    40.9072     3479.00000
    40.9203     3691.00000
    40.9334     3825.00000
    40.9465     4304.00000
    40.9597     4873.00000
    40.9728     5658.00000
    40.9859     6682.00000
    40.9991     8167.00000
    41.0122     9855.00000
    41.0253    11067.00000
    41.0385    11516.00000
    41.0516    10767.00000
    41.0647     9454.00000
    41.0778     8221.00000
    41.0910     7764.00000
    41.1041     7713.00000
    41.1172     8539.00000
    41.1304     9817.00000
    41.1435    11907.00000
    41.1566    13649.00000
    41.1698    14845.00000
    41.1829    14836.00000
    41.1960    13427.00000
    41.2091    11395.00000
    41.2223     9922.00000
    41.2354     8537.00000
    41.2485     8589.00000
    41.2617     9976.00000
    41.2748    11747.00000
    41.2879    14058.00000
    41.3011    15720.00000
    41.3142    15970.00000
    41.3273    14873.00000
    41.3405    12800.00000
    41.3536     9999.00000
    41.3667     8264.00000
    41.3798     7267.00000
    41.3930     7163.00000
    41.4061     7536.00000
    41.4192     7913.00000
    41.4324     7834.00000
    41.4455     7044.00000
    41.4586     6022.00000
    41.4718     4905.00000
    41.4849     4059.00000
    41.4980     3693.00000
    41.5111     3497.00000
    41.5243     3150.00000
    41.5374     3081.00000
    41.5505     2973.00000
    41.5637     3018.00000
    41.5768     2871.00000
    41.5899     2823.00000
    41.6031     2816.00000
    41.6162     2903.00000
    41.6293     2916.00000
    41.6424     2984.00000
    41.6556     2736.00000
    41.6687     2775.00000
    41.6818     2785.00000
    41.6950     2788.00000
    41.7081     2734.00000
    41.7212     2800.00000
    41.7344     2742.00000
    41.7475     2728.00000
    41.7606     2777.00000
    41.7738     2789.00000
    41.7869     2763.00000
    41.8000     2673.00000
    41.8131     2780.00000
    41.8263     2696.00000
    41.8394     2732.00000
    41.8525     2729.00000
    41.8657     2778.00000
    41.8788     2724.00000
    41.8919     2743.00000
    41.9051     2683.00000
    41.9182     2680.00000
    41.9313     2616.00000
    41.9444     2714.00000
    41.9576     2667.00000
    41.9707     2637.00000
    41.9838     2534.00000
    41.9970     2600.00000
    42.0101     2686.00000
    42.0232     2646.00000
    42.0364     2720.00000
    42.0495     2647.00000
    42.0626     2633.00000
    42.0757     2613.00000
    42.0889     2738.00000
    42.1020     2681.00000
    42.1151     2652.00000
    42.1283     2712.00000
    42.1414     2704.00000
    42.1545     2669.00000
    42.1677     2696.00000
    42.1808     2670.00000
    42.1939     2606.00000
    42.2071     2695.00000
    42.2202     2692.00000
    42.2333     2688.00000
    42.2464     2617.00000
    42.2596     2596.00000
    42.2727     2732.00000
    42.2858     2733.00000
    42.2990     2723.00000
    42.3121     2675.00000
    42.3252     2594.00000
    42.3384     2625.00000
    42.3515     2680.00000
    42.3646     2666.00000
    42.3777     2695.00000
    42.3909     2764.00000
    42.4040     2669.00000
    42.4171     2659.00000
    42.4303     2723.00000
    42.4434     2621.00000
    42.4565     2634.00000
    42.4697     2691.00000
    42.4828     2629.00000
    42.4959     2635.00000
    42.5090     2677.00000
    42.5222     2674.00000
    42.5353     2680.00000
    42.5484     2623.00000
    42.5616     2604.00000
    42.5747     2706.00000
    42.5878     2627.00000
    42.6010     2649.00000
    42.6141     2623.00000
    42.6272     2588.00000
    42.6404     2706.00000
    42.6535     2694.00000
    42.6666     2700.00000
    42.6797     2666.00000
    42.6929     2629.00000
    42.7060     2683.00000
    42.7191     2634.00000
    42.7323     2741.00000
    42.7454     2721.00000
    42.7585     2621.00000
    42.7717     2704.00000
    42.7848     2617.00000
    42.7979     2703.00000
    42.8110     2736.00000
    42.8242     2691.00000
    42.8373     2730.00000
    42.8504     2699.00000
    42.8636     2726.00000
    42.8767     2733.00000
    42.8898     2714.00000
    42.9030     2732.00000
    42.9161     2805.00000
    42.9292     2779.00000
    42.9423     2683.00000
    42.9555     2614.00000
    42.9686     2636.00000
    42.9817     2743.00000
    42.9949     2784.00000
    43.0080     2606.00000
    43.0211     2674.00000
    43.0343     2754.00000
    43.0474     2792.00000
    43.0605     2641.00000
    43.0736     2582.00000
    43.0868     2597.00000
    43.0999     2629.00000
    43.1130     2677.00000
    43.1262     2664.00000
    43.1393     2563.00000
    43.1524     2587.00000
    43.1656     2752.00000
    43.1787     2636.00000
    43.1918     2679.00000
    43.2050     2636.00000
    43.2181     2677.00000
    43.2312     2714.00000
    43.2443     2754.00000
    43.2575     2555.00000
    43.2706     2675.00000
    43.2837     2660.00000
    43.2969     2657.00000
    43.3100     2691.00000
    43.3231     2792.00000
    43.3363     2734.00000
    43.3494     2661.00000
    43.3625     2654.00000
    43.3756     2842.00000
    43.3888     2830.00000
    43.4019     2915.00000
    43.4150     3093.00000
    43.4282     3232.00000
    43.4413     3431.00000
    43.4544     3582.00000
    43.4676     3527.00000
    43.4807     3229.00000
    43.4938     3136.00000
    43.5069     3084.00000
    43.5201     3002.00000
    43.5332     3049.00000
    43.5463     3066.00000
    43.5595     3095.00000
    43.5726     3033.00000
    43.5857     3055.00000
    43.5989     2926.00000
    43.6120     2801.00000
    43.6251     2708.00000
    43.6383     2834.00000
    43.6514     2683.00000
    43.6645     2745.00000
    43.6776     2617.00000
    43.6908     2616.00000
    43.7039     2587.00000
    43.7170     2652.00000
    43.7302     2618.00000
    43.7433     2634.00000
    43.7564     2747.00000
    43.7696     2639.00000
    43.7827     2586.00000
    43.7958     2680.00000
    43.8089     2683.00000
    43.8221     2742.00000
    43.8352     2641.00000
    43.8483     2700.00000
    43.8615     2580.00000
    43.8746     2490.00000
    43.8877     2629.00000
    43.9009     2668.00000
    43.9140     2703.00000
    43.9271     2608.00000
    43.9402     2575.00000
    43.9534     2521.00000
    43.9665     2631.00000
    43.9796     2615.00000
    43.9928     2610.00000
    44.0059     2655.00000
    44.0190     2625.00000
    44.0322     2682.00000
    44.0453     2692.00000
    44.0584     2630.00000
    44.0715     2627.00000
    44.0847     2702.00000
    44.0978     2704.00000
    44.1109     2801.00000
    44.1241     2787.00000
    44.1372     2823.00000
    44.1503     2901.00000
    44.1635     3009.00000
    44.1766     3218.00000
    44.1897     3250.00000
    44.2029     3407.00000
    44.2160     3576.00000
    44.2291     3782.00000
    44.2422     4113.00000
    44.2554     4009.00000
    44.2685     3655.00000
    44.2816     3364.00000
    44.2948     3286.00000
    44.3079     3144.00000
    44.3210     3170.00000
    44.3342     3165.00000
    44.3473     3398.00000
    44.3604     3346.00000
    44.3735     3215.00000
    44.3867     3063.00000
    44.3998     3037.00000
    44.4129     2862.00000
    44.4261     2878.00000
    44.4392     2754.00000
    44.4523     2751.00000
    44.4655     2914.00000
    44.4786     2793.00000
    44.4917     2980.00000
    44.5048     2950.00000
    44.5180     2947.00000
    44.5311     3086.00000
    44.5442     3296.00000
    44.5574     3650.00000
    44.5705     4041.00000
    44.5836     4462.00000
    44.5968     5100.00000
    44.6099     5628.00000
    44.6230     5717.00000
    44.6362     5679.00000
    44.6493     5244.00000
    44.6624     4747.00000
    44.6755     4296.00000
    44.6887     4010.00000
    44.7018     3963.00000
    44.7149     4256.00000
    44.7281     4290.00000
    44.7412     4218.00000
    44.7543     4099.00000
    44.7675     3828.00000
    44.7806     3525.00000
    44.7937     3202.00000
    44.8068     3098.00000
    44.8200     2918.00000
    44.8331     2814.00000
    44.8462     2825.00000
    44.8594     2770.00000
    44.8725     2752.00000
    44.8856     2718.00000
    44.8988     2699.00000
    44.9119     2696.00000
    44.9250     2690.00000
    44.9381     2703.00000
    44.9513     2690.00000
    44.9644     2619.00000
    44.9775     2684.00000
    44.9907     2614.00000
    45.0038     2660.00000
    45.0169     2560.00000
    45.0301     2552.00000
    45.0432     2731.00000
    45.0563     2598.00000
    45.0695     2552.00000
    45.0826     2675.00000
    45.0957     2616.00000
    45.1088     2571.00000
    45.1220     2749.00000
    45.1351     2546.00000
    45.1482     2612.00000
    45.1614     2737.00000
    45.1745     2563.00000
    45.1876     2628.00000
    45.2008     2576.00000
    45.2139     2688.00000
    45.2270     2583.00000
    45.2401     2695.00000
    45.2533     2685.00000
    45.2664     2654.00000
    45.2795     2654.00000
    45.2927     2641.00000
    45.3058     2634.00000
    45.3189     2677.00000
    45.3321     2546.00000
    45.3452     2604.00000
    45.3583     2566.00000
    45.3714     2732.00000
    45.3846     2676.00000
    45.3977     2682.00000
    45.4108     2717.00000
    45.4240     2778.00000
    45.4371     2851.00000
    45.4502     2779.00000
    45.4634     2730.00000
    45.4765     2789.00000
    45.4896     2781.00000
    45.5028     2836.00000
    45.5159     2861.00000
    45.5290     2858.00000
    45.5421     2846.00000
    45.5553     2938.00000
    45.5684     3024.00000
    45.5815     3009.00000
    45.5947     3014.00000
    45.6078     3291.00000
    45.6209     3476.00000
    45.6341     3876.00000
    45.6472     4706.00000
    45.6603     5783.00000
    45.6734     8243.00000
    45.6866    10612.00000
    45.6997    11894.00000
    45.7128    11790.00000
    45.7260     9807.00000
    45.7391     7537.00000
    45.7522     5900.00000
    45.7654     5093.00000
    45.7785     5076.00000
    45.7916     5764.00000
    45.8047     6781.00000
    45.8179     7424.00000
    45.8310     7227.00000
    45.8441     6484.00000
    45.8573     5236.00000
    45.8704     4349.00000
    45.8835     3810.00000
    45.8967     3335.00000
    45.9098     3121.00000
    45.9229     3049.00000
    45.9361     2818.00000
    45.9492     2841.00000
    45.9623     2760.00000
    45.9754     2734.00000
    45.9886     2755.00000
    46.0017     2770.00000
    46.0148     2741.00000
    46.0280     2721.00000
    46.0411     2780.00000
    46.0542     2649.00000
    46.0674     2715.00000
    46.0805     2683.00000
    46.0936     2709.00000
    46.1067     2709.00000
    46.1199     2764.00000
    46.1330     2866.00000
    46.1461     2787.00000
    46.1593     2758.00000
    46.1724     2766.00000
    46.1855     2831.00000
    46.1987     2831.00000
    46.2118     2782.00000
    46.2249     2795.00000
    46.2380     2934.00000
    46.2512     3040.00000
    46.2643     3147.00000
    46.2774     3416.00000
    46.2906     3939.00000
    46.3037     4604.00000
    46.3168     5889.00000
    46.3300     7246.00000
    46.3431     7492.00000
    46.3562     7125.00000
    46.3694     5865.00000
    46.3825     4848.00000
    46.3956     4239.00000
    46.4087     3894.00000
    46.4219     4026.00000
    46.4350     4293.00000
    46.4481     4852.00000
    46.4613     5142.00000
    46.4744     5117.00000
    46.4875     4690.00000
    46.5007     4071.00000
    46.5138     3517.00000
    46.5269     3194.00000
    46.5400     3106.00000
    46.5532     2939.00000
    46.5663     2954.00000
    46.5794     2898.00000
    46.5926     2726.00000
    46.6057     2792.00000
    46.6188     2802.00000
    46.6320     2779.00000
    46.6451     2775.00000
    46.6582     2753.00000
    46.6713     2699.00000
    46.6845     2747.00000
    46.6976     2728.00000
    46.7107     2645.00000
    46.7239     2694.00000
    46.7370     2760.00000
    46.7501     2737.00000
    46.7633     2777.00000
    46.7764     2665.00000
    46.7895     2726.00000
    46.8027     2745.00000
    46.8158     2774.00000
    46.8289     2816.00000
    46.8420     2695.00000
    46.8552     2674.00000
    46.8683     2723.00000
    46.8814     2782.00000
    46.8946     2698.00000
    46.9077     2813.00000
    46.9208     2800.00000
    46.9340     2699.00000
    46.9471     2834.00000
    46.9602     2832.00000
    46.9733     2962.00000
    46.9865     2854.00000
    46.9996     2841.00000
    47.0127     2903.00000
    47.0259     2890.00000
    47.0390     3065.00000
    47.0521     2942.00000
    47.0653     3156.00000
    47.0784     3207.00000
    47.0915     3255.00000
    47.1046     3518.00000
    47.1178     3814.00000
    47.1309     4389.00000
    47.1440     5012.00000
    47.1572     5995.00000
    47.1703     6858.00000
    47.1834     7941.00000
    47.1966     8422.00000
    47.2097     8891.00000
    47.2228     8472.00000
    47.2359     7414.00000
    47.2491     6126.00000
    47.2622     5363.00000
    47.2753     5113.00000
    47.2885     5202.00000
    47.3016     5429.00000
    47.3147     5767.00000
    47.3279     5988.00000
    47.3410     5897.00000
    47.3541     5419.00000
    47.3673     4619.00000
    47.3804     4014.00000
    47.3935     3579.00000
    47.4066     3348.00000
    47.4198     3223.00000
    47.4329     3256.00000
    47.4460     3009.00000
    47.4592     3075.00000
    47.4723     2891.00000
    47.4854     2918.00000
    47.4986     2968.00000
    47.5117     2985.00000
    47.5248     3045.00000
    47.5379     3023.00000
    47.5511     3145.00000
    47.5642     3104.00000
    47.5773     3145.00000
    47.5905     3133.00000
    47.6036     3197.00000
    47.6167     3364.00000
    47.6299     3364.00000
    47.6430     3355.00000
    47.6561     3522.00000
    47.6692     3624.00000
    47.6824     3588.00000
    47.6955     3747.00000
    47.7086     3876.00000
    47.7218     3877.00000
    47.7349     4348.00000
    47.7480     4794.00000
    47.7612     5237.00000
    47.7743     5914.00000
    47.7874     7113.00000
    47.8005     8974.00000
    47.8137    11518.00000
    47.8268    14627.00000
    47.8399    18097.00000
    47.8531    19924.00000
    47.8662    19922.00000
    47.8793    17778.00000
    47.8925    14637.00000
    47.9056    12100.00000
    47.9187    10686.00000
    47.9319     9651.00000
    47.9450     9901.00000
    47.9581    10949.00000
    47.9712    12083.00000
    47.9844    12241.00000
    47.9975    11595.00000
    48.0106     9935.00000
    48.0238     8272.00000
    48.0369     6749.00000
    48.0500     5625.00000
    48.0632     4907.00000
    48.0763     4347.00000
    48.0894     4111.00000
    48.1025     3706.00000
    48.1157     3646.00000
    48.1288     3574.00000
    48.1419     3395.00000
    48.1551     3355.00000
    48.1682     3306.00000
    48.1813     3234.00000
    48.1945     3311.00000
    48.2076     3275.00000
    48.2207     3252.00000
    48.2338     3269.00000
    48.2470     3224.00000
    48.2601     3351.00000
    48.2732     3342.00000
    48.2864     3425.00000
    48.2995     3490.00000
    48.3126     3641.00000
    48.3258     3952.00000
    48.3389     4324.00000
    48.3520     5127.00000
    48.3652     6255.00000
    48.3783     8164.00000
    48.3914    10032.00000
    48.4045    12173.00000
    48.4177    12667.00000
    48.4308    12813.00000
    48.4439    12931.00000
    48.4571    12775.00000
    48.4702    12743.00000
    48.4833    11800.00000
    48.4965    10931.00000
    48.5096    10381.00000
    48.5227     9931.00000
    48.5358     9286.00000
    48.5490     8880.00000
    48.5621     8420.00000
    48.5752     8309.00000
    48.5884     8162.00000
    48.6015     7756.00000
    48.6146     7123.00000
    48.6278     6266.00000
    48.6409     5620.00000
    48.6540     4935.00000
    48.6671     4390.00000
    48.6803     3959.00000
    48.6934     3832.00000
    48.7065     3990.00000
    48.7197     4195.00000
    48.7328     4483.00000
    48.7459     5033.00000
    48.7591     6354.00000
    48.7722     8061.00000
    48.7853    10269.00000
    48.7985    12194.00000
    48.8116    13385.00000
    48.8247    12813.00000
    48.8378    11146.00000
    48.8510     8816.00000
    48.8641     7281.00000
    48.8772     6321.00000
    48.8904     6137.00000
    48.9035     6338.00000
    48.9166     7218.00000
    48.9298     8031.00000
    48.9429     8262.00000
    48.9560     7807.00000
    48.9691     6723.00000
    48.9823     5725.00000
    48.9954     4706.00000
    49.0085     4116.00000
    49.0217     3823.00000
    49.0348     3488.00000
    49.0479     3226.00000
    49.0611     3171.00000
    49.0742     3095.00000
    49.0873     2999.00000
    49.1004     3061.00000
    49.1136     3026.00000
    49.1267     2948.00000
    49.1398     3040.00000
    49.1530     2850.00000
    49.1661     2973.00000
    49.1792     2836.00000
    49.1924     2879.00000
    49.2055     2883.00000
    49.2186     2877.00000
    49.2318     2799.00000
    49.2449     2842.00000
    49.2580     2904.00000
    49.2711     2774.00000
    49.2843     2827.00000
    49.2974     2862.00000
    49.3105     2852.00000
    49.3237     2745.00000
    49.3368     2771.00000
    49.3499     2788.00000
    49.3631     2993.00000
    49.3762     3043.00000
    49.3893     3185.00000
    49.4024     3427.00000
    49.4156     3407.00000
    49.4287     3510.00000
    49.4418     3430.00000
    49.4550     3296.00000
    49.4681     3234.00000
    49.4812     3105.00000
    49.4944     3193.00000
    49.5075     3207.00000
    49.5206     3303.00000
    49.5337     3239.00000
    49.5469     3358.00000
    49.5600     3322.00000
    49.5731     3206.00000
    49.5863     3247.00000
    49.5994     3345.00000
    49.6125     3293.00000
    49.6257     3314.00000
    49.6388     3350.00000
    49.6519     3287.00000
    49.6651     3136.00000
    49.6782     3217.00000
    49.6913     3131.00000
    49.7044     3202.00000
    49.7176     3159.00000
    49.7307     3238.00000
    49.7438     3141.00000
    49.7570     3233.00000
    49.7701     3333.00000
    49.7832     3329.00000
    49.7964     3343.00000
    49.8095     3440.00000
    49.8226     3388.00000
    49.8357     3409.00000
    49.8489     3448.00000
    49.8620     3628.00000
    49.8751     3573.00000
    49.8883     3779.00000
    49.9014     3989.00000
    49.9145     4233.00000
    49.9277     4781.00000
    49.9408     5466.00000
    49.9539     6731.00000
    49.9670     8556.00000
    49.9802    11317.00000
    49.9933    14738.00000
    50.0064    17840.00000
    50.0196    19302.00000
    50.0327    18314.00000
    50.0458    16225.00000
    50.0590    13384.00000
    50.0721    11283.00000
    50.0852     9798.00000
    50.0984     9627.00000
    50.1115    10434.00000
    50.1246    11633.00000
    50.1377    12940.00000
    50.1509    12901.00000
    50.1640    11996.00000
    50.1771    10503.00000
    50.1903     8813.00000
    50.2034     7388.00000
    50.2165     6228.00000
    50.2297     5503.00000
    50.2428     5002.00000
    50.2559     4810.00000
    50.2690     4484.00000
    50.2822     4249.00000
    50.2953     3997.00000
    50.3084     3802.00000
    50.3216     3692.00000
    50.3347     3540.00000
    50.3478     3345.00000
    50.3610     3348.00000
    50.3741     3301.00000
    50.3872     3327.00000
    50.4003     3404.00000
    50.4135     3206.00000
    50.4266     3335.00000
    50.4397     3379.00000
    50.4529     3507.00000
    50.4660     3592.00000
    50.4791     3743.00000
    50.4923     3972.00000
    50.5054     4259.00000
    50.5185     4797.00000
    50.5317     5680.00000
    50.5448     6577.00000
    50.5579     7788.00000
    50.5710     9242.00000
    50.5842    10281.00000
    50.5973    11194.00000
    50.6104    11402.00000
    50.6236    10368.00000
    50.6367     8851.00000
    50.6498     7404.00000
    50.6630     6631.00000
    50.6761     6359.00000
    50.6892     6295.00000
    50.7023     6559.00000
    50.7155     6959.00000
    50.7286     7226.00000
    50.7417     7275.00000
    50.7549     6795.00000
    50.7680     5888.00000
    50.7811     5097.00000
    50.7943     4411.00000
    50.8074     4109.00000
    50.8205     3687.00000
    50.8336     3505.00000
    50.8468     3287.00000
    50.8599     3190.00000
    50.8730     3013.00000
    50.8862     2925.00000
    50.8993     3055.00000
    50.9124     2963.00000
    50.9256     2829.00000
    50.9387     2808.00000
    50.9518     2908.00000
    50.9649     2840.00000
    50.9781     2787.00000
    50.9912     2759.00000
    51.0043     2802.00000
    51.0175     2888.00000
    51.0306     2798.00000
    51.0437     2785.00000
    51.0569     2717.00000
    51.0700     2770.00000
    51.0831     2765.00000
    51.0963     2670.00000
    51.1094     2776.00000
    51.1225     2735.00000
    51.1356     2708.00000
    51.1488     2689.00000
    51.1619     2804.00000
    51.1750     2709.00000
    51.1882     2778.00000
    51.2013     2844.00000
    51.2144     2870.00000
    51.2276     2815.00000
    51.2407     2929.00000
    51.2538     2846.00000
    51.2669     2928.00000
    51.2801     2960.00000
    51.2932     3035.00000
    51.3063     2894.00000
    51.3195     2928.00000
    51.3326     2849.00000
    51.3457     3063.00000
    51.3589     3058.00000
    51.3720     3134.00000
    51.3851     3280.00000
    51.3982     3449.00000
    51.4114     3785.00000
    51.4245     4036.00000
    51.4376     4595.00000
    51.4508     5540.00000
    51.4639     6688.00000
    51.4770     8265.00000
    51.4902     9170.00000
    51.5033     8867.00000
    51.5164     7978.00000
    51.5296     6501.00000
    51.5427     5242.00000
    51.5558     4594.00000
    51.5689     4277.00000
    51.5821     4546.00000
    51.5952     4810.00000
    51.6083     5505.00000
    51.6215     6072.00000
    51.6346     6126.00000
    51.6477     5678.00000
    51.6609     5112.00000
    51.6740     4431.00000
    51.6871     4079.00000
    51.7002     3979.00000
    51.7134     3753.00000
    51.7265     3821.00000
    51.7396     3689.00000
    51.7528     3632.00000
    51.7659     3307.00000
    51.7790     3045.00000
    51.7922     2927.00000
    51.8053     3004.00000
    51.8184     3063.00000
    51.8315     3079.00000
    51.8447     3126.00000
    51.8578     3193.00000
    51.8709     3139.00000
    51.8841     3108.00000
    51.8972     2992.00000
    51.9103     2983.00000
    51.9235     2941.00000
    51.9366     2763.00000
    51.9497     2799.00000
    51.9628     2753.00000
    51.9760     2821.00000
    51.9891     2843.00000
    52.0022     2871.00000
    52.0154     2768.00000
    52.0285     2714.00000
    52.0416     2683.00000
    52.0548     2790.00000
    52.0679     2775.00000
    52.0810     2761.00000
    52.0942     2697.00000
    52.1073     2697.00000
    52.1204     2658.00000
    52.1335     2720.00000
    52.1467     2705.00000
    52.1598     2704.00000
    52.1729     2799.00000
    52.1861     2655.00000
    52.1992     2676.00000
    52.2123     2777.00000
    52.2255     2672.00000
    52.2386     2673.00000
    52.2517     2852.00000
    52.2648     2806.00000
    52.2780     2823.00000
    52.2911     2828.00000
    52.3042     2942.00000
    52.3174     2872.00000
    52.3305     2916.00000
    52.3436     2835.00000
    52.3568     2939.00000
    52.3699     2994.00000
    52.3830     2860.00000
    52.3961     3071.00000
    52.4093     3107.00000
    52.4224     3044.00000
    52.4355     3237.00000
    52.4487     3282.00000
    52.4618     3503.00000
    52.4749     3764.00000
    52.4881     4189.00000
    52.5012     5035.00000
    52.5143     6036.00000
    52.5275     7335.00000
    52.5406     8747.00000
    52.5537     9744.00000
    52.5668    10273.00000
    52.5800    10849.00000
    52.5931    10504.00000
    52.6062     9829.00000
    52.6194     8835.00000
    52.6325     7330.00000
    52.6456     6137.00000
    52.6588     5989.00000
    52.6719     5917.00000
    52.6850     6220.00000
    52.6981     6640.00000
    52.7113     6839.00000
    52.7244     6906.00000
    52.7375     6657.00000
    52.7507     6274.00000
    52.7638     5249.00000
    52.7769     4661.00000
    52.7901     3964.00000
    52.8032     3497.00000
    52.8163     3298.00000
    52.8294     3229.00000
    52.8426     3058.00000
    52.8557     3069.00000
    52.8688     3048.00000
    52.8820     3078.00000
    52.8951     3206.00000
    52.9082     3263.00000
    52.9214     3434.00000
    52.9345     3638.00000
    52.9476     4025.00000
    52.9608     4315.00000
    52.9739     4821.00000
    52.9870     5418.00000
    53.0001     5531.00000
    53.0133     5625.00000
    53.0264     5697.00000
    53.0395     5777.00000
    53.0527     5637.00000
    53.0658     5366.00000
    53.0789     5081.00000
    53.0921     4621.00000
    53.1052     4311.00000
    53.1183     4253.00000
    53.1314     4147.00000
    53.1446     4186.00000
    53.1577     4361.00000
    53.1708     4275.00000
    53.1840     4062.00000
    53.1971     4106.00000
    53.2102     3836.00000
    53.2234     3604.00000
    53.2365     3206.00000
    53.2496     3109.00000
    53.2627     2928.00000
    53.2759     2898.00000
    53.2890     2857.00000
    53.3021     2839.00000
    53.3153     2776.00000
    53.3284     2698.00000
    53.3415     2689.00000
    53.3547     2690.00000
    53.3678     2679.00000
    53.3809     2648.00000
    53.3941     2707.00000
    53.4072     2674.00000
    53.4203     2684.00000
    53.4334     2761.00000
    53.4466     2841.00000
    53.4597     2802.00000
    53.4728     3049.00000
    53.4860     3058.00000
    53.4991     3314.00000
    53.5122     3592.00000
    53.5254     3781.00000
    53.5385     4087.00000
    53.5516     4435.00000
    53.5647     4407.00000
    53.5779     4223.00000
    53.5910     3871.00000
    53.6041     3666.00000
    53.6173     3489.00000
    53.6304     3207.00000
    53.6435     3240.00000
    53.6567     3358.00000
    53.6698     3391.00000
    53.6829     3613.00000
    53.6960     3676.00000
    53.7092     3710.00000
    53.7223     3593.00000
    53.7354     3343.00000
    53.7486     3159.00000
    53.7617     3009.00000
    53.7748     2876.00000
    53.7880     2858.00000
    53.8011     2700.00000
    53.8142     2740.00000
    53.8274     2756.00000
    53.8405     2719.00000
    53.8536     2768.00000
    53.8667     2733.00000
    53.8799     2834.00000
    53.8930     2680.00000
    53.9061     2599.00000
    53.9193     2682.00000
    53.9324     2614.00000
    53.9455     2766.00000
    53.9587     2546.00000
    53.9718     2636.00000
    53.9849     2673.00000
    53.9980     2538.00000
    54.0112     2707.00000
    54.0243     2691.00000
    54.0374     2639.00000
    54.0506     2646.00000
    54.0637     2572.00000
    54.0768     2663.00000
    54.0900     2693.00000
    54.1031     2644.00000
    54.1162     2587.00000
    54.1293     2589.00000
    54.1425     2631.00000
    54.1556     2619.00000
    54.1687     2550.00000
    54.1819     2586.00000
    54.1950     2541.00000
    54.2081     2611.00000
    54.2213     2616.00000
    54.2344     2552.00000
    54.2475     2566.00000
    54.2607     2701.00000
    54.2738     2763.00000
    54.2869     2587.00000
    54.3000     2704.00000
    54.3132     2659.00000
    54.3263     2753.00000
    54.3394     2727.00000
    54.3526     2780.00000
    54.3657     2888.00000
    54.3788     2990.00000
    54.3920     2908.00000
    54.4051     2895.00000
    54.4182     3126.00000
    54.4313     2999.00000
    54.4445     2979.00000
    54.4576     2993.00000
    54.4707     2983.00000
    54.4839     2956.00000
    54.4970     2931.00000
    54.5101     2881.00000
    54.5233     2780.00000
    54.5364     2803.00000
    54.5495     2750.00000
    54.5626     2802.00000
    54.5758     2712.00000
    54.5889     2769.00000
    54.6020     2769.00000
    54.6152     2639.00000
    54.6283     2756.00000
    54.6414     2787.00000
    54.6546     2746.00000
    54.6677     2701.00000
    54.6808     2584.00000
    54.6940     2580.00000
    54.7071     2644.00000
    54.7202     2600.00000
    54.7333     2710.00000
    54.7465     2718.00000
    54.7596     2632.00000
    54.7727     2606.00000
    54.7859     2708.00000
    54.7990     2576.00000
    54.8121     2564.00000
    54.8253     2642.00000
    54.8384     2580.00000
    54.8515     2605.00000
    54.8646     2566.00000
    54.8778     2574.00000
    54.8909     2596.00000
    54.9040     2596.00000
    54.9172     2510.00000
    54.9303     2694.00000
    54.9434     2517.00000
    54.9566     2610.00000
    54.9697     2511.00000
    54.9828     2617.00000
    54.9959     2557.00000
    55.0091     2590.00000
    55.0222     2615.00000
    55.0353     2501.00000
    55.0485     2690.00000
    55.0616     2647.00000
    55.0747     2584.00000
    55.0879     2660.00000
    55.1010     2653.00000
    55.1141     2692.00000
    55.1272     2648.00000
    55.1404     2692.00000
    55.1535     2640.00000
    55.1666     2697.00000
    55.1798     2640.00000
    55.1929     2717.00000
    55.2060     2739.00000
    55.2192     2773.00000
    55.2323     2706.00000
    55.2454     2749.00000
    55.2586     2748.00000
    55.2717     2817.00000
    55.2848     2818.00000
    55.2979     3009.00000
    55.3111     3000.00000
    55.3242     2916.00000
    55.3373     2965.00000
    55.3505     3058.00000
    55.3636     3074.00000
    55.3767     3197.00000
    55.3899     3357.00000
    55.4030     3397.00000
    55.4161     3517.00000
    55.4292     3959.00000
    55.4424     4274.00000
    55.4555     4928.00000
    55.4686     5638.00000
    55.4818     7018.00000
    55.4949     8511.00000
    55.5080    10214.00000
    55.5212    11529.00000
    55.5343    11684.00000
    55.5474    10730.00000
    55.5605     9293.00000
    55.5737     7839.00000
    55.5868     6568.00000
    55.5999     5872.00000
    55.6131     5627.00000
    55.6262     5756.00000
    55.6393     6319.00000
    55.6525     6799.00000
    55.6656     7485.00000
    55.6787     7608.00000
    55.6918     7531.00000
    55.7050     6660.00000
    55.7181     5858.00000
    55.7312     5007.00000
    55.7444     4382.00000
    55.7575     3858.00000
    55.7706     3775.00000
    55.7838     3535.00000
    55.7969     3573.00000
    55.8100     3431.00000
    55.8232     3512.00000
    55.8363     3582.00000
    55.8494     3690.00000
    55.8625     3638.00000
    55.8757     3569.00000
    55.8888     3450.00000
    55.9019     3191.00000
    55.9151     2984.00000
    55.9282     2929.00000
    55.9413     2945.00000
    55.9545     2929.00000
    55.9676     2995.00000
    55.9807     2958.00000
    55.9938     3129.00000
    56.0070     3088.00000
    56.0201     3159.00000
    56.0332     3207.00000
    56.0464     3150.00000
    56.0595     2980.00000
    56.0726     3052.00000
    56.0858     2866.00000
    56.0989     2970.00000
    56.1120     2908.00000
    56.1251     2871.00000
    56.1383     2957.00000
    56.1514     2927.00000
    56.1645     3125.00000
    56.1777     3176.00000
    56.1908     3125.00000
    56.2039     3232.00000
    56.2171     3337.00000
    56.2302     3542.00000
    56.2433     3823.00000
    56.2565     4110.00000
    56.2696     4696.00000
    56.2827     5784.00000
    56.2958     7268.00000
    56.3090     8775.00000
    56.3221    10105.00000
    56.3352    11113.00000
    56.3484    11892.00000
    56.3615    11644.00000
    56.3746    11326.00000
    56.3878    10182.00000
    56.4009     9388.00000
    56.4140     8669.00000
    56.4271     8184.00000
    56.4403     7667.00000
    56.4534     7652.00000
    56.4665     7907.00000
    56.4797     8521.00000
    56.4928     9203.00000
    56.5059     9543.00000
    56.5191     9438.00000
    56.5322     8813.00000
    56.5453     8012.00000
    56.5584     7072.00000
    56.5716     6192.00000
    56.5847     5594.00000
    56.5978     4863.00000
    56.6110     4394.00000
    56.6241     4159.00000
    56.6372     4085.00000
    56.6504     4013.00000
    56.6635     4006.00000
    56.6766     4125.00000
    56.6898     4021.00000
    56.7029     3728.00000
    56.7160     3424.00000
    56.7291     3328.00000
    56.7423     3233.00000
    56.7554     3129.00000
    56.7685     3082.00000
    56.7817     3090.00000
    56.7948     2980.00000
    56.8079     2849.00000
    56.8211     2832.00000
    56.8342     2830.00000
    56.8473     2755.00000
    56.8604     2870.00000
    56.8736     2953.00000
    56.8867     2840.00000
    56.8998     2974.00000
    56.9130     2990.00000
    56.9261     3052.00000
    56.9392     3161.00000
    56.9524     3036.00000
    56.9655     3078.00000
    56.9786     3045.00000
    56.9917     3166.00000
    57.0049     3101.00000
    57.0180     3228.00000
    57.0311     3367.00000
    57.0443     3430.00000
    57.0574     3683.00000
    57.0705     3925.00000
    57.0837     4272.00000
    57.0968     4876.00000
    57.1099     5602.00000
    57.1231     6461.00000
    57.1362     7291.00000
    57.1493     7929.00000
    57.1624     8592.00000
    57.1756     9266.00000
    57.1887     9494.00000
    57.2018     9894.00000
    57.2150    10116.00000
    57.2281     9859.00000
    57.2412     9636.00000
    57.2544     8862.00000
    57.2675     8008.00000
    57.2806     7451.00000
    57.2937     6949.00000
    57.3069     7070.00000
    57.3200     7353.00000
    57.3331     7873.00000
    57.3463     8363.00000
    57.3594     8889.00000
    57.3725     9464.00000
    57.3857     9698.00000
    57.3988     9395.00000
    57.4119     8594.00000
    57.4250     7179.00000
    57.4382     6067.00000
    57.4513     5225.00000
    57.4644     4702.00000
    57.4776     4380.00000
    57.4907     4343.00000
    57.5038     4400.00000
    57.5170     4638.00000
    57.5301     4720.00000
    57.5432     4920.00000
    57.5564     4810.00000
    57.5695     4643.00000
    57.5826     4150.00000
    57.5957     3850.00000
    57.6089     3590.00000
    57.6220     3387.00000
    57.6351     3238.00000
    57.6483     3224.00000
    57.6614     3145.00000
    57.6745     3246.00000
    57.6877     2985.00000
    57.7008     2993.00000
    57.7139     3108.00000
    57.7270     3016.00000
    57.7402     3112.00000
    57.7533     3053.00000
    57.7664     3056.00000
    57.7796     3081.00000
    57.7927     3211.00000
    57.8058     3255.00000
    57.8190     3333.00000
    57.8321     3602.00000
    57.8452     3803.00000
    57.8583     4007.00000
    57.8715     4500.00000
    57.8846     5233.00000
    57.8977     6213.00000
    57.9109     7424.00000
    57.9240     8559.00000
    57.9371     8651.00000
    57.9503     8229.00000
    57.9634     7145.00000
    57.9765     6002.00000
    57.9897     5332.00000
    58.0028     4838.00000
    58.0159     4525.00000
    58.0290     4715.00000
    58.0422     4788.00000
    58.0553     5430.00000
    58.0684     6075.00000
    58.0816     6576.00000
    58.0947     6772.00000
    58.1078     6453.00000
    58.1210     5824.00000
    58.1341     5028.00000
    58.1472     4495.00000
    58.1603     4156.00000
    58.1735     4026.00000
    58.1866     3973.00000
    58.1997     3975.00000
    58.2129     3921.00000
    58.2260     4033.00000
    58.2391     3877.00000
    58.2523     3689.00000
    58.2654     3510.00000
    58.2785     3329.00000
    58.2916     3328.00000
    58.3048     3211.00000
    58.3179     3169.00000
    58.3310     3176.00000
    58.3442     3296.00000
    58.3573     3214.00000
    58.3704     3295.00000
    58.3836     3184.00000
    58.3967     3152.00000
    58.4098     3218.00000
    58.4230     3024.00000
    58.4361     3002.00000
    58.4492     2946.00000
    58.4623     3034.00000
    58.4755     3070.00000
    58.4886     3099.00000
    58.5017     3137.00000
    58.5149     3321.00000
    58.5280     3388.00000
    58.5411     3453.00000
    58.5543     3587.00000
    58.5674     3986.00000
    58.5805     4296.00000
    58.5936     4766.00000
    58.6068     5285.00000
    58.6199     5943.00000
    58.6330     6592.00000
    58.6462     7438.00000
    58.6593     8011.00000
    58.6724     8353.00000
    58.6856     8199.00000
    58.6987     7711.00000
    58.7118     7267.00000
    58.7249     6236.00000
    58.7381     5789.00000
    58.7512     5557.00000
    58.7643     5534.00000
    58.7775     5849.00000
    58.7906     6377.00000
    58.8037     7180.00000
    58.8169     8193.00000
    58.8300     9212.00000
    58.8431    10664.00000
    58.8562    11262.00000
    58.8694    11126.00000
    58.8825    10282.00000
    58.8956     8816.00000
    58.9088     7116.00000
    58.9219     5908.00000
    58.9350     5134.00000
    58.9482     4873.00000
    58.9613     4798.00000
    58.9744     4897.00000
    58.9876     5344.00000
    59.0007     5742.00000
    59.0138     6339.00000
    59.0269     6653.00000
    59.0401     6494.00000
    59.0532     6192.00000
    59.0663     5784.00000
    59.0795     5290.00000
    59.0926     5305.00000
    59.1057     5420.00000
    59.1189     5972.00000
    59.1320     6782.00000
    59.1451     7787.00000
    59.1582     8850.00000
    59.1714     9323.00000
    59.1845     9717.00000
    59.1976     8963.00000
    59.2108     7993.00000
    59.2239     6919.00000
    59.2370     5785.00000
    59.2502     5249.00000
    59.2633     5000.00000
    59.2764     4888.00000
    59.2895     4962.00000
    59.3027     5321.00000
    59.3158     5775.00000
    59.3289     6133.00000
    59.3421     6388.00000
    59.3552     6186.00000
    59.3683     5638.00000
    59.3815     5030.00000
    59.3946     4497.00000
    59.4077     4083.00000
    59.4208     3592.00000
    59.4340     3290.00000
    59.4471     3308.00000
    59.4602     3128.00000
    59.4734     3123.00000
    59.4865     3160.00000
    59.4996     3171.00000
    59.5128     3067.00000
    59.5259     3111.00000
    59.5390     3108.00000
    59.5522     3111.00000
    59.5653     3209.00000
    59.5784     3162.00000
    59.5915     3195.00000
    59.6047     3353.00000
    59.6178     3358.00000
    59.6309     3566.00000
    59.6441     3953.00000
    59.6572     4410.00000
    59.6703     5029.00000
    59.6835     5573.00000
    59.6966     6393.00000
    59.7097     7223.00000
    59.7228     8036.00000
    59.7360     8627.00000
    59.7491     9363.00000
    59.7622     9150.00000
    59.7754     9462.00000
    59.7885     9219.00000
    59.8016     8605.00000
    59.8148     7998.00000
    59.8279     7687.00000
    59.8410     7601.00000
    59.8541     7702.00000
    59.8673     8217.00000
    59.8804     9235.00000
    59.8935    10774.00000
    59.9067    12917.00000
    59.9198    14044.00000
    59.9329    13935.00000
    59.9461    12945.00000
    59.9592    11300.00000
    59.9723     9425.00000
    59.9855     7741.00000
    59.9986     6529.00000
    60.0117     5678.00000
    60.0248     5555.00000
    60.0380     5501.00000
    60.0511     5753.00000
    60.0642     6238.00000
    60.0774     6790.00000
    60.0905     6998.00000
    60.1036     6839.00000
    60.1168     6299.00000
    60.1299     5091.00000
    60.1430     4607.00000
    60.1561     4034.00000
    60.1693     3700.00000
    60.1824     3390.00000
    60.1955     3306.00000
    60.2087     3138.00000
    60.2218     3118.00000
    60.2349     3006.00000
    60.2481     2860.00000
    60.2612     2971.00000
    60.2743     2978.00000
    60.2874     2829.00000
    60.3006     2851.00000
    60.3137     2740.00000
    60.3268     2857.00000
    60.3400     2863.00000
    60.3531     2795.00000
    60.3662     2893.00000
    60.3794     2814.00000
    60.3925     2844.00000
    60.4056     2820.00000
    60.4188     2892.00000
    60.4319     2798.00000
    60.4450     2867.00000
    60.4581     2855.00000
    60.4713     2858.00000
    60.4844     2859.00000
    60.4975     2977.00000
    60.5107     2890.00000
    60.5238     2967.00000
    60.5369     2992.00000
    60.5501     3091.00000
    60.5632     3117.00000
    60.5763     3158.00000
    60.5894     3160.00000
    60.6026     3269.00000
    60.6157     3361.00000
    60.6288     3476.00000
    60.6420     3579.00000
    60.6551     4066.00000
    60.6682     4377.00000
    60.6814     4985.00000
    60.6945     5811.00000
    60.7076     6821.00000
    60.7207     8301.00000
    60.7339     9329.00000
    60.7470    10354.00000
    60.7601    10391.00000
    60.7733     9881.00000
    60.7864     9391.00000
    60.7995     8937.00000
    60.8127     8832.00000
    60.8258     9256.00000
    60.8389     9510.00000
    60.8521     9950.00000
    60.8652     9767.00000
    60.8783     9818.00000
    60.8914     9617.00000
    60.9046     8980.00000
    60.9177     8622.00000
    60.9308     8055.00000
    60.9440     7510.00000
    60.9571     7147.00000
    60.9702     7019.00000
    60.9834     7401.00000
    60.9965     7313.00000
    61.0096     7807.00000
    61.0227     7415.00000
    61.0359     7339.00000
    61.0490     6858.00000
    61.0621     6521.00000
    61.0753     6038.00000
    61.0884     5488.00000
    61.1015     5250.00000
    61.1147     5079.00000
    61.1278     4909.00000
    61.1409     4969.00000
    61.1540     5256.00000
    61.1672     5331.00000
    61.1803     5679.00000
    61.1934     5726.00000
    61.2066     5832.00000
    61.2197     5700.00000
    61.2328     5431.00000
    61.2460     5201.00000
    61.2591     4772.00000
    61.2722     4408.00000
    61.2854     3908.00000
    61.2985     3766.00000
    61.3116     3694.00000
    61.3247     3676.00000
    61.3379     3646.00000
    61.3510     3776.00000
    61.3641     3770.00000
    61.3773     3738.00000
    61.3904     3755.00000
    61.4035     3769.00000
    61.4167     3452.00000
    61.4298     3238.00000
    61.4429     3063.00000
    61.4560     2925.00000
    61.4692     2804.00000
    61.4823     2655.00000
    61.4954     2836.00000
    61.5086     2679.00000
    61.5217     2634.00000
    61.5348     2656.00000
    61.5480     2597.00000
    61.5611     2573.00000
    61.5742     2650.00000
    61.5873     2662.00000
    61.6005     2532.00000
    61.6136     2514.00000
    61.6267     2554.00000
    61.6399     2532.00000
    61.6530     2645.00000
    61.6661     2587.00000
    61.6793     2581.00000
    61.6924     2447.00000
    61.7055     2583.00000
    61.7187     2500.00000
    61.7318     2505.00000
    61.7449     2598.00000
    61.7580     2471.00000
    61.7712     2544.00000
    61.7843     2541.00000
    61.7974     2488.00000
    61.8106     2489.00000
    61.8237     2565.00000
    61.8368     2491.00000
    61.8500     2522.00000
    61.8631     2458.00000
    61.8762     2561.00000
    61.8893     2518.00000
    61.9025     2486.00000
    61.9156     2514.00000
    61.9287     2470.00000
    61.9419     2521.00000
    61.9550     2449.00000
    61.9681     2506.00000
    61.9813     2479.00000
    61.9944     2561.00000
    62.0075     2503.00000
    62.0206     2472.00000
    62.0338     2520.00000
    62.0469     2546.00000
    62.0600     2510.00000
    62.0732     2419.00000
    62.0863     2534.00000
    62.0994     2512.00000
    62.1126     2503.00000
    62.1257     2546.00000
    62.1388     2530.00000
    62.1520     2461.00000
    62.1651     2488.00000
    62.1782     2495.00000
    62.1913     2438.00000
    62.2045     2526.00000
    62.2176     2496.00000
    62.2307     2437.00000
    62.2439     2344.00000
    62.2570     2472.00000
    62.2701     2418.00000
    62.2833     2465.00000
    62.2964     2425.00000
    62.3095     2501.00000
    62.3226     2540.00000
    62.3358     2475.00000
    62.3489     2555.00000
    62.3620     2436.00000
    62.3752     2584.00000
    62.3883     2535.00000
    62.4014     2614.00000
    62.4146     2630.00000
    62.4277     2589.00000
    62.4408     2647.00000
    62.4539     2504.00000
    62.4671     2469.00000
    62.4802     2394.00000
    62.4933     2428.00000
    62.5065     2478.00000
    62.5196     2445.00000
    62.5327     2423.00000
    62.5459     2520.00000
    62.5590     2524.00000
    62.5721     2439.00000
    62.5852     2577.00000
    62.5984     2483.00000
    62.6115     2586.00000
    62.6246     2507.00000
    62.6378     2412.00000
    62.6509     2443.00000
    62.6640     2490.00000
    62.6772     2438.00000
    62.6903     2403.00000
    62.7034     2387.00000
    62.7166     2487.00000
    62.7297     2366.00000
    62.7428     2463.00000
    62.7559     2524.00000
    62.7691     2467.00000
    62.7822     2509.00000
    62.7953     2524.00000
    62.8085     2428.00000
    62.8216     2285.00000
    62.8347     2502.00000
    62.8479     2413.00000
    62.8610     2379.00000
    62.8741     2307.00000
    62.8872     2528.00000
    62.9004     2344.00000
    62.9135     2388.00000
    62.9266     2545.00000
    62.9398     2438.00000
    62.9529     2460.00000
    62.9660     2418.00000
    62.9792     2441.00000
    62.9923     2379.00000
    63.0054     2383.00000
    63.0185     2478.00000
    63.0317     2456.00000
    63.0448     2405.00000
    63.0579     2384.00000
    63.0711     2407.00000
    63.0842     2441.00000
    63.0973     2343.00000
    63.1105     2372.00000
    63.1236     2327.00000
    63.1367     2431.00000
    63.1499     2378.00000
    63.1630     2434.00000
    63.1761     2449.00000
    63.1892     2436.00000
    63.2024     2451.00000
    63.2155     2463.00000
    63.2286     2527.00000
    63.2418     2388.00000
    63.2549     2440.00000
    63.2680     2438.00000
    63.2812     2520.00000
    63.2943     2428.00000
    63.3074     2441.00000
    63.3205     2423.00000
    63.3337     2511.00000
    63.3468     2468.00000
    63.3599     2429.00000
    63.3731     2298.00000
    63.3862     2321.00000
    63.3993     2351.00000
    63.4125     2457.00000
    63.4256     2475.00000
    63.4387     2475.00000
    63.4518     2465.00000
    63.4650     2588.00000
    63.4781     2480.00000
    63.4912     2612.00000
    63.5044     2625.00000
    63.5175     2632.00000
    63.5306     2747.00000
    63.5438     2704.00000
    63.5569     2817.00000
    63.5700     2967.00000
    63.5831     2881.00000
    63.5963     2949.00000
    63.6094     2956.00000
    63.6225     3277.00000
    63.6357     3222.00000
    63.6488     3431.00000
    63.6619     3646.00000
    63.6751     3894.00000
    63.6882     4070.00000
    63.7013     4117.00000
    63.7145     3829.00000
    63.7276     3592.00000
    63.7407     3331.00000
    63.7538     3180.00000
    63.7670     3107.00000
    63.7801     2931.00000
    63.7932     2938.00000
    63.8064     2930.00000
    63.8195     2961.00000
    63.8326     3100.00000
    63.8458     3290.00000
    63.8589     3259.00000
    63.8720     3281.00000
    63.8851     3301.00000
    63.8983     3196.00000
    63.9114     3027.00000
    63.9245     2994.00000
    63.9377     2774.00000
    63.9508     2653.00000
    63.9639     2618.00000
    63.9771     2771.00000
    63.9902     2647.00000
    64.0033     2633.00000
    64.0164     2645.00000
    64.0296     2583.00000
    64.0427     2669.00000
    64.0558     2749.00000
    64.0690     2806.00000
    64.0821     2965.00000
    64.0952     2931.00000
    64.1084     3065.00000
    64.1215     3280.00000
    64.1346     3566.00000
    64.1478     3845.00000
    64.1609     4208.00000
    64.1740     4574.00000
    64.1871     4942.00000
    64.2003     5197.00000
    64.2134     5219.00000
    64.2265     5060.00000
    64.2397     4966.00000
    64.2528     4747.00000
    64.2659     4481.00000
    64.2791     4162.00000
    64.2922     3910.00000
    64.3053     3623.00000
    64.3184     3597.00000
    64.3316     3572.00000
    64.3447     3647.00000
    64.3578     3774.00000
    64.3710     3818.00000
    64.3841     3861.00000
    64.3972     3846.00000
    64.4104     3729.00000
    64.4235     3683.00000
    64.4366     3487.00000
    64.4498     3353.00000
    64.4629     3193.00000
    64.4760     2902.00000
    64.4891     2801.00000
    64.5023     2657.00000
    64.5154     2621.00000
    64.5285     2540.00000
    64.5417     2556.00000
    64.5548     2467.00000
    64.5679     2580.00000
    64.5811     2555.00000
    64.5942     2495.00000
    64.6073     2448.00000
    64.6204     2518.00000
    64.6336     2392.00000
    64.6467     2410.00000
    64.6598     2344.00000
    64.6730     2383.00000
    64.6861     2441.00000
    64.6992     2410.00000
    64.7124     2355.00000
    64.7255     2430.00000
    64.7386     2409.00000
    64.7517     2431.00000
    64.7649     2401.00000
    64.7780     2392.00000
    64.7911     2405.00000
    64.8043     2407.00000
    64.8174     2371.00000
    64.8305     2426.00000
    64.8437     2380.00000
    64.8568     2469.00000
    64.8699     2446.00000
    64.8830     2473.00000
    64.8962     2414.00000
    64.9093     2494.00000
    64.9224     2577.00000
    64.9356     2544.00000
    64.9487     2571.00000
    64.9618     2592.00000
    64.9750     2596.00000
    64.9881     2509.00000
    65.0012     2630.00000
    65.0144     2680.00000
    65.0275     2523.00000
    65.0406     2546.00000
    65.0537     2651.00000
    65.0669     2750.00000
    65.0800     2661.00000
    65.0931     2596.00000
    65.1063     2716.00000
    65.1194     2700.00000
    65.1325     2661.00000
    65.1457     2718.00000
    65.1588     2728.00000
    65.1719     2688.00000
    65.1850     2609.00000
    65.1982     2676.00000
    65.2113     2646.00000
    65.2244     2556.00000
    65.2376     2552.00000
    65.2507     2562.00000
    65.2638     2502.00000
    65.2770     2496.00000
    65.2901     2443.00000
    65.3032     2467.00000
    65.3163     2447.00000
    65.3295     2475.00000
    65.3426     2519.00000
    65.3557     2466.00000
    65.3689     2608.00000
    65.3820     2430.00000
    65.3951     2591.00000
    65.4083     2417.00000
    65.4214     2385.00000
    65.4345     2383.00000
    65.4476     2393.00000
    65.4608     2392.00000
    65.4739     2429.00000
    65.4870     2411.00000
    65.5002     2353.00000
    65.5133     2428.00000
    65.5264     2443.00000
    65.5396     2342.00000
    65.5527     2337.00000
    65.5658     2357.00000
    65.5790     2383.00000
    65.5921     2289.00000
    65.6052     2313.00000
    65.6183     2301.00000
    65.6315     2359.00000
    65.6446     2286.00000
    65.6577     2381.00000
    65.6709     2419.00000
    65.6840     2360.00000
    65.6971     2354.00000
    65.7103     2404.00000
    65.7234     2493.00000
    65.7365     2379.00000
    65.7496     2333.00000
    65.7628     2379.00000
    65.7759     2393.00000
    65.7890     2413.00000
    65.8022     2408.00000
    65.8153     2392.00000
    65.8284     2389.00000
    65.8416     2374.00000
    65.8547     2315.00000
    65.8678     2402.00000
    65.8810     2434.00000
    65.8941     2399.00000
    65.9072     2367.00000
    65.9203     2383.00000
    65.9335     2341.00000
    65.9466     2306.00000
    65.9597     2332.00000
    65.9729     2425.00000
    65.9860     2374.00000
    65.9991     2322.00000
    66.0123     2338.00000
    66.0254     2427.00000
    66.0385     2308.00000
    66.0516     2381.00000
    66.0648     2347.00000
    66.0779     2411.00000
    66.0910     2397.00000
    66.1042     2344.00000
    66.1173     2289.00000
    66.1304     2319.00000
    66.1436     2404.00000
    66.1567     2371.00000
    66.1698     2313.00000
    66.1829     2339.00000
    66.1961     2271.00000
    66.2092     2376.00000
    66.2223     2383.00000
    66.2355     2313.00000
    66.2486     2319.00000
    66.2617     2394.00000
    66.2749     2381.00000
    66.2880     2402.00000
    66.3011     2411.00000
    66.3142     2368.00000
    66.3274     2309.00000
    66.3405     2339.00000
    66.3536     2313.00000
    66.3668     2383.00000
    66.3799     2413.00000
    66.3930     2371.00000
    66.4062     2375.00000
    66.4193     2412.00000
    66.4324     2287.00000
    66.4455     2359.00000
    66.4587     2359.00000
    66.4718     2365.00000
    66.4849     2350.00000
    66.4981     2376.00000
    66.5112     2573.00000
    66.5243     2544.00000
    66.5375     2440.00000
    66.5506     2437.00000
    66.5637     2556.00000
    66.5769     2460.00000
    66.5900     2475.00000
    66.6031     2405.00000
    66.6162     2327.00000
    66.6294     2402.00000
    66.6425     2370.00000
    66.6556     2429.00000
    66.6688     2421.00000
    66.6819     2538.00000
    66.6950     2489.00000
    66.7082     2476.00000
    66.7213     2565.00000
    66.7344     2591.00000
    66.7476     2481.00000
    66.7607     2591.00000
    66.7738     2551.00000
    66.7869     2612.00000
    66.8001     2386.00000
    66.8132     2511.00000
    66.8263     2422.00000
    66.8395     2385.00000
    66.8526     2456.00000
    66.8657     2418.00000
    66.8789     2471.00000
    66.8920     2468.00000
    66.9051     2485.00000
    66.9182     2449.00000
    66.9314     2465.00000
    66.9445     2435.00000
    66.9576     2495.00000
    66.9708     2487.00000
    66.9839     2438.00000
    66.9970     2439.00000
    67.0102     2418.00000
    67.0233     2300.00000
    67.0364     2348.00000
    67.0495     2319.00000
    67.0627     2288.00000
    67.0758     2303.00000
    67.0889     2425.00000
    67.1021     2301.00000
    67.1152     2313.00000
    67.1283     2307.00000
    67.1415     2357.00000
    67.1546     2332.00000
    67.1677     2412.00000
    67.1808     2324.00000
    67.1940     2276.00000
    67.2071     2342.00000
    67.2202     2317.00000
    67.2334     2339.00000
    67.2465     2277.00000
    67.2596     2358.00000
    67.2728     2422.00000
    67.2859     2335.00000
    67.2990     2367.00000
    67.3121     2280.00000
    67.3253     2398.00000
    67.3384     2167.00000
    67.3515     2284.00000
    67.3647     2433.00000
    67.3778     2289.00000
    67.3909     2261.00000
    67.4041     2263.00000
    67.4172     2382.00000
    67.4303     2379.00000
    67.4435     2307.00000
    67.4566     2288.00000
    67.4697     2376.00000
    67.4828     2372.00000
    67.4960     2421.00000
    67.5091     2447.00000
    67.5222     2390.00000
    67.5354     2381.00000
    67.5485     2317.00000
    67.5616     2400.00000
    67.5748     2438.00000
    67.5879     2367.00000
    67.6010     2397.00000
    67.6142     2357.00000
    67.6273     2326.00000
    67.6404     2422.00000
    67.6535     2381.00000
    67.6667     2335.00000
    67.6798     2364.00000
    67.6929     2292.00000
    67.7061     2329.00000
    67.7192     2339.00000
    67.7323     2331.00000
    67.7455     2377.00000
    67.7586     2425.00000
    67.7717     2379.00000
    67.7848     2274.00000
    67.7980     2390.00000
    67.8111     2451.00000
    67.8242     2382.00000
    67.8374     2438.00000
    67.8505     2340.00000
    67.8636     2372.00000
    67.8768     2379.00000
    67.8899     2459.00000
    67.9030     2431.00000
    67.9161     2411.00000
    67.9293     2477.00000
    67.9424     2443.00000
    67.9555     2525.00000
    67.9687     2675.00000
    67.9818     2711.00000
    67.9949     2872.00000
    68.0081     3049.00000
    68.0212     3301.00000
    68.0343     3511.00000
    68.0474     3628.00000
    68.0606     3695.00000
    68.0737     3474.00000
    68.0868     3118.00000
    68.1000     2990.00000
    68.1131     2740.00000
    68.1262     2686.00000
    68.1394     2697.00000
    68.1525     2595.00000
    68.1656     2650.00000
    68.1787     2692.00000
    68.1919     2879.00000
    68.2050     2776.00000
    68.2181     2988.00000
    68.2313     3043.00000
    68.2444     3117.00000
    68.2575     3127.00000
    68.2707     3182.00000
    68.2838     2931.00000
    68.2969     2920.00000
    68.3101     2873.00000
    68.3232     2905.00000
    68.3363     2858.00000
    68.3494     2899.00000
    68.3626     2867.00000
    68.3757     2727.00000
    68.3888     2791.00000
    68.4020     2796.00000
    68.4151     2664.00000
    68.4282     2733.00000
    68.4414     2702.00000
    68.4545     2833.00000
    68.4676     2753.00000
    68.4807     2770.00000
    68.4939     2746.00000
    68.5070     2675.00000
    68.5201     2820.00000
    68.5333     2632.00000
    68.5464     2786.00000
    68.5595     2679.00000
    68.5727     2711.00000
    68.5858     2682.00000
    68.5989     2618.00000
    68.6120     2658.00000
    68.6252     2747.00000
    68.6383     2705.00000
    68.6514     2844.00000
    68.6646     2868.00000
    68.6777     3032.00000
    68.6908     3268.00000
    68.7040     3564.00000
    68.7171     4135.00000
    68.7302     4589.00000
    68.7434     5093.00000
    68.7565     5233.00000
    68.7696     5168.00000
    68.7827     4553.00000
    68.7959     3950.00000
    68.8090     3472.00000
    68.8221     3073.00000
    68.8353     2909.00000
    68.8484     2894.00000
    68.8615     2871.00000
    68.8747     2786.00000
    68.8878     2873.00000
    68.9009     3078.00000
    68.9140     3275.00000
    68.9272     3503.00000
    68.9403     3895.00000
    68.9534     3936.00000
    68.9666     3624.00000
    68.9797     3613.00000
    68.9928     3233.00000
    69.0060     2980.00000
    69.0191     2865.00000
    69.0322     2700.00000
    69.0453     2677.00000
    69.0585     2618.00000
    69.0716     2537.00000
    69.0847     2497.00000
    69.0979     2591.00000
    69.1110     2466.00000
    69.1241     2571.00000
    69.1373     2472.00000
    69.1504     2647.00000
    69.1635     2632.00000
    69.1767     2681.00000
    69.1898     2582.00000
    69.2029     2856.00000
    69.2160     2881.00000
    69.2292     2943.00000
    69.2423     3302.00000
    69.2554     3634.00000
    69.2686     3769.00000
    69.2817     3947.00000
    69.2948     3860.00000
    69.3080     3487.00000
    69.3211     3360.00000
    69.3342     3054.00000
    69.3473     2936.00000
    69.3605     2838.00000
    69.3736     2743.00000
    69.3867     2802.00000
    69.3999     2795.00000
    69.4130     2942.00000
    69.4261     3039.00000
    69.4393     3118.00000
    69.4524     3373.00000
    69.4655     3379.00000
    69.4786     3622.00000
    69.4918     3857.00000
    69.5049     3858.00000
    69.5180     3744.00000
    69.5312     3742.00000
    69.5443     3905.00000
    69.5574     3839.00000
    69.5706     3795.00000
    69.5837     3717.00000
    69.5968     3791.00000
    69.6099     3725.00000
    69.6231     3542.00000
    69.6362     3326.00000
    69.6493     3312.00000
    69.6625     3197.00000
    69.6756     3162.00000
    69.6887     3079.00000
    69.7019     3128.00000
    69.7150     3236.00000
    69.7281     3300.00000
    69.7413     3223.00000
    69.7544     3310.00000
    69.7675     3393.00000
    69.7806     3403.00000
    69.7938     3476.00000
    69.8069     3614.00000
    69.8200     3775.00000
    69.8332     4027.00000
    69.8463     4271.00000
    69.8594     4743.00000
    69.8726     5424.00000
    69.8857     5979.00000
    69.8988     6585.00000
    69.9119     7100.00000
    69.9251     7489.00000
    69.9382     7279.00000
    69.9513     6499.00000
    69.9645     5530.00000
    69.9776     4922.00000
    69.9907     4346.00000
    70.0039     4066.00000
    70.0170     3875.00000
    70.0301     3776.00000
    70.0433     3924.00000
    70.0564     4254.00000
    70.0695     4645.00000
    70.0826     4918.00000
    70.0958     5559.00000
    70.1089     5856.00000
    70.1220     6295.00000
    70.1352     6284.00000
    70.1483     6123.00000
    70.1614     5506.00000
    70.1746     4940.00000
    70.1877     4524.00000
    70.2008     4100.00000
    70.2139     3853.00000
    70.2271     3557.00000
    70.2402     3392.00000
    70.2533     3424.00000
    70.2665     3358.00000
    70.2796     3472.00000
    70.2927     3501.00000
    70.3059     3719.00000
    70.3190     3732.00000
    70.3321     3827.00000
    70.3452     3891.00000
    70.3584     3817.00000
    70.3715     3710.00000
    70.3846     3530.00000
    70.3978     3629.00000
    70.4109     3600.00000
    70.4240     3780.00000
    70.4372     3921.00000
    70.4503     4358.00000
    70.4634     4708.00000
    70.4765     4982.00000
    70.4897     5195.00000
    70.5028     4962.00000
    70.5159     4742.00000
    70.5291     4541.00000
    70.5422     4033.00000
    70.5553     3673.00000
    70.5685     3385.00000
    70.5816     3286.00000
    70.5947     3291.00000
    70.6078     3297.00000
    70.6210     3428.00000
    70.6341     3640.00000
    70.6472     3717.00000
    70.6604     3793.00000
    70.6735     4047.00000
    70.6866     4067.00000
    70.6998     3949.00000
    70.7129     4001.00000
    70.7260     3609.00000
    70.7392     3380.00000
    70.7523     3254.00000
    70.7654     3139.00000
    70.7785     3061.00000
    70.7917     2976.00000
    70.8048     2914.00000
    70.8179     2882.00000
    70.8311     2863.00000
    70.8442     2911.00000
    70.8573     3008.00000
    70.8705     2989.00000
    70.8836     2937.00000
    70.8967     2918.00000
    70.9099     3048.00000
    70.9230     3041.00000
    70.9361     3101.00000
    70.9492     3196.00000
    70.9624     3354.00000
    70.9755     3596.00000
    70.9886     3649.00000
    71.0018     3838.00000
    71.0149     4026.00000
    71.0280     4170.00000
    71.0412     4178.00000
    71.0543     4369.00000
    71.0674     4269.00000
    71.0805     4401.00000
    71.0937     4256.00000
    71.1068     4066.00000
    71.1199     3899.00000
    71.1331     3786.00000
    71.1462     3685.00000
    71.1593     3563.00000
    71.1725     3390.00000
    71.1856     3611.00000
    71.1987     3782.00000
    71.2118     3948.00000
    71.2250     4356.00000
    71.2381     4951.00000
    71.2512     5483.00000
    71.2644     5995.00000
    71.2775     6076.00000
    71.2906     5819.00000
    71.3038     5290.00000
    71.3169     4495.00000
    71.3300     4040.00000
    71.3431     3601.00000
    71.3563     3364.00000
    71.3694     3152.00000
    71.3825     3073.00000
    71.3957     3062.00000
    71.4088     3033.00000
    71.4219     3075.00000
    71.4351     3267.00000
    71.4482     3531.00000
    71.4613     3760.00000
    71.4744     3800.00000
    71.4876     3836.00000
    71.5007     3621.00000
    71.5138     3415.00000
    71.5270     3190.00000
    71.5401     2907.00000
    71.5532     2864.00000
    71.5664     2858.00000
    71.5795     2806.00000
    71.5926     2743.00000
    71.6058     2854.00000
    71.6189     2852.00000
    71.6320     3038.00000
    71.6451     3184.00000
    71.6583     3415.00000
    71.6714     3650.00000
    71.6845     3758.00000
    71.6977     4112.00000
    71.7108     4250.00000
    71.7239     3996.00000
    71.7371     3660.00000
    71.7502     3422.00000
    71.7633     3206.00000
    71.7764     3100.00000
    71.7896     2994.00000
    71.8027     2933.00000
    71.8158     2955.00000
    71.8290     2944.00000
    71.8421     2952.00000
    71.8552     3029.00000
    71.8684     3300.00000
    71.8815     3524.00000
    71.8946     3621.00000
    71.9078     3765.00000
    71.9209     3775.00000
    71.9340     3875.00000
    71.9471     3783.00000
    71.9603     3728.00000
    71.9734     3732.00000
    71.9865     3683.00000
    71.9997     3601.00000
    72.0128     3618.00000
    72.0259     3566.00000
    72.0391     3473.00000
    72.0522     3377.00000
    72.0653     3161.00000
    72.0784     3101.00000
    72.0916     2988.00000
    72.1047     2975.00000
    72.1178     2890.00000
    72.1310     2916.00000
    72.1441     2953.00000
    72.1572     2983.00000
    72.1704     2987.00000
    72.1835     2934.00000
    72.1966     2967.00000
    72.2097     2999.00000
    72.2229     2934.00000
    72.2360     2982.00000
    72.2491     2934.00000
    72.2623     2700.00000
    72.2754     2824.00000
    72.2885     2684.00000
    72.3017     2614.00000
    72.3148     2615.00000
    72.3279     2531.00000
    72.3410     2533.00000
    72.3542     2533.00000
    72.3673     2517.00000
    72.3804     2421.00000
    72.3936     2440.00000
    72.4067     2498.00000
    72.4198     2532.00000
    72.4330     2542.00000
    72.4461     2518.00000
    72.4592     2483.00000
    72.4724     2531.00000
    72.4855     2535.00000
    72.4986     2575.00000
    72.5117     2496.00000
    72.5249     2575.00000
    72.5380     2523.00000
    72.5511     2510.00000
    72.5643     2548.00000
    72.5774     2533.00000
    72.5905     2661.00000
    72.6037     2693.00000
    72.6168     2706.00000
    72.6299     2763.00000
    72.6430     2846.00000
    72.6562     3052.00000
    72.6693     3333.00000
    72.6824     3616.00000
    72.6956     3749.00000
    72.7087     3934.00000
    72.7218     4098.00000
    72.7350     4134.00000
    72.7481     4253.00000
    72.7612     3922.00000
    72.7743     3692.00000
    72.7875     3519.00000
    72.8006     3189.00000
    72.8137     3035.00000
    72.8269     2873.00000
    72.8400     2829.00000
    72.8531     2875.00000
    72.8663     2878.00000
    72.8794     3115.00000
    72.8925     3078.00000
    72.9057     3082.00000
    72.9188     3288.00000
    72.9319     3234.00000
    72.9450     3299.00000
    72.9582     3357.00000
    72.9713     3194.00000
    72.9844     3010.00000
    72.9976     2966.00000
    73.0107     2890.00000
    73.0238     2817.00000
    73.0370     2729.00000
    73.0501     2554.00000
    73.0632     2634.00000
    73.0763     2674.00000
    73.0895     2726.00000
    73.1026     2729.00000
    73.1157     2781.00000
    73.1289     2855.00000
    73.1420     3010.00000
    73.1551     3187.00000
    73.1683     3417.00000
    73.1814     3840.00000
    73.1945     3916.00000
    73.2076     4102.00000
    73.2208     4152.00000
    73.2339     4208.00000
    73.2470     4054.00000
    73.2602     3836.00000
    73.2733     3769.00000
    73.2864     3506.00000
    73.2996     3394.00000
    73.3127     3250.00000
    73.3258     3314.00000
    73.3390     3287.00000
    73.3521     3297.00000
    73.3652     3213.00000
    73.3783     3270.00000
    73.3915     3355.00000
    73.4046     3384.00000
    73.4177     3503.00000
    73.4309     3553.00000
    73.4440     3535.00000
    73.4571     3553.00000
    73.4703     3311.00000
    73.4834     3418.00000
    73.4965     3382.00000
    73.5096     3352.00000
    73.5228     3504.00000
    73.5359     3529.00000
    73.5490     3618.00000
    73.5622     3927.00000
    73.5753     3896.00000
    73.5884     3892.00000
    73.6016     4016.00000
    73.6147     4028.00000
    73.6278     3946.00000
    73.6409     3806.00000
    73.6541     3895.00000
    73.6672     3738.00000
    73.6803     3598.00000
    73.6935     3551.00000
    73.7066     3414.00000
    73.7197     3264.00000
    73.7329     3055.00000
    73.7460     3143.00000
    73.7591     3188.00000
    73.7722     3041.00000
    73.7854     3264.00000
    73.7985     3336.00000
    73.8116     3267.00000
    73.8248     3358.00000
    73.8379     3363.00000
    73.8510     3309.00000
    73.8642     3336.00000
    73.8773     3104.00000
    73.8904     3090.00000
    73.9035     2997.00000
    73.9167     2986.00000
    73.9298     2941.00000
    73.9429     2794.00000
    73.9561     2789.00000
    73.9692     2886.00000
    73.9823     3004.00000
    73.9955     2953.00000
    74.0086     3115.00000
    74.0217     3346.00000
    74.0349     3750.00000
    74.0480     4015.00000
    74.0611     4454.00000
    74.0742     4831.00000
    74.0874     5209.00000
    74.1005     5371.00000
    74.1136     5156.00000
    74.1268     5232.00000
    74.1399     5086.00000
    74.1530     5282.00000
    74.1662     5277.00000
    74.1793     5290.00000
    74.1924     5382.00000
    74.2056     5165.00000
    74.2187     4602.00000
    74.2318     4220.00000
    74.2449     3867.00000
    74.2581     3851.00000
    74.2712     3689.00000
    74.2843     3787.00000
    74.2975     3976.00000
    74.3106     4027.00000
    74.3237     4074.00000
    74.3369     3989.00000
    74.3500     3666.00000
    74.3631     3793.00000
    74.3762     3829.00000
    74.3894     3844.00000
    74.4025     3871.00000
    74.4156     3732.00000
    74.4288     3450.00000
    74.4419     3283.00000
    74.4550     2928.00000
    74.4682     2817.00000
    74.4813     2682.00000
    74.4944     2580.00000
    74.5075     2563.00000
    74.5207     2541.00000
    74.5338     2548.00000
    74.5469     2550.00000
    74.5601     2475.00000
    74.5732     2415.00000
    74.5863     2370.00000
    74.5995     2418.00000
    74.6126     2410.00000
    74.6257     2380.00000
    74.6388     2452.00000
    74.6520     2420.00000
    74.6651     2331.00000
    74.6782     2420.00000
    74.6914     2312.00000
    74.7045     2301.00000
    74.7176     2401.00000
    74.7308     2365.00000
    74.7439     2466.00000
    74.7570     2428.00000
    74.7701     2357.00000
    74.7833     2410.00000
    74.7964     2516.00000
    74.8095     2356.00000
    74.8227     2331.00000
    74.8358     2465.00000
    74.8489     2267.00000
    74.8621     2283.00000
    74.8752     2372.00000
    74.8883     2294.00000
    74.9015     2312.00000
    74.9146     2302.00000
    74.9277     2363.00000
    74.9408     2303.00000
    74.9540     2328.00000
    74.9671     2452.00000
    74.9802     2385.00000
    74.9934     2348.00000
    75.0065     2376.00000
    75.0196     2278.00000
    75.0328     2338.00000
    75.0459     2444.00000
    75.0590     2322.00000
    75.0722     2352.00000
    75.0853     2298.00000
    75.0984     2338.00000
    75.1115     2390.00000
    75.1247     2407.00000
    75.1378     2340.00000
    75.1509     2346.00000
    75.1641     2366.00000
    75.1772     2362.00000
    75.1903     2352.00000
    75.2035     2305.00000
    75.2166     2335.00000
    75.2297     2364.00000
    75.2428     2324.00000
    75.2560     2339.00000
    75.2691     2383.00000
    75.2822     2358.00000
    75.2954     2349.00000
    75.3085     2375.00000
    75.3216     2372.00000
    75.3348     2333.00000
    75.3479     2328.00000
    75.3610     2321.00000
    75.3741     2371.00000
    75.3873     2417.00000
    75.4004     2327.00000
    75.4135     2287.00000
    75.4267     2311.00000
    75.4398     2427.00000
    75.4529     2310.00000
    75.4661     2358.00000
    75.4792     2296.00000
    75.4923     2389.00000
    75.5054     2402.00000
    75.5186     2322.00000
    75.5317     2408.00000
    75.5448     2405.00000
    75.5580     2398.00000
    75.5711     2424.00000
    75.5842     2458.00000
    75.5974     2352.00000
    75.6105     2436.00000
    75.6236     2404.00000
    75.6367     2461.00000
    75.6499     2567.00000
    75.6630     2598.00000
    75.6761     2548.00000
    75.6893     2616.00000
    75.7024     2562.00000
    75.7155     2481.00000
    75.7287     2476.00000
    75.7418     2447.00000
    75.7549     2474.00000
    75.7681     2444.00000
    75.7812     2468.00000
    75.7943     2441.00000
    75.8074     2353.00000
    75.8206     2398.00000
    75.8337     2480.00000
    75.8468     2432.00000
    75.8600     2386.00000
    75.8731     2416.00000
    75.8862     2607.00000
    75.8994     2550.00000
    75.9125     2437.00000
    75.9256     2466.00000
    75.9387     2505.00000
    75.9519     2599.00000
    75.9650     2577.00000
    75.9781     2428.00000
    75.9913     2468.00000
    76.0044     2545.00000
    76.0175     2522.00000
    76.0307     2510.00000
    76.0438     2636.00000
    76.0569     2644.00000
    76.0701     2544.00000
    76.0832     2644.00000
    76.0963     2783.00000
    76.1094     2773.00000
    76.1226     2791.00000
    76.1357     2847.00000
    76.1488     2885.00000
    76.1620     2911.00000
    76.1751     2919.00000
    76.1882     2858.00000
    76.2014     2896.00000
    76.2145     2758.00000
    76.2276     2804.00000
    76.2407     2828.00000
    76.2539     2862.00000
    76.2670     3007.00000
    76.2801     3047.00000
    76.2933     3162.00000
    76.3064     3200.00000
    76.3195     3418.00000
    76.3327     3715.00000
    76.3458     3955.00000
    76.3589     4227.00000
    76.3720     4487.00000
    76.3852     4680.00000
    76.3983     4764.00000
    76.4114     4828.00000
    76.4246     4821.00000
    76.4377     4578.00000
    76.4508     4252.00000
    76.4640     3978.00000
    76.4771     3712.00000
    76.4902     3374.00000
    76.5033     3259.00000
    76.5165     3240.00000
    76.5296     3164.00000
    76.5427     3186.00000
    76.5559     3088.00000
    76.5690     3158.00000
    76.5821     3332.00000
    76.5953     3360.00000
    76.6084     3490.00000
    76.6215     3541.00000
    76.6347     3559.00000
    76.6478     3505.00000
    76.6609     3363.00000
    76.6740     3356.00000
    76.6872     3190.00000
    76.7003     3068.00000
    76.7134     2885.00000
    76.7266     2896.00000
    76.7397     2714.00000
    76.7528     2622.00000
    76.7660     2663.00000
    76.7791     2627.00000
    76.7922     2649.00000
    76.8053     2569.00000
    76.8185     2560.00000
    76.8316     2619.00000
    76.8447     2579.00000
    76.8579     2599.00000
    76.8710     2554.00000
    76.8841     2525.00000
    76.8973     2542.00000
    76.9104     2644.00000
    76.9235     2666.00000
    76.9366     2503.00000
    76.9498     2676.00000
    76.9629     2658.00000
    76.9760     2794.00000
    76.9892     2866.00000
    77.0023     2940.00000
    77.0154     2974.00000
    77.0286     3082.00000
    77.0417     3373.00000
    77.0548     3495.00000
    77.0679     3748.00000
    77.0811     4098.00000
    77.0942     4258.00000
    77.1073     4272.00000
    77.1205     4520.00000
    77.1336     4410.00000
    77.1467     4426.00000
    77.1599     4332.00000
    77.1730     4176.00000
    77.1861     3894.00000
    77.1993     3713.00000
    77.2124     3487.00000
    77.2255     3281.00000
    77.2386     3170.00000
    77.2518     3059.00000
    77.2649     3194.00000
    77.2780     3151.00000
    77.2912     3082.00000
    77.3043     3283.00000
    77.3174     3374.00000
    77.3306     3313.00000
    77.3437     3436.00000
    77.3568     3443.00000
    77.3699     3436.00000
    77.3831     3311.00000
    77.3962     3340.00000
    77.4093     3311.00000
    77.4225     3204.00000
    77.4356     2977.00000
    77.4487     2828.00000
    77.4619     2791.00000
    77.4750     2706.00000
    77.4881     2609.00000
    77.5013     2653.00000
    77.5144     2651.00000
    77.5275     2632.00000
    77.5406     2650.00000
    77.5538     2767.00000
    77.5669     2797.00000
    77.5800     2916.00000
    77.5932     2904.00000
    77.6063     3141.00000
    77.6194     3018.00000
    77.6326     3096.00000
    77.6457     3085.00000
    77.6588     2999.00000
    77.6719     2896.00000
    77.6851     2761.00000
    77.6982     2678.00000
    77.7113     2579.00000
    77.7245     2620.00000
    77.7376     2494.00000
    77.7507     2480.00000
    77.7639     2603.00000
    77.7770     2547.00000
    77.7901     2669.00000
    77.8032     2629.00000
    77.8164     2538.00000
    77.8295     2772.00000
    77.8426     2773.00000
    77.8558     2793.00000
    77.8689     2763.00000
    77.8820     2762.00000
    77.8952     2602.00000
    77.9083     2571.00000
    77.9214     2549.00000
    77.9345     2613.00000
    77.9477     2659.00000
    77.9608     2494.00000
    77.9739     2600.00000
    77.9871     2745.00000
    78.0002     2765.00000
    78.0133     2686.00000
    78.0265     2816.00000
    78.0396     2906.00000
    78.0527     3062.00000
    78.0658     2830.00000
    78.0790     2920.00000
    78.0921     2697.00000
    78.1052     2596.00000
    78.1184     2593.00000
    78.1315     2532.00000
    78.1446     2509.00000
    78.1578     2603.00000
    78.1709     2570.00000
    78.1840     2514.00000
    78.1972     2551.00000
    78.2103     2528.00000
    78.2234     2672.00000
    78.2365     2664.00000
    78.2497     2653.00000
    78.2628     2667.00000
    78.2759     2796.00000
    78.2891     2781.00000
    78.3022     2763.00000
    78.3153     2822.00000
    78.3285     2763.00000
    78.3416     2733.00000
    78.3547     2926.00000
    78.3679     2956.00000
    78.3810     3053.00000
    78.3941     3303.00000
    78.4072     3274.00000
    78.4204     3271.00000
    78.4335     3408.00000
    78.4466     3570.00000
    78.4598     3420.00000
    78.4729     3505.00000
    78.4860     3445.00000
    78.4992     3498.00000
    78.5123     3527.00000
    78.5254     3494.00000
    78.5385     3342.00000
    78.5517     3342.00000
    78.5648     3177.00000
    78.5779     3039.00000
    78.5911     2967.00000
    78.6042     3074.00000
    78.6173     3026.00000
    78.6305     3039.00000
    78.6436     3157.00000
    78.6567     3285.00000
    78.6698     3240.00000
    78.6830     3246.00000
    78.6961     3398.00000
    78.7092     3363.00000
    78.7224     3401.00000
    78.7355     3348.00000
    78.7486     3428.00000
    78.7618     3436.00000
    78.7749     3634.00000
    78.7880     3676.00000
    78.8011     3671.00000
    78.8143     3584.00000
    78.8274     3652.00000
    78.8405     3538.00000
    78.8537     3633.00000
    78.8668     3785.00000
    78.8799     3854.00000
    78.8931     3902.00000
    78.9062     4150.00000
    78.9193     4000.00000
    78.9324     4043.00000
    78.9456     3924.00000
    78.9587     3872.00000
    78.9718     3811.00000
    78.9850     3775.00000
    78.9981     3905.00000
    79.0112     3927.00000
    79.0244     3905.00000
    79.0375     3993.00000
    79.0506     4106.00000
    79.0638     4155.00000
    79.0769     4210.00000
    79.0900     4140.00000
    79.1031     4118.00000
    79.1163     4050.00000
    79.1294     4125.00000
    79.1425     3924.00000
    79.1557     3886.00000
    79.1688     3650.00000
    79.1819     3506.00000
    79.1951     3401.00000
    79.2082     3221.00000
    79.2213     3270.00000
    79.2345     3164.00000
    79.2476     3154.00000
    79.2607     3175.00000
    79.2738     3167.00000
    79.2870     3190.00000
    79.3001     3266.00000
    79.3132     3089.00000
    79.3264     3131.00000
    79.3395     3172.00000
    79.3526     3190.00000
    79.3658     3083.00000
    79.3789     3163.00000
    79.3920     3187.00000
    79.4051     3130.00000
    79.4183     3202.00000
    79.4314     3262.00000
    79.4445     3236.00000
    79.4577     3540.00000
    79.4708     3818.00000
    79.4839     3975.00000
    79.4971     4106.00000
    79.5102     4158.00000
    79.5233     4185.00000
    79.5364     3997.00000
    79.5496     3653.00000
    79.5627     3573.00000
    79.5758     3236.00000
    79.5890     3201.00000
    79.6021     2960.00000
    79.6152     2911.00000
    79.6284     2883.00000
    79.6415     2934.00000
    79.6546     2811.00000
    79.6677     2970.00000
    79.6809     2996.00000
    79.6940     3148.00000
    79.7071     3249.00000
    79.7203     3353.00000
    79.7334     3521.00000
    79.7465     3546.00000
    79.7597     3650.00000
    79.7728     3384.00000
    79.7859     3374.00000
    79.7990     3287.00000
    79.8122     3164.00000
    79.8253     3132.00000
    79.8384     3015.00000
    79.8516     2900.00000
    79.8647     2874.00000
    79.8778     2678.00000
    79.8910     2683.00000
    79.9041     2854.00000
    79.9172     2678.00000
    79.9304     2662.00000
    79.9435     2702.00000
    79.9566     2758.00000
    79.9697     2630.00000
    79.9829     2691.00000
    79.9960     2737.00000
    80.0091     2742.00000
    80.0223     2954.00000
    80.0354     2863.00000
    80.0485     2753.00000
    80.0617     2793.00000
    80.0748     3042.00000
    80.0879     2894.00000
    80.1010     2997.00000
    80.1142     3044.00000
    80.1273     3332.00000
    80.1404     3367.00000
    80.1536     3398.00000
    80.1667     3444.00000
    80.1798     3801.00000
    80.1930     3776.00000
    80.2061     4014.00000
    80.2192     4326.00000
    80.2323     4511.00000
    80.2455     4642.00000
    80.2586     4820.00000
    80.2717     4813.00000
    80.2849     5080.00000
    80.2980     5213.00000
    80.3111     5533.00000
    80.3243     5768.00000
    80.3374     6140.00000
    80.3505     6402.00000
    80.3637     6482.00000
    80.3768     6489.00000
    80.3899     6263.00000
    80.4030     5940.00000
    80.4162     5636.00000
    80.4293     5298.00000
    80.4424     5210.00000
    80.4556     5087.00000
    80.4687     5153.00000
    80.4818     5037.00000
    80.4950     4945.00000
    80.5081     4920.00000
    80.5212     5123.00000
    80.5343     5244.00000
    80.5475     5422.00000
    80.5606     5886.00000
    80.5737     5882.00000
    80.5869     5774.00000
    80.6000     5636.00000
    80.6131     5596.00000
    80.6263     5313.00000
    80.6394     5131.00000
    80.6525     5003.00000
    80.6656     4951.00000
    80.6788     4882.00000
    80.6919     4880.00000
    80.7050     4836.00000
    80.7182     4712.00000
    80.7313     4543.00000
    80.7444     4026.00000
    80.7576     4173.00000
    80.7707     3813.00000
    80.7838     3882.00000
    80.7970     3854.00000
    80.8101     3656.00000
    80.8232     3620.00000
    80.8363     3499.00000
    80.8495     3394.00000
    80.8626     3340.00000
    80.8757     3313.00000
    80.8889     3329.00000
    80.9020     3278.00000
    80.9151     3511.00000
    80.9283     3560.00000
    80.9414     3717.00000
    80.9545     3663.00000
    80.9676     3788.00000
    80.9808     3684.00000
    80.9939     3711.00000
    81.0070     3671.00000
    81.0202     3601.00000
    81.0333     3585.00000
    81.0464     3510.00000
    81.0596     3548.00000
    81.0727     3335.00000
    81.0858     3281.00000
    81.0989     3253.00000
    81.1121     3333.00000
    81.1252     3304.00000
    81.1383     3362.00000
    81.1515     3255.00000
    81.1646     3336.00000
    81.1777     3513.00000
    81.1909     3391.00000
    81.2040     3532.00000
    81.2171     3544.00000
    81.2302     3583.00000
    81.2434     3698.00000
    81.2565     3754.00000
    81.2696     3504.00000
    81.2828     3529.00000
    81.2959     3528.00000
    81.3090     3397.00000
    81.3222     3353.00000
    81.3353     3152.00000
    81.3484     2963.00000
    81.3616     2966.00000
    81.3747     2841.00000
    81.3878     2903.00000
    81.4009     2812.00000
    81.4141     2888.00000
    81.4272     2829.00000
    81.4403     2826.00000
    81.4535     2845.00000
    81.4666     2940.00000
    81.4797     2887.00000
    81.4929     2799.00000
    81.5060     2802.00000
    81.5191     2863.00000
    81.5322     2710.00000
    81.5454     2730.00000
    81.5585     2707.00000
    81.5716     2614.00000
    81.5848     2585.00000
    81.5979     2568.00000
    81.6110     2551.00000
    81.6242     2422.00000
    81.6373     2465.00000
    81.6504     2470.00000
    81.6636     2495.00000
    81.6767     2659.00000
    81.6898     2573.00000
    81.7029     2460.00000
    81.7161     2553.00000
    81.7292     2468.00000
    81.7423     2490.00000
    81.7555     2612.00000
    81.7686     2477.00000
    81.7817     2502.00000
    81.7949     2529.00000
    81.8080     2458.00000
    81.8211     2495.00000
    81.8342     2415.00000
    81.8474     2455.00000
    81.8605     2656.00000
    81.8736     2524.00000
    81.8868     2435.00000
    81.8999     2532.00000
    81.9130     2541.00000
    81.9262     2651.00000
    81.9393     2552.00000
    81.9524     2532.00000
    81.9655     2530.00000
    81.9787     2634.00000
    81.9918     2650.00000
    82.0049     2804.00000
    82.0181     2747.00000
    82.0312     2734.00000
    82.0443     2847.00000
    82.0575     2911.00000
    82.0706     3146.00000
    82.0837     3210.00000
    82.0968     3350.00000
    82.1100     3633.00000
    82.1231     3801.00000
    82.1362     3903.00000
    82.1494     4013.00000
    82.1625     4309.00000
    82.1756     4282.00000
    82.1888     4299.00000
    82.2019     4339.00000
    82.2150     4199.00000
    82.2281     4121.00000
    82.2413     3965.00000
    82.2544     3638.00000
    82.2675     3387.00000
    82.2807     3180.00000
    82.2938     3171.00000
    82.3069     3033.00000
    82.3201     3037.00000
    82.3332     3025.00000
    82.3463     3102.00000
    82.3595     3034.00000
    82.3726     3159.00000
    82.3857     3244.00000
    82.3988     3269.00000
    82.4120     3300.00000
    82.4251     3315.00000
    82.4382     3460.00000
    82.4514     3437.00000
    82.4645     3313.00000
    82.4776     3324.00000
    82.4908     3180.00000
    82.5039     3236.00000
    82.5170     3078.00000
    82.5302     3104.00000
    82.5433     3242.00000
    82.5564     3515.00000
    82.5695     3672.00000
    82.5827     3809.00000
    82.5958     3751.00000
    82.6089     3714.00000
    82.6221     3481.00000
    82.6352     3237.00000
    82.6483     2980.00000
    82.6615     2922.00000
    82.6746     2792.00000
    82.6877     2702.00000
    82.7008     2633.00000
    82.7140     2596.00000
    82.7271     2695.00000
    82.7402     2647.00000
    82.7534     2699.00000
    82.7665     2720.00000
    82.7796     2775.00000
    82.7928     2817.00000
    82.8059     2880.00000
    82.8190     3005.00000
    82.8321     3078.00000
    82.8453     3208.00000
    82.8584     3082.00000
    82.8715     2878.00000
    82.8847     2821.00000
    82.8978     2621.00000
    82.9109     2661.00000
    82.9241     2553.00000
    82.9372     2463.00000
    82.9503     2469.00000
    82.9634     2435.00000
    82.9766     2465.00000
    82.9897     2485.00000
    83.0028     2507.00000
    83.0160     2520.00000
    83.0291     2374.00000
    83.0422     2424.00000
    83.0554     2362.00000
    83.0685     2439.00000
    83.0816     2410.00000
    83.0947     2393.00000
    83.1079     2347.00000
    83.1210     2455.00000
    83.1341     2494.00000
    83.1473     2488.00000
    83.1604     2480.00000
    83.1735     2452.00000
    83.1867     2465.00000
    83.1998     2414.00000
    83.2129     2417.00000
    83.2261     2531.00000
    83.2392     2383.00000
    83.2523     2378.00000
    83.2654     2390.00000
    83.2786     2453.00000
    83.2917     2506.00000
    83.3048     2419.00000
    83.3180     2427.00000
    83.3311     2531.00000
    83.3442     2537.00000
    83.3574     2481.00000
    83.3705     2588.00000
    83.3836     2533.00000
    83.3967     2664.00000
    83.4099     2704.00000
    83.4230     2706.00000
    83.4361     2575.00000
    83.4493     2655.00000
    83.4624     2746.00000
    83.4755     2568.00000
    83.4887     2732.00000
    83.5018     2883.00000
    83.5149     2705.00000
    83.5281     2574.00000
    83.5412     2604.00000
    83.5543     2680.00000
    83.5674     2628.00000
    83.5806     2564.00000
    83.5937     2640.00000
    83.6068     2719.00000
    83.6200     2751.00000
    83.6331     2727.00000
    83.6462     2868.00000
    83.6594     2708.00000
    83.6725     2823.00000
    83.6856     2834.00000
    83.6987     2936.00000
    83.7119     3035.00000
    83.7250     3286.00000
    83.7381     3317.00000
    83.7513     3464.00000
    83.7644     3405.00000
    83.7775     3453.00000
    83.7907     3331.00000
    83.8038     3193.00000
    83.8169     3066.00000
    83.8300     2801.00000
    83.8432     2798.00000
    83.8563     2678.00000
    83.8694     2669.00000
    83.8826     2632.00000
    83.8957     2590.00000
    83.9088     2490.00000
    83.9220     2592.00000
    83.9351     2566.00000
    83.9482     2671.00000
    83.9613     2623.00000
    83.9745     2744.00000
    83.9876     2751.00000
    84.0007     2807.00000
    84.0139     2834.00000
    84.0270     2853.00000
    84.0401     2835.00000
    84.0533     2765.00000
    84.0664     2622.00000
    84.0795     2557.00000
    84.0927     2525.00000
    84.1058     2584.00000
    84.1189     2376.00000
    84.1320     2410.00000
    84.1452     2425.00000
    84.1583     2429.00000
    84.1714     2336.00000
    84.1846     2449.00000
    84.1977     2384.00000
    84.2108     2413.00000
    84.2240     2429.00000
    84.2371     2395.00000
    84.2502     2464.00000
    84.2633     2378.00000
    84.2765     2373.00000
    84.2896     2320.00000
    84.3027     2429.00000
    84.3159     2412.00000
    84.3290     2406.00000
    84.3421     2398.00000
    84.3553     2409.00000
    84.3684     2395.00000
    84.3815     2474.00000
    84.3946     2490.00000
    84.4078     2423.00000
    84.4209     2537.00000
    84.4340     2508.00000
    84.4472     2529.00000
    84.4603     2462.00000
    84.4734     2480.00000
    84.4866     2506.00000
    84.4997     2501.00000
    84.5128     2531.00000
    84.5260     2476.00000
    84.5391     2448.00000
    84.5522     2448.00000
    84.5653     2375.00000
    84.5785     2460.00000
    84.5916     2383.00000
    84.6047     2321.00000
    84.6179     2303.00000
    84.6310     2353.00000
    84.6441     2338.00000
    84.6573     2459.00000
    84.6704     2413.00000
    84.6835     2445.00000
    84.6966     2448.00000
    84.7098     2500.00000
    84.7229     2427.00000
    84.7360     2449.00000
    84.7492     2366.00000
    84.7623     2364.00000
    84.7754     2495.00000
    84.7886     2453.00000
    84.8017     2402.00000
    84.8148     2455.00000
    84.8279     2478.00000
    84.8411     2403.00000
    84.8542     2446.00000
    84.8673     2528.00000
    84.8805     2545.00000
    84.8936     2566.00000
    84.9067     2443.00000
    84.9199     2384.00000
    84.9330     2385.00000
    84.9461     2347.00000
    84.9593     2432.00000
    84.9724     2358.00000
    84.9855     2394.00000
    84.9986     2400.00000
    85.0118     2405.00000
    85.0249     2408.00000
    85.0380     2456.00000
    85.0512     2304.00000
    85.0643     2422.00000
    85.0774     2387.00000
    85.0906     2413.00000
    85.1037     2387.00000
    85.1168     2490.00000
    85.1299     2321.00000
    85.1431     2383.00000
    85.1562     2401.00000
    85.1693     2486.00000
    85.1825     2453.00000
    85.1956     2487.00000
    85.2087     2501.00000
    85.2219     2473.00000
    85.2350     2482.00000
    85.2481     2504.00000
    85.2612     2519.00000
    85.2744     2648.00000
    85.2875     2670.00000
    85.3006     2766.00000
    85.3138     2830.00000
    85.3269     2737.00000
    85.3400     2823.00000
    85.3532     2851.00000
    85.3663     2960.00000
    85.3794     2899.00000
    85.3925     2905.00000
    85.4057     3059.00000
    85.4188     2906.00000
    85.4319     3003.00000
    85.4451     3112.00000
    85.4582     3089.00000
    85.4713     2927.00000
    85.4845     2926.00000
    85.4976     3040.00000
    85.5107     2945.00000
    85.5238     2909.00000
    85.5370     3013.00000
    85.5501     2949.00000
    85.5632     3049.00000
    85.5764     3271.00000
    85.5895     3366.00000
    85.6026     3530.00000
    85.6158     3599.00000
    85.6289     3800.00000
    85.6420     3928.00000
    85.6552     4035.00000
    85.6683     4040.00000
    85.6814     3995.00000
    85.6945     4099.00000
    85.7077     4009.00000
    85.7208     4069.00000
    85.7339     3957.00000
    85.7471     3799.00000
    85.7602     3652.00000
    85.7733     3530.00000
    85.7865     3620.00000
    85.7996     3513.00000
    85.8127     3359.00000
    85.8259     3310.00000
    85.8390     3416.00000
    85.8521     3395.00000
    85.8652     3549.00000
    85.8784     3455.00000
    85.8915     3524.00000
    85.9046     3597.00000
    85.9178     3547.00000
    85.9309     3418.00000
    85.9440     3476.00000
    85.9572     3373.00000
    85.9703     3227.00000
    85.9834     3222.00000
    85.9965     3114.00000
    86.0097     3011.00000
    86.0228     3035.00000
    86.0359     2967.00000
    86.0491     2814.00000
    86.0622     2759.00000
    86.0753     2870.00000
    86.0885     2686.00000
    86.1016     2810.00000
    86.1147     2643.00000
    86.1278     2668.00000
    86.1410     2707.00000
    86.1541     2604.00000
    86.1672     2665.00000
    86.1804     2489.00000
    86.1935     2574.00000
    86.2066     2505.00000
    86.2198     2495.00000
    86.2329     2460.00000
    86.2460     2526.00000
    86.2591     2522.00000
    86.2723     2541.00000
    86.2854     2396.00000
    86.2985     2419.00000
    86.3117     2532.00000
    86.3248     2474.00000
    86.3379     2496.00000
    86.3511     2456.00000
    86.3642     2461.00000
    86.3773     2402.00000
    86.3904     2461.00000
    86.4036     2480.00000
    86.4167     2462.00000
    86.4298     2517.00000
    86.4430     2613.00000
    86.4561     2622.00000
    86.4692     2682.00000
    86.4824     2659.00000
    86.4955     2896.00000
    86.5086     2939.00000
    86.5218     2904.00000
    86.5349     3096.00000
    86.5480     3020.00000
    86.5611     3107.00000
    86.5743     2858.00000
    86.5874     2757.00000
    86.6005     2811.00000
    86.6137     2696.00000
    86.6268     2700.00000
    86.6399     2682.00000
    86.6531     2599.00000
    86.6662     2571.00000
    86.6793     2527.00000
    86.6925     2616.00000
    86.7056     2489.00000
    86.7187     2595.00000
    86.7318     2518.00000
    86.7450     2648.00000
    86.7581     2692.00000
    86.7712     2611.00000
    86.7844     2726.00000
    86.7975     2811.00000
    86.8106     2907.00000
    86.8238     2857.00000
    86.8369     2769.00000
    86.8500     2690.00000
    86.8631     2680.00000
    86.8763     2681.00000
    86.8894     2679.00000
    86.9025     2809.00000
    86.9157     2793.00000
    86.9288     2903.00000
    86.9419     2925.00000
    86.9551     3012.00000
    86.9682     3040.00000
    86.9813     3301.00000
    86.9944     3265.00000
    87.0076     3258.00000
    87.0207     3234.00000
    87.0338     3256.00000
    87.0470     3152.00000
    87.0601     3029.00000
    87.0732     2925.00000
    87.0864     2803.00000
    87.0995     2795.00000
    87.1126     2818.00000
    87.1257     2684.00000
    87.1389     2709.00000
    87.1520     2708.00000
    87.1651     2581.00000
    87.1783     2766.00000
    87.1914     2780.00000
    87.2045     2890.00000
    87.2177     2919.00000
    87.2308     2935.00000
    87.2439     3134.00000
    87.2570     3174.00000
    87.2702     3289.00000
    87.2833     3250.00000
    87.2964     3151.00000
    87.3096     3017.00000
    87.3227     2875.00000
    87.3358     2786.00000
    87.3490     2804.00000
    87.3621     2739.00000
    87.3752     2684.00000
    87.3884     2612.00000
    87.4015     2604.00000
    87.4146     2652.00000
    87.4277     2540.00000
    87.4409     2687.00000
    87.4540     2548.00000
    87.4671     2710.00000
    87.4803     2717.00000
    87.4934     2692.00000
    87.5065     2768.00000
    87.5197     2841.00000
    87.5328     2887.00000
    87.5459     3070.00000
    87.5590     3077.00000
    87.5722     3058.00000
    87.5853     3141.00000
    87.5984     3283.00000
    87.6116     3347.00000
    87.6247     3366.00000
    87.6378     3371.00000
    87.6510     3306.00000
    87.6641     3145.00000
    87.6772     3107.00000
    87.6904     2991.00000
    87.7035     2860.00000
    87.7166     2879.00000
    87.7297     2743.00000
    87.7429     2713.00000
    87.7560     2724.00000
    87.7691     2696.00000
    87.7823     2725.00000
    87.7954     2699.00000
    87.8085     2745.00000
    87.8217     2854.00000
    87.8348     2944.00000
    87.8479     3111.00000
    87.8610     3098.00000
    87.8742     3249.00000
    87.8873     3466.00000
    87.9004     3642.00000
    87.9136     3535.00000
    87.9267     3954.00000
    87.9398     3875.00000
    87.9530     3942.00000
    87.9661     3921.00000
    87.9792     3560.00000
    87.9923     3409.00000
    88.0055     3353.00000
    88.0186     3060.00000
    88.0317     3082.00000
    88.0449     2996.00000
    88.0580     2856.00000
    88.0711     2839.00000
    88.0843     2882.00000
    88.0974     2925.00000
    88.1105     2910.00000
    88.1236     2934.00000
    88.1368     2873.00000
    88.1499     3039.00000
    88.1630     2990.00000
    88.1762     2980.00000
    88.1893     3018.00000
    88.2024     3059.00000
    88.2156     3094.00000
    88.2287     2970.00000
    88.2418     2929.00000
    88.2550     2961.00000
    88.2681     2964.00000
    88.2812     2845.00000
    88.2943     2931.00000
    88.3075     2825.00000
    88.3206     2802.00000
    88.3337     2687.00000
    88.3469     2765.00000
    88.3600     2738.00000
    88.3731     2863.00000
    88.3863     2848.00000
    88.3994     2997.00000
    88.4125     2898.00000
    88.4256     3069.00000
    88.4388     3053.00000
    88.4519     3191.00000
    88.4650     3262.00000
    88.4782     3393.00000
    88.4913     3629.00000
    88.5044     3612.00000
    88.5176     3661.00000
    88.5307     3792.00000
    88.5438     3875.00000
    88.5569     3882.00000
    88.5701     3880.00000
    88.5832     3670.00000
    88.5963     3560.00000
    88.6095     3431.00000
    88.6226     3047.00000
    88.6357     2919.00000
    88.6489     2993.00000
    88.6620     2867.00000
    88.6751     2863.00000
    88.6882     2782.00000
    88.7014     2861.00000
    88.7145     2798.00000
    88.7276     2756.00000
    88.7408     2924.00000
    88.7539     2877.00000
    88.7670     2980.00000
    88.7802     3006.00000
    88.7933     2931.00000
    88.8064     3098.00000
    88.8196     3071.00000
    88.8327     3032.00000
    88.8458     3083.00000
    88.8589     3108.00000
    88.8721     3052.00000
    88.8852     2966.00000
    88.8983     2864.00000
    88.9115     2700.00000
    88.9246     2646.00000
    88.9377     2599.00000
    88.9509     2603.00000
    88.9640     2513.00000
    88.9771     2592.00000
    88.9902     2582.00000
    89.0034     2534.00000
    89.0165     2656.00000
    89.0296     2624.00000
    89.0428     2647.00000
    89.0559     2743.00000
    89.0690     2807.00000
    89.0822     3002.00000
    89.0953     3027.00000
    89.1084     3030.00000
    89.1216     3187.00000
    89.1347     3199.00000
    89.1478     3246.00000
    89.1609     3201.00000
    89.1741     3236.00000
    89.1872     3109.00000
    89.2003     3023.00000
    89.2135     2898.00000
    89.2266     2676.00000
    89.2397     2770.00000
    89.2529     2662.00000
    89.2660     2509.00000
    89.2791     2626.00000
    89.2922     2544.00000
    89.3054     2617.00000
    89.3185     2615.00000
    89.3316     2585.00000
    89.3448     2549.00000
    89.3579     2547.00000
    89.3710     2694.00000
    89.3842     2810.00000
    89.3973     2880.00000
    89.4104     2957.00000
    89.4235     2858.00000
    89.4367     3020.00000
    89.4498     2895.00000
    89.4629     2802.00000
    89.4761     2688.00000
    89.4892     2632.00000
    89.5023     2645.00000
    89.5155     2480.00000
    89.5286     2591.00000
    89.5417     2487.00000
    89.5548     2650.00000
    89.5680     2340.00000
    89.5811     2408.00000
    89.5942     2410.00000
    89.6074     2474.00000
    89.6205     2476.00000
    89.6336     2386.00000
    89.6468     2453.00000
    89.6599     2535.00000
    89.6730     2631.00000
    89.6861     2534.00000
    89.6993     2593.00000
    89.7124     2732.00000
    89.7255     2679.00000
    89.7387     2806.00000
    89.7518     2832.00000
    89.7649     2974.00000
    89.7781     3103.00000
    89.7912     3240.00000
    89.8043     3343.00000
    89.8175     3540.00000
    89.8306     3596.00000
    89.8437     3846.00000
    89.8568     3759.00000
    89.8700     3675.00000
    89.8831     3349.00000
    89.8962     3077.00000
    89.9094     3036.00000
    89.9225     2882.00000
    89.9356     2770.00000
    89.9488     2638.00000
    89.9619     2662.00000
    89.9750     2665.00000
    89.9882     2753.00000
    90.0013     2631.00000
    90.0144     2708.00000
    90.0275     2707.00000
    90.0407     2827.00000
    90.0538     2825.00000
    90.0669     2769.00000
    90.0801     2883.00000
    90.0932     2932.00000
    90.1063     3142.00000
    90.1195     3133.00000
    90.1326     3174.00000
    90.1457     3203.00000
    90.1588     3209.00000
    90.1720     3164.00000
    90.1851     3049.00000
    90.1982     3062.00000
    90.2114     2947.00000
    90.2245     3113.00000
    90.2376     3131.00000
    90.2508     3188.00000
    90.2639     3343.00000
    90.2770     3273.00000
    90.2901     3325.00000
    90.3033     3277.00000
    90.3164     3203.00000
    90.3295     3053.00000
    90.3427     2997.00000
    90.3558     3035.00000
    90.3689     3071.00000
    90.3821     3033.00000
    90.3952     3137.00000
    90.4083     3028.00000
    90.4214     3034.00000
    90.4346     3049.00000
    90.4477     2990.00000
    90.4608     2991.00000
    90.4740     2900.00000
    90.4871     3007.00000
    90.5002     2978.00000
    90.5134     3035.00000
    90.5265     3024.00000
    90.5396     3052.00000
    90.5527     3256.00000
    90.5659     3161.00000
    90.5790     3133.00000
    90.5921     3070.00000
    90.6053     3071.00000
    90.6184     3131.00000
    90.6315     3040.00000
    90.6447     3052.00000
    90.6578     3017.00000
    90.6709     3036.00000
    90.6841     2994.00000
    90.6972     3009.00000
    90.7103     3062.00000
    90.7234     2901.00000
    90.7366     3038.00000
    90.7497     2891.00000
    90.7628     3028.00000
    90.7760     2938.00000
    90.7891     2972.00000
    90.8022     2861.00000
    90.8154     2885.00000
    90.8285     2948.00000
    90.8416     3000.00000
    90.8548     3096.00000
    90.8679     3352.00000
    90.8810     3471.00000
    90.8941     3377.00000
    90.9073     3373.00000
    90.9204     3232.00000
    90.9335     3208.00000
    90.9467     2966.00000
    90.9598     2901.00000
    90.9729     2769.00000
    90.9861     2803.00000
    90.9992     2740.00000
    91.0123     2726.00000
    91.0254     2727.00000
    91.0386     2743.00000
    91.0517     2732.00000
    91.0648     2689.00000
    91.0780     2732.00000
    91.0911     2818.00000
    91.1042     2863.00000
    91.1174     2800.00000
    91.1305     2992.00000
    91.1436     2898.00000
    91.1567     2996.00000
    91.1699     3027.00000
    91.1830     3211.00000
    91.1961     3253.00000
    91.2093     3298.00000
    91.2224     3328.00000
    91.2355     3328.00000
    91.2487     3589.00000
    91.2618     3562.00000
    91.2749     3743.00000
    91.2880     3894.00000
    91.3012     3928.00000
    91.3143     3886.00000
    91.3274     3894.00000
    91.3406     3757.00000
    91.3537     3847.00000
    91.3668     3814.00000
    91.3800     3723.00000
    91.3931     3797.00000
    91.4062     3623.00000
    91.4193     3579.00000
    91.4325     3442.00000
    91.4456     3221.00000
    91.4587     3136.00000
    91.4719     3026.00000
    91.4850     3021.00000
    91.4981     2956.00000
    91.5113     3029.00000
    91.5244     2936.00000
    91.5375     3079.00000
    91.5507     3016.00000
    91.5638     3184.00000
    91.5769     3118.00000
    91.5900     3240.00000
    91.6032     3348.00000
    91.6163     3458.00000
    91.6294     3371.00000
    91.6426     3362.00000
    91.6557     3419.00000
    91.6688     3536.00000
    91.6820     3472.00000
    91.6951     3561.00000
    91.7082     3670.00000
    91.7213     3790.00000
    91.7345     3908.00000
    91.7476     3925.00000
    91.7607     3911.00000
    91.7739     3802.00000
    91.7870     3659.00000
    91.8001     3505.00000
    91.8133     3289.00000
    91.8264     3016.00000
    91.8395     3067.00000
    91.8526     3002.00000
    91.8658     2880.00000
    91.8789     2831.00000
    91.8920     3007.00000
    91.9052     2879.00000
    91.9183     3010.00000
    91.9314     2921.00000
    91.9446     3034.00000
    91.9577     3052.00000
    91.9708     3197.00000
    91.9840     3149.00000
    91.9971     3273.00000
    92.0102     3244.00000
    92.0233     3350.00000
    92.0365     3235.00000
    92.0496     3451.00000
    92.0627     3253.00000
    92.0759     3243.00000
    92.0890     3181.00000
    92.1021     3001.00000
    92.1153     3031.00000
    92.1284     2975.00000
    92.1415     2930.00000
    92.1546     3021.00000
    92.1678     2866.00000
    92.1809     2894.00000
    92.1940     2844.00000
    92.2072     2782.00000
    92.2203     2701.00000
    92.2334     2761.00000
    92.2466     2690.00000
    92.2597     2741.00000
    92.2728     2737.00000
    92.2859     2672.00000
    92.2991     2668.00000
    92.3122     2632.00000
    92.3253     2622.00000
    92.3385     2523.00000
    92.3516     2624.00000
    92.3647     2503.00000
    92.3779     2549.00000
    92.3910     2670.00000
    92.4041     2603.00000
    92.4173     2608.00000
    92.4304     2594.00000
    92.4435     2739.00000
    92.4566     2673.00000
    92.4698     2705.00000
    92.4829     2775.00000
    92.4960     2736.00000
    92.5092     2841.00000
    92.5223     2830.00000
    92.5354     2839.00000
    92.5486     2819.00000
    92.5617     2866.00000
    92.5748     2774.00000
    92.5879     2760.00000
    92.6011     2781.00000
    92.6142     2771.00000
    92.6273     2846.00000
    92.6405     2819.00000
    92.6536     2853.00000
    92.6667     2780.00000
    92.6799     2817.00000
    92.6930     2758.00000
    92.7061     2746.00000
    92.7192     2939.00000
    92.7324     2822.00000
    92.7455     2944.00000
    92.7586     2954.00000
    92.7718     2891.00000
    92.7849     3000.00000
    92.7980     3122.00000
    92.8112     3066.00000
    92.8243     3195.00000
    92.8374     3239.00000
    92.8505     3279.00000
    92.8637     3328.00000
    92.8768     3462.00000
    92.8899     3789.00000
    92.9031     3734.00000
    92.9162     3801.00000
    92.9293     3722.00000
    92.9425     3622.00000
    92.9556     3527.00000
    92.9687     3505.00000
    92.9819     3194.00000
    92.9950     3064.00000
    93.0081     2987.00000
    93.0212     2881.00000
    93.0344     2927.00000
    93.0475     2691.00000
    93.0606     2795.00000
    93.0738     2818.00000
    93.0869     2635.00000
    93.1000     2798.00000
    93.1132     2693.00000
    93.1263     2696.00000
    93.1394     2767.00000
    93.1525     2842.00000
    93.1657     2899.00000
    93.1788     2951.00000
    93.1919     3097.00000
    93.2051     2926.00000
    93.2182     3066.00000
    93.2313     3077.00000
    93.2445     3004.00000
    93.2576     2817.00000
    93.2707     2831.00000
    93.2839     2747.00000
    93.2970     2667.00000
    93.3101     2612.00000
    93.3232     2600.00000
    93.3364     2458.00000
    93.3495     2517.00000
    93.3626     2402.00000
    93.3758     2409.00000
    93.3889     2419.00000
    93.4020     2394.00000
    93.4152     2454.00000
    93.4283     2392.00000
    93.4414     2478.00000
    93.4545     2459.00000
    93.4677     2452.00000
    93.4808     2408.00000
    93.4939     2283.00000
    93.5071     2357.00000
    93.5202     2397.00000
    93.5333     2405.00000
    93.5465     2458.00000
    93.5596     2359.00000
    93.5727     2379.00000
    93.5858     2328.00000
    93.5990     2297.00000
    93.6121     2383.00000
    93.6252     2342.00000
    93.6384     2341.00000
    93.6515     2400.00000
    93.6646     2400.00000
    93.6778     2285.00000
    93.6909     2367.00000
    93.7040     2273.00000
    93.7171     2342.00000
    93.7303     2284.00000
    93.7434     2304.00000
    93.7565     2381.00000
    93.7697     2328.00000
    93.7828     2417.00000
    93.7959     2326.00000
    93.8091     2346.00000
    93.8222     2342.00000
    93.8353     2339.00000
    93.8484     2336.00000
    93.8616     2308.00000
    93.8747     2373.00000
    93.8878     2362.00000
    93.9010     2329.00000
    93.9141     2389.00000
    93.9272     2416.00000
    93.9404     2398.00000
    93.9535     2361.00000
    93.9666     2388.00000
    93.9798     2418.00000
    93.9929     2410.00000
    94.0060     2488.00000
    94.0191     2527.00000
    94.0323     2437.00000
    94.0454     2574.00000
    94.0585     2623.00000
    94.0717     2768.00000
    94.0848     2769.00000
    94.0979     2902.00000
    94.1111     3022.00000
    94.1242     3248.00000
    94.1373     3282.00000
    94.1505     3123.00000
    94.1636     3162.00000
    94.1767     3104.00000
    94.1898     2989.00000
    94.2030     2880.00000
    94.2161     2921.00000
    94.2292     2863.00000
    94.2424     2827.00000
    94.2555     2865.00000
    94.2686     2818.00000
    94.2818     2775.00000
    94.2949     2858.00000
    94.3080     2805.00000
    94.3211     2799.00000
    94.3343     2882.00000
    94.3474     2844.00000
    94.3605     2742.00000
    94.3737     2823.00000
    94.3868     2919.00000
    94.3999     2973.00000
    94.4131     2796.00000
    94.4262     2939.00000
    94.4393     2949.00000
    94.4524     2843.00000
    94.4656     2856.00000
    94.4787     2796.00000
    94.4918     2717.00000
    94.5050     2701.00000
    94.5181     2712.00000
    94.5312     2726.00000
    94.5444     2661.00000
    94.5575     2609.00000
    94.5706     2590.00000
    94.5837     2725.00000
    94.5969     2674.00000
    94.6100     2615.00000
    94.6231     2647.00000
    94.6363     2636.00000
    94.6494     2732.00000
    94.6625     2657.00000
    94.6757     2752.00000
    94.6888     2714.00000
    94.7019     2784.00000
    94.7150     2767.00000
    94.7282     2878.00000
    94.7413     2811.00000
    94.7544     2979.00000
    94.7676     3080.00000
    94.7807     3204.00000
    94.7938     3353.00000
    94.8070     3350.00000
    94.8201     3521.00000
    94.8332     3507.00000
    94.8464     3489.00000
    94.8595     3504.00000
    94.8726     3296.00000
    94.8857     3211.00000
    94.8989     3345.00000
    94.9120     3118.00000
    94.9251     2981.00000
    94.9383     3011.00000
    94.9514     2925.00000
    94.9645     2876.00000
    94.9777     2821.00000
    94.9908     2763.00000
    95.0039     2700.00000
    95.0170     2864.00000
    95.0302     2662.00000
    95.0433     2815.00000
    95.0564     2578.00000
    95.0696     2712.00000
    95.0827     2671.00000
    95.0958     2832.00000
    95.1090     2882.00000
    95.1221     2878.00000
    95.1352     2948.00000
    95.1484     2909.00000
    95.1615     2865.00000
    95.1746     2811.00000
    95.1877     2893.00000
    95.2009     2763.00000
    95.2140     2601.00000
    95.2271     2642.00000
    95.2403     2582.00000
    95.2534     2598.00000
    95.2665     2568.00000
    95.2797     2575.00000
    95.2928     2561.00000
    95.3059     2598.00000
    95.3190     2473.00000
    95.3322     2488.00000
    95.3453     2424.00000
    95.3584     2346.00000
    95.3716     2401.00000
    95.3847     2393.00000
    95.3978     2321.00000
    95.4110     2293.00000
    95.4241     2335.00000
    95.4372     2318.00000
    95.4503     2287.00000
    95.4635     2266.00000
    95.4766     2376.00000
    95.4897     2390.00000
    95.5029     2406.00000
    95.5160     2279.00000
    95.5291     2259.00000
    95.5423     2353.00000
    95.5554     2337.00000
    95.5685     2307.00000
    95.5816     2413.00000
    95.5948     2325.00000
    95.6079     2330.00000
    95.6210     2367.00000
    95.6342     2415.00000
    95.6473     2359.00000
    95.6604     2364.00000
    95.6736     2290.00000
    95.6867     2376.00000
    95.6998     2278.00000
    95.7130     2316.00000
    95.7261     2344.00000
    95.7392     2343.00000
    95.7523     2345.00000
    95.7655     2430.00000
    95.7786     2347.00000
    95.7917     2354.00000
    95.8049     2288.00000
    95.8180     2357.00000
    95.8311     2270.00000
    95.8443     2376.00000
    95.8574     2330.00000
    95.8705     2377.00000
    95.8836     2342.00000
    95.8968     2292.00000
    95.9099     2294.00000
    95.9230     2239.00000
    95.9362     2300.00000
    95.9493     2361.00000
    95.9624     2235.00000
    95.9756     2378.00000
    95.9887     2347.00000
    96.0018     2336.00000
    96.0149     2345.00000
    96.0281     2339.00000
    96.0412     2336.00000
    96.0543     2335.00000
    96.0675     2330.00000
    96.0806     2216.00000
    96.0937     2428.00000
    96.1069     2352.00000
    96.1200     2369.00000
    96.1331     2351.00000
    96.1463     2324.00000
    96.1594     2286.00000
    96.1725     2461.00000
    96.1856     2340.00000
    96.1988     2262.00000
    96.2119     2380.00000
    96.2250     2432.00000
    96.2382     2478.00000
    96.2513     2475.00000
    96.2644     2393.00000
    96.2776     2410.00000
    96.2907     2376.00000
    96.3038     2373.00000
    96.3169     2345.00000
    96.3301     2402.00000
    96.3432     2494.00000
    96.3563     2605.00000
    96.3695     2541.00000
    96.3826     2536.00000
    96.3957     2503.00000
    96.4089     2609.00000
    96.4220     2405.00000
    96.4351     2511.00000
    96.4482     2490.00000
    96.4614     2464.00000
    96.4745     2408.00000
    96.4876     2388.00000
    96.5008     2513.00000
    96.5139     2401.00000
    96.5270     2461.00000
    96.5402     2490.00000
    96.5533     2428.00000
    96.5664     2473.00000
    96.5796     2419.00000
    96.5927     2434.00000
    96.6058     2431.00000
    96.6189     2426.00000
    96.6321     2485.00000
    96.6452     2478.00000
    96.6583     2530.00000
    96.6715     2528.00000
    96.6846     2597.00000
    96.6977     2670.00000
    96.7109     2644.00000
    96.7240     2627.00000
    96.7371     2690.00000
    96.7502     2693.00000
    96.7634     2751.00000
    96.7765     2850.00000
    96.7896     2928.00000
    96.8028     2815.00000
    96.8159     2938.00000
    96.8290     2962.00000
    96.8422     3036.00000
    96.8553     3007.00000
    96.8684     3103.00000
    96.8815     3256.00000
    96.8947     3327.00000
    96.9078     3366.00000
    96.9209     3568.00000
    96.9341     3602.00000
    96.9472     3651.00000
    96.9603     3634.00000
    96.9735     3485.00000
    96.9866     3307.00000
    96.9997     3256.00000
    97.0128     3102.00000
    97.0260     3061.00000
    97.0391     3017.00000
    97.0522     2909.00000
    97.0654     2812.00000
    97.0785     2861.00000
    97.0916     2964.00000
    97.1048     2871.00000
    97.1179     2960.00000
    97.1310     3028.00000
    97.1442     3046.00000
    97.1573     3206.00000
    97.1704     3234.00000
    97.1835     3318.00000
    97.1967     3507.00000
    97.2098     3577.00000
    97.2229     3776.00000
    97.2361     3736.00000
    97.2492     3477.00000
    97.2623     3501.00000
    97.2755     3542.00000
    97.2886     3332.00000
    97.3017     3197.00000
    97.3148     3101.00000
    97.3280     3050.00000
    97.3411     2822.00000
    97.3542     2786.00000
    97.3674     2664.00000
    97.3805     2642.00000
    97.3936     2656.00000
    97.4068     2647.00000
    97.4199     2645.00000
    97.4330     2613.00000
    97.4462     2730.00000
    97.4593     2673.00000
    97.4724     2778.00000
    97.4855     2828.00000
    97.4987     2773.00000
    97.5118     3046.00000
    97.5249     3049.00000
    97.5381     3198.00000
    97.5512     3158.00000
    97.5643     3179.00000
    97.5775     3174.00000
    97.5906     3325.00000
    97.6037     3203.00000
    97.6168     3244.00000
    97.6300     3142.00000
    97.6431     3067.00000
    97.6562     3225.00000
    97.6694     3111.00000
    97.6825     3106.00000
    97.6956     3037.00000
    97.7088     3135.00000
    97.7219     3106.00000
    97.7350     3058.00000
    97.7481     3176.00000
    97.7613     3110.00000
    97.7744     3145.00000
    97.7875     3198.00000
    97.8007     3160.00000
    97.8138     3097.00000
    97.8269     3001.00000
    97.8401     3069.00000
    97.8532     2928.00000
    97.8663     2818.00000
    97.8794     2865.00000
    97.8926     2828.00000
    97.9057     2825.00000
    97.9188     2815.00000
    97.9320     2788.00000
    97.9451     2811.00000
    97.9582     2821.00000
    97.9714     2638.00000
    97.9845     2747.00000
    97.9976     2769.00000
    98.0107     2752.00000
    98.0239     2778.00000
    98.0370     2722.00000
    98.0501     2711.00000
    98.0633     2704.00000
    98.0764     2757.00000
    98.0895     2757.00000
    98.1027     2715.00000
    98.1158     2655.00000
    98.1289     2617.00000
    98.1421     2737.00000
    98.1552     2649.00000
    98.1683     2512.00000
    98.1814     2534.00000
    98.1946     2592.00000
    98.2077     2498.00000
    98.2208     2427.00000
    98.2340     2391.00000
    98.2471     2481.00000
    98.2602     2347.00000
    98.2734     2396.00000
    98.2865     2375.00000
    98.2996     2407.00000
    98.3128     2467.00000
    98.3259     2381.00000
    98.3390     2375.00000
    98.3521     2466.00000
    98.3653     2485.00000
    98.3784     2553.00000
    98.3915     2453.00000
    98.4047     2414.00000
    98.4178     2414.00000
    98.4309     2414.00000
    98.4441     2416.00000
    98.4572     2458.00000
    98.4703     2352.00000
    98.4834     2520.00000
    98.4966     2449.00000
    98.5097     2477.00000
    98.5228     2565.00000
    98.5360     2530.00000
    98.5491     2530.00000
    98.5622     2597.00000
    98.5754     2590.00000
    98.5885     2674.00000
    98.6016     2616.00000
    98.6147     2733.00000
    98.6279     2748.00000
    98.6410     2943.00000
    98.6541     3039.00000
    98.6673     3102.00000
    98.6804     3247.00000
    98.6935     3411.00000
    98.7067     3559.00000
    98.7198     3815.00000
    98.7329     3886.00000
    98.7460     3879.00000
    98.7592     3847.00000
    98.7723     3744.00000
    98.7854     3891.00000
    98.7986     3833.00000
    98.8117     3883.00000
    98.8248     3628.00000
    98.8380     3562.00000
    98.8511     3512.00000
    98.8642     3529.00000
    98.8773     3459.00000
    98.8905     3329.00000
    98.9036     3329.00000
    98.9167     3395.00000
    98.9299     3304.00000
    98.9430     3431.00000
    98.9561     3480.00000
    98.9693     3484.00000
    98.9824     3714.00000
    98.9955     3732.00000
    99.0087     4067.00000
    99.0218     4249.00000
    99.0349     4287.00000
    99.0480     4449.00000
    99.0612     4440.00000
    99.0743     4476.00000
    99.0874     4483.00000
    99.1006     4573.00000
    99.1137     4611.00000
    99.1268     4688.00000
    99.1400     4657.00000
    99.1531     4445.00000
    99.1662     4404.00000
    99.1793     4337.00000
    99.1925     4079.00000
    99.2056     3895.00000
    99.2187     3957.00000
    99.2319     3665.00000
    99.2450     3476.00000
    99.2581     3413.00000
    99.2713     3311.00000
    99.2844     3348.00000
    99.2975     3426.00000
    99.3107     3381.00000
    99.3238     3407.00000
    99.3369     3432.00000
    99.3500     3546.00000
    99.3632     3579.00000
    99.3763     3688.00000
    99.3894     3795.00000
    99.4026     3767.00000
    99.4157     3806.00000
    99.4288     3861.00000
    99.4420     3995.00000
    99.4551     3984.00000
    99.4682     3912.00000
    99.4813     4128.00000
    99.4945     3973.00000
    99.5076     4004.00000
    99.5207     4099.00000
    99.5339     4001.00000
    99.5470     3917.00000
    99.5601     3985.00000
    99.5733     3759.00000
    99.5864     3874.00000
    99.5995     3732.00000
    99.6126     3716.00000
    99.6258     3586.00000
    99.6389     3439.00000
    99.6520     3541.00000
    99.6652     3273.00000
    99.6783     3378.00000
    99.6914     3228.00000
    99.7046     3135.00000
    99.7177     3006.00000
    99.7308     2984.00000
    99.7439     2888.00000
    99.7571     2983.00000
    99.7702     2917.00000
    99.7833     2876.00000
    99.7965     3033.00000
    99.8096     2881.00000
    99.8227     2972.00000
    99.8359     2995.00000
    99.8490     3050.00000
    99.8621     3005.00000
    99.8753     3039.00000
    99.8884     3102.00000
    99.9015     3089.00000
    99.9146     3239.00000
    99.9278     3275.00000
    99.9409     3215.00000
    99.9540     3364.00000
    99.9672     3472.00000
    99.9803     3549.00000
    99.9934     3637.00000
