! Initial file:   D:\ZAKARY_OUAIL\MA_THESE\Deuxième_année_de_thèse\DRX\Manips_DRX\1st_NaTaO2F2_XRK900\NaTaO2F2-Lent_140°C.xrdml
! Initial format:  58
! WAVE (A):      1.54060     1.54060     1.00000
! REM : data have been multiplied by     1.0000
! X_data : 2 Theta (deg.)                                                                                                                                                                                                                                                  
! Y_data : Intensity (arb. units)                                                                                                                                                                                                                                          
!     X         Y
!--------------------------------------------------------------------------------
    10.0116     6876.00000
    10.0247     6939.00000
    10.0379     6753.00000
    10.0510     7052.00000
    10.0641     6801.00000
    10.0772     6753.00000
    10.0904     6747.00000
    10.1035     6794.00000
    10.1166     6816.00000
    10.1298     6785.00000
    10.1429     6844.00000
    10.1560     6865.00000
    10.1692     6655.00000
    10.1823     6820.00000
    10.1954     6780.00000
    10.2086     6678.00000
    10.2217     6621.00000
    10.2348     6759.00000
    10.2479     6744.00000
    10.2611     6737.00000
    10.2742     6628.00000
    10.2873     6716.00000
    10.3005     6808.00000
    10.3136     6667.00000
    10.3267     6660.00000
    10.3399     6830.00000
    10.3530     6724.00000
    10.3661     6668.00000
    10.3792     6714.00000
    10.3924     6615.00000
    10.4055     6676.00000
    10.4186     6522.00000
    10.4318     6704.00000
    10.4449     6605.00000
    10.4580     6611.00000
    10.4712     6549.00000
    10.4843     6715.00000
    10.4974     6585.00000
    10.5105     6606.00000
    10.5237     6386.00000
    10.5368     6443.00000
    10.5499     6708.00000
    10.5631     6863.00000
    10.5762     6468.00000
    10.5893     6490.00000
    10.6025     6516.00000
    10.6156     6503.00000
    10.6287     6611.00000
    10.6418     6460.00000
    10.6550     6476.00000
    10.6681     6766.00000
    10.6812     6665.00000
    10.6944     6448.00000
    10.7075     6613.00000
    10.7206     6766.00000
    10.7338     6698.00000
    10.7469     6759.00000
    10.7600     6663.00000
    10.7732     6878.00000
    10.7863     6835.00000
    10.7994     6692.00000
    10.8125     6731.00000
    10.8257     6829.00000
    10.8388     6781.00000
    10.8519     6719.00000
    10.8651     6807.00000
    10.8782     6943.00000
    10.8913     7120.00000
    10.9045     7149.00000
    10.9176     7238.00000
    10.9307     7359.00000
    10.9438     7469.00000
    10.9570     7693.00000
    10.9701     7958.00000
    10.9832     8530.00000
    10.9964     9606.00000
    11.0095    10510.00000
    11.0226    11503.00000
    11.0358    13264.00000
    11.0489    16657.00000
    11.0620    22064.00000
    11.0751    28179.00000
    11.0883    36353.00000
    11.1014    45848.00000
    11.1145    51122.00000
    11.1277    51521.00000
    11.1408    46893.00000
    11.1539    38363.00000
    11.1671    31269.00000
    11.1802    24750.00000
    11.1933    18999.00000
    11.2065    14464.00000
    11.2196    11568.00000
    11.2327     9379.00000
    11.2458     8319.00000
    11.2590     7618.00000
    11.2721     7216.00000
    11.2852     7133.00000
    11.2984     6929.00000
    11.3115     6868.00000
    11.3246     6656.00000
    11.3378     6744.00000
    11.3509     6629.00000
    11.3640     6547.00000
    11.3771     6679.00000
    11.3903     6509.00000
    11.4034     6353.00000
    11.4165     6433.00000
    11.4297     6449.00000
    11.4428     6170.00000
    11.4559     6376.00000
    11.4691     6244.00000
    11.4822     6356.00000
    11.4953     6399.00000
    11.5084     6549.00000
    11.5216     6413.00000
    11.5347     6390.00000
    11.5478     6271.00000
    11.5610     6266.00000
    11.5741     6277.00000
    11.5872     6332.00000
    11.6004     6319.00000
    11.6135     6327.00000
    11.6266     6264.00000
    11.6398     6246.00000
    11.6529     6185.00000
    11.6660     6244.00000
    11.6791     6241.00000
    11.6923     6305.00000
    11.7054     6271.00000
    11.7185     6289.00000
    11.7317     6183.00000
    11.7448     6160.00000
    11.7579     6077.00000
    11.7711     6103.00000
    11.7842     6193.00000
    11.7973     6217.00000
    11.8104     6151.00000
    11.8236     6232.00000
    11.8367     6102.00000
    11.8498     6152.00000
    11.8630     6199.00000
    11.8761     6112.00000
    11.8892     6148.00000
    11.9024     6101.00000
    11.9155     6002.00000
    11.9286     6046.00000
    11.9417     6101.00000
    11.9549     6049.00000
    11.9680     6024.00000
    11.9811     6088.00000
    11.9943     6097.00000
    12.0074     6116.00000
    12.0205     6092.00000
    12.0337     6082.00000
    12.0468     6030.00000
    12.0599     5936.00000
    12.0731     6033.00000
    12.0862     6043.00000
    12.0993     6000.00000
    12.1124     6058.00000
    12.1256     6000.00000
    12.1387     6072.00000
    12.1518     6121.00000
    12.1650     5981.00000
    12.1781     5926.00000
    12.1912     6025.00000
    12.2044     6005.00000
    12.2175     5920.00000
    12.2306     5895.00000
    12.2437     5894.00000
    12.2569     5926.00000
    12.2700     5900.00000
    12.2831     5823.00000
    12.2963     5873.00000
    12.3094     5863.00000
    12.3225     6059.00000
    12.3357     5889.00000
    12.3488     6026.00000
    12.3619     6038.00000
    12.3750     5916.00000
    12.3882     5932.00000
    12.4013     5799.00000
    12.4144     5885.00000
    12.4276     5829.00000
    12.4407     5839.00000
    12.4538     5924.00000
    12.4670     5886.00000
    12.4801     5851.00000
    12.4932     5797.00000
    12.5063     5895.00000
    12.5195     5879.00000
    12.5326     5778.00000
    12.5457     5936.00000
    12.5589     5747.00000
    12.5720     6012.00000
    12.5851     5811.00000
    12.5983     5879.00000
    12.6114     5781.00000
    12.6245     5791.00000
    12.6377     5756.00000
    12.6508     5788.00000
    12.6639     5754.00000
    12.6770     5850.00000
    12.6902     5720.00000
    12.7033     5651.00000
    12.7164     5820.00000
    12.7296     5760.00000
    12.7427     5717.00000
    12.7558     5768.00000
    12.7690     5699.00000
    12.7821     5670.00000
    12.7952     5711.00000
    12.8083     5778.00000
    12.8215     5753.00000
    12.8346     5788.00000
    12.8477     5852.00000
    12.8609     5605.00000
    12.8740     5671.00000
    12.8871     5727.00000
    12.9003     5746.00000
    12.9134     5802.00000
    12.9265     5688.00000
    12.9396     5545.00000
    12.9528     5638.00000
    12.9659     5694.00000
    12.9790     5758.00000
    12.9922     5684.00000
    13.0053     5632.00000
    13.0184     5721.00000
    13.0316     5671.00000
    13.0447     5641.00000
    13.0578     5629.00000
    13.0710     5718.00000
    13.0841     5618.00000
    13.0972     5625.00000
    13.1103     5538.00000
    13.1235     5611.00000
    13.1366     5628.00000
    13.1497     5725.00000
    13.1629     5436.00000
    13.1760     5618.00000
    13.1891     5530.00000
    13.2023     5673.00000
    13.2154     5522.00000
    13.2285     5516.00000
    13.2416     5553.00000
    13.2548     5669.00000
    13.2679     5574.00000
    13.2810     5482.00000
    13.2942     5528.00000
    13.3073     5743.00000
    13.3204     5522.00000
    13.3336     5597.00000
    13.3467     5524.00000
    13.3598     5711.00000
    13.3729     5671.00000
    13.3861     5553.00000
    13.3992     5594.00000
    13.4123     5565.00000
    13.4255     5556.00000
    13.4386     5671.00000
    13.4517     5636.00000
    13.4649     5614.00000
    13.4780     5524.00000
    13.4911     5519.00000
    13.5043     5565.00000
    13.5174     5533.00000
    13.5305     5500.00000
    13.5436     5450.00000
    13.5568     5639.00000
    13.5699     5577.00000
    13.5830     5491.00000
    13.5962     5421.00000
    13.6093     5447.00000
    13.6224     5443.00000
    13.6356     5454.00000
    13.6487     5360.00000
    13.6618     5399.00000
    13.6749     5568.00000
    13.6881     5404.00000
    13.7012     5405.00000
    13.7143     5321.00000
    13.7275     5467.00000
    13.7406     5308.00000
    13.7537     5552.00000
    13.7669     5473.00000
    13.7800     5324.00000
    13.7931     5472.00000
    13.8062     5438.00000
    13.8194     5514.00000
    13.8325     5329.00000
    13.8456     5251.00000
    13.8588     5406.00000
    13.8719     5396.00000
    13.8850     5564.00000
    13.8982     5410.00000
    13.9113     5440.00000
    13.9244     5396.00000
    13.9376     5385.00000
    13.9507     5277.00000
    13.9638     5379.00000
    13.9769     5372.00000
    13.9901     5439.00000
    14.0032     5383.00000
    14.0163     5359.00000
    14.0295     5319.00000
    14.0426     5394.00000
    14.0557     5350.00000
    14.0689     5327.00000
    14.0820     5252.00000
    14.0951     5353.00000
    14.1082     5248.00000
    14.1214     5321.00000
    14.1345     5399.00000
    14.1476     5329.00000
    14.1608     5209.00000
    14.1739     5360.00000
    14.1870     5253.00000
    14.2002     5166.00000
    14.2133     5282.00000
    14.2264     5167.00000
    14.2395     5236.00000
    14.2527     5226.00000
    14.2658     5257.00000
    14.2789     5281.00000
    14.2921     5274.00000
    14.3052     5234.00000
    14.3183     5384.00000
    14.3315     5246.00000
    14.3446     5350.00000
    14.3577     5175.00000
    14.3708     5192.00000
    14.3840     5219.00000
    14.3971     5082.00000
    14.4102     5301.00000
    14.4234     5075.00000
    14.4365     5211.00000
    14.4496     5322.00000
    14.4628     5224.00000
    14.4759     5210.00000
    14.4890     5300.00000
    14.5022     5249.00000
    14.5153     5195.00000
    14.5284     5290.00000
    14.5415     5253.00000
    14.5547     5068.00000
    14.5678     5266.00000
    14.5809     5336.00000
    14.5941     5172.00000
    14.6072     5156.00000
    14.6203     5042.00000
    14.6335     5134.00000
    14.6466     5127.00000
    14.6597     5117.00000
    14.6728     5072.00000
    14.6860     5149.00000
    14.6991     5154.00000
    14.7122     5250.00000
    14.7254     5108.00000
    14.7385     5370.00000
    14.7516     5144.00000
    14.7648     5175.00000
    14.7779     5227.00000
    14.7910     5125.00000
    14.8041     5139.00000
    14.8173     5092.00000
    14.8304     5295.00000
    14.8435     5249.00000
    14.8567     4938.00000
    14.8698     5147.00000
    14.8829     5079.00000
    14.8961     5140.00000
    14.9092     5235.00000
    14.9223     5066.00000
    14.9355     5027.00000
    14.9486     5136.00000
    14.9617     5058.00000
    14.9748     5103.00000
    14.9880     5190.00000
    15.0011     5137.00000
    15.0142     5013.00000
    15.0274     5158.00000
    15.0405     4952.00000
    15.0536     5091.00000
    15.0668     4978.00000
    15.0799     5092.00000
    15.0930     5000.00000
    15.1061     4986.00000
    15.1193     5110.00000
    15.1324     5007.00000
    15.1455     5079.00000
    15.1587     5068.00000
    15.1718     5017.00000
    15.1849     5061.00000
    15.1981     5058.00000
    15.2112     5085.00000
    15.2243     4987.00000
    15.2374     4925.00000
    15.2506     5115.00000
    15.2637     5039.00000
    15.2768     5047.00000
    15.2900     5003.00000
    15.3031     5087.00000
    15.3162     4948.00000
    15.3294     5162.00000
    15.3425     5117.00000
    15.3556     5034.00000
    15.3688     4970.00000
    15.3819     4968.00000
    15.3950     4878.00000
    15.4081     5124.00000
    15.4213     4889.00000
    15.4344     5036.00000
    15.4475     5121.00000
    15.4607     4998.00000
    15.4738     4995.00000
    15.4869     4987.00000
    15.5001     5012.00000
    15.5132     5130.00000
    15.5263     5020.00000
    15.5394     4892.00000
    15.5526     4927.00000
    15.5657     4979.00000
    15.5788     4888.00000
    15.5920     4979.00000
    15.6051     4897.00000
    15.6182     4989.00000
    15.6314     4880.00000
    15.6445     4866.00000
    15.6576     4935.00000
    15.6707     4898.00000
    15.6839     4944.00000
    15.6970     4952.00000
    15.7101     4964.00000
    15.7233     4960.00000
    15.7364     4919.00000
    15.7495     4972.00000
    15.7627     4981.00000
    15.7758     5050.00000
    15.7889     4931.00000
    15.8021     4889.00000
    15.8152     4895.00000
    15.8283     4962.00000
    15.8414     4896.00000
    15.8546     4865.00000
    15.8677     4987.00000
    15.8808     4831.00000
    15.8940     5039.00000
    15.9071     4826.00000
    15.9202     4893.00000
    15.9334     4953.00000
    15.9465     4923.00000
    15.9596     4985.00000
    15.9727     4862.00000
    15.9859     4944.00000
    15.9990     4912.00000
    16.0121     4832.00000
    16.0253     5031.00000
    16.0384     4866.00000
    16.0515     4928.00000
    16.0647     4940.00000
    16.0778     4926.00000
    16.0909     4893.00000
    16.1040     5002.00000
    16.1172     5069.00000
    16.1303     4983.00000
    16.1434     4842.00000
    16.1566     4968.00000
    16.1697     4907.00000
    16.1828     4793.00000
    16.1960     5006.00000
    16.2091     4995.00000
    16.2222     4876.00000
    16.2353     4970.00000
    16.2485     5034.00000
    16.2616     4949.00000
    16.2747     5146.00000
    16.2879     5006.00000
    16.3010     5085.00000
    16.3141     5112.00000
    16.3273     5000.00000
    16.3404     5030.00000
    16.3535     4946.00000
    16.3667     5069.00000
    16.3798     5162.00000
    16.3929     5071.00000
    16.4060     5040.00000
    16.4192     5196.00000
    16.4323     4997.00000
    16.4454     4976.00000
    16.4586     5073.00000
    16.4717     4994.00000
    16.4848     4949.00000
    16.4980     4931.00000
    16.5111     5020.00000
    16.5242     4996.00000
    16.5373     5003.00000
    16.5505     4955.00000
    16.5636     4989.00000
    16.5767     4980.00000
    16.5899     4811.00000
    16.6030     4871.00000
    16.6161     4846.00000
    16.6293     4657.00000
    16.6424     4849.00000
    16.6555     4878.00000
    16.6686     4723.00000
    16.6818     4630.00000
    16.6949     4722.00000
    16.7080     4682.00000
    16.7212     4620.00000
    16.7343     4861.00000
    16.7474     4644.00000
    16.7606     4776.00000
    16.7737     4729.00000
    16.7868     4819.00000
    16.8000     4716.00000
    16.8131     4796.00000
    16.8262     4786.00000
    16.8393     4815.00000
    16.8525     4647.00000
    16.8656     4784.00000
    16.8787     4705.00000
    16.8919     4655.00000
    16.9050     4757.00000
    16.9181     4704.00000
    16.9313     4731.00000
    16.9444     4632.00000
    16.9575     4683.00000
    16.9706     4691.00000
    16.9838     4804.00000
    16.9969     4690.00000
    17.0100     4738.00000
    17.0232     4684.00000
    17.0363     4657.00000
    17.0494     4722.00000
    17.0626     4783.00000
    17.0757     4712.00000
    17.0888     4732.00000
    17.1019     4757.00000
    17.1151     4600.00000
    17.1282     4718.00000
    17.1413     4661.00000
    17.1545     4698.00000
    17.1676     4809.00000
    17.1807     4662.00000
    17.1939     4698.00000
    17.2070     4839.00000
    17.2201     4816.00000
    17.2333     4783.00000
    17.2464     5069.00000
    17.2595     4868.00000
    17.2726     4913.00000
    17.2858     4930.00000
    17.2989     4828.00000
    17.3120     4846.00000
    17.3252     4908.00000
    17.3383     4804.00000
    17.3514     4697.00000
    17.3646     4820.00000
    17.3777     4607.00000
    17.3908     4638.00000
    17.4039     4721.00000
    17.4171     4515.00000
    17.4302     4720.00000
    17.4433     4650.00000
    17.4565     4548.00000
    17.4696     4485.00000
    17.4827     4480.00000
    17.4959     4623.00000
    17.5090     4615.00000
    17.5221     4572.00000
    17.5352     4595.00000
    17.5484     4640.00000
    17.5615     4499.00000
    17.5746     4495.00000
    17.5878     4604.00000
    17.6009     4609.00000
    17.6140     4493.00000
    17.6272     4583.00000
    17.6403     4540.00000
    17.6534     4733.00000
    17.6666     4560.00000
    17.6797     4604.00000
    17.6928     4525.00000
    17.7059     4624.00000
    17.7191     4668.00000
    17.7322     4747.00000
    17.7453     4824.00000
    17.7585     4893.00000
    17.7716     4754.00000
    17.7847     4839.00000
    17.7979     4814.00000
    17.8110     4765.00000
    17.8241     4628.00000
    17.8372     4514.00000
    17.8504     4622.00000
    17.8635     4523.00000
    17.8766     4509.00000
    17.8898     4452.00000
    17.9029     4474.00000
    17.9160     4556.00000
    17.9292     4501.00000
    17.9423     4459.00000
    17.9554     4387.00000
    17.9685     4463.00000
    17.9817     4488.00000
    17.9948     4420.00000
    18.0079     4423.00000
    18.0211     4394.00000
    18.0342     4453.00000
    18.0473     4462.00000
    18.0605     4403.00000
    18.0736     4414.00000
    18.0867     4443.00000
    18.0998     4512.00000
    18.1130     4477.00000
    18.1261     4416.00000
    18.1392     4508.00000
    18.1524     4422.00000
    18.1655     4417.00000
    18.1786     4402.00000
    18.1918     4453.00000
    18.2049     4484.00000
    18.2180     4480.00000
    18.2312     4453.00000
    18.2443     4353.00000
    18.2574     4417.00000
    18.2705     4391.00000
    18.2837     4430.00000
    18.2968     4423.00000
    18.3099     4521.00000
    18.3231     4324.00000
    18.3362     4398.00000
    18.3493     4357.00000
    18.3625     4421.00000
    18.3756     4335.00000
    18.3887     4375.00000
    18.4018     4280.00000
    18.4150     4358.00000
    18.4281     4260.00000
    18.4412     4332.00000
    18.4544     4419.00000
    18.4675     4277.00000
    18.4806     4399.00000
    18.4938     4423.00000
    18.5069     4290.00000
    18.5200     4396.00000
    18.5331     4365.00000
    18.5463     4542.00000
    18.5594     4520.00000
    18.5725     4454.00000
    18.5857     4515.00000
    18.5988     4457.00000
    18.6119     4495.00000
    18.6251     4382.00000
    18.6382     4536.00000
    18.6513     4562.00000
    18.6645     4480.00000
    18.6776     4505.00000
    18.6907     4345.00000
    18.7038     4467.00000
    18.7170     4340.00000
    18.7301     4464.00000
    18.7432     4362.00000
    18.7564     4231.00000
    18.7695     4363.00000
    18.7826     4255.00000
    18.7958     4224.00000
    18.8089     4227.00000
    18.8220     4183.00000
    18.8351     4437.00000
    18.8483     4469.00000
    18.8614     4391.00000
    18.8745     4234.00000
    18.8877     4239.00000
    18.9008     4201.00000
    18.9139     4343.00000
    18.9271     4285.00000
    18.9402     4304.00000
    18.9533     4176.00000
    18.9664     4327.00000
    18.9796     4387.00000
    18.9927     4451.00000
    19.0058     4484.00000
    19.0190     4419.00000
    19.0321     4337.00000
    19.0452     4559.00000
    19.0584     4686.00000
    19.0715     4642.00000
    19.0846     4556.00000
    19.0978     4632.00000
    19.1109     4647.00000
    19.1240     4666.00000
    19.1371     4729.00000
    19.1503     4611.00000
    19.1634     4605.00000
    19.1765     4753.00000
    19.1897     4596.00000
    19.2028     4702.00000
    19.2159     4674.00000
    19.2291     4668.00000
    19.2422     4721.00000
    19.2553     4551.00000
    19.2684     4802.00000
    19.2816     4596.00000
    19.2947     4713.00000
    19.3078     4703.00000
    19.3210     4627.00000
    19.3341     4653.00000
    19.3472     4640.00000
    19.3604     4687.00000
    19.3735     4766.00000
    19.3866     4886.00000
    19.3997     4965.00000
    19.4129     4939.00000
    19.4260     5267.00000
    19.4391     5185.00000
    19.4523     5288.00000
    19.4654     5329.00000
    19.4785     5637.00000
    19.4917     5780.00000
    19.5048     5995.00000
    19.5179     6074.00000
    19.5311     6360.00000
    19.5442     6956.00000
    19.5573     7611.00000
    19.5704     8610.00000
    19.5836    10076.00000
    19.5967    12626.00000
    19.6098    16800.00000
    19.6230    22709.00000
    19.6361    33052.00000
    19.6492    48637.00000
    19.6624    70715.00000
    19.6755    95606.00000
    19.6886   115636.00000
    19.7017   121373.00000
    19.7149   115368.00000
    19.7280   105717.00000
    19.7411    94391.00000
    19.7543    79298.00000
    19.7674    60364.00000
    19.7805    43582.00000
    19.7937    30716.00000
    19.8068    22254.00000
    19.8199    16186.00000
    19.8330    12169.00000
    19.8462     9145.00000
    19.8593     7693.00000
    19.8724     6918.00000
    19.8856     6346.00000
    19.8987     5960.00000
    19.9118     5767.00000
    19.9250     5382.00000
    19.9381     5353.00000
    19.9512     4993.00000
    19.9643     4989.00000
    19.9775     4881.00000
    19.9906     4748.00000
    20.0037     4832.00000
    20.0169     4584.00000
    20.0300     4599.00000
    20.0431     4519.00000
    20.0563     4644.00000
    20.0694     4551.00000
    20.0825     4621.00000
    20.0957     4526.00000
    20.1088     4596.00000
    20.1219     4488.00000
    20.1350     4751.00000
    20.1482     4742.00000
    20.1613     4711.00000
    20.1744     4658.00000
    20.1876     4681.00000
    20.2007     4731.00000
    20.2138     4783.00000
    20.2270     4551.00000
    20.2401     4609.00000
    20.2532     4519.00000
    20.2663     4555.00000
    20.2795     4487.00000
    20.2926     4463.00000
    20.3057     4353.00000
    20.3189     4398.00000
    20.3320     4379.00000
    20.3451     4312.00000
    20.3583     4364.00000
    20.3714     4444.00000
    20.3845     4220.00000
    20.3976     4356.00000
    20.4108     4324.00000
    20.4239     4282.00000
    20.4370     4235.00000
    20.4502     4203.00000
    20.4633     4206.00000
    20.4764     4274.00000
    20.4896     4214.00000
    20.5027     4228.00000
    20.5158     4316.00000
    20.5290     4269.00000
    20.5421     4195.00000
    20.5552     4223.00000
    20.5683     4324.00000
    20.5815     4283.00000
    20.5946     4162.00000
    20.6077     4202.00000
    20.6209     4070.00000
    20.6340     4033.00000
    20.6471     4168.00000
    20.6603     4135.00000
    20.6734     4187.00000
    20.6865     4162.00000
    20.6996     4203.00000
    20.7128     4178.00000
    20.7259     4133.00000
    20.7390     4057.00000
    20.7522     4210.00000
    20.7653     4033.00000
    20.7784     4146.00000
    20.7916     4198.00000
    20.8047     4058.00000
    20.8178     4211.00000
    20.8309     4162.00000
    20.8441     4090.00000
    20.8572     4195.00000
    20.8703     4132.00000
    20.8835     4111.00000
    20.8966     4072.00000
    20.9097     4169.00000
    20.9229     4037.00000
    20.9360     4114.00000
    20.9491     4329.00000
    20.9623     4124.00000
    20.9754     4065.00000
    20.9885     4060.00000
    21.0016     4087.00000
    21.0148     4080.00000
    21.0279     3970.00000
    21.0410     3931.00000
    21.0542     4067.00000
    21.0673     4067.00000
    21.0804     4070.00000
    21.0936     4045.00000
    21.1067     4001.00000
    21.1198     4103.00000
    21.1329     4027.00000
    21.1461     3959.00000
    21.1592     4079.00000
    21.1723     3965.00000
    21.1855     3976.00000
    21.1986     4109.00000
    21.2117     4002.00000
    21.2249     4025.00000
    21.2380     3996.00000
    21.2511     4055.00000
    21.2642     4019.00000
    21.2774     3990.00000
    21.2905     4093.00000
    21.3036     3997.00000
    21.3168     4029.00000
    21.3299     3975.00000
    21.3430     4020.00000
    21.3562     4043.00000
    21.3693     3900.00000
    21.3824     4138.00000
    21.3956     4001.00000
    21.4087     3908.00000
    21.4218     3970.00000
    21.4349     3874.00000
    21.4481     4059.00000
    21.4612     3949.00000
    21.4743     3916.00000
    21.4875     4027.00000
    21.5006     4063.00000
    21.5137     3924.00000
    21.5269     4039.00000
    21.5400     3965.00000
    21.5531     3977.00000
    21.5662     3987.00000
    21.5794     4014.00000
    21.5925     3885.00000
    21.6056     4024.00000
    21.6188     3991.00000
    21.6319     3950.00000
    21.6450     3830.00000
    21.6582     3979.00000
    21.6713     4092.00000
    21.6844     4050.00000
    21.6975     4010.00000
    21.7107     4065.00000
    21.7238     3994.00000
    21.7369     3936.00000
    21.7501     4023.00000
    21.7632     4034.00000
    21.7763     3829.00000
    21.7895     4085.00000
    21.8026     4191.00000
    21.8157     4164.00000
    21.8288     4230.00000
    21.8420     4301.00000
    21.8551     4358.00000
    21.8682     4270.00000
    21.8814     4211.00000
    21.8945     4246.00000
    21.9076     4096.00000
    21.9208     4186.00000
    21.9339     4228.00000
    21.9470     4009.00000
    21.9602     4141.00000
    21.9733     3999.00000
    21.9864     4001.00000
    21.9995     4082.00000
    22.0127     4176.00000
    22.0258     4138.00000
    22.0389     4063.00000
    22.0521     4142.00000
    22.0652     4066.00000
    22.0783     4025.00000
    22.0915     3935.00000
    22.1046     4120.00000
    22.1177     4091.00000
    22.1308     4000.00000
    22.1440     3900.00000
    22.1571     4012.00000
    22.1702     4037.00000
    22.1834     4060.00000
    22.1965     4106.00000
    22.2096     4127.00000
    22.2228     4077.00000
    22.2359     4309.00000
    22.2490     4547.00000
    22.2621     4517.00000
    22.2753     4964.00000
    22.2884     5657.00000
    22.3015     6527.00000
    22.3147     8258.00000
    22.3278    10342.00000
    22.3409    13886.00000
    22.3541    17819.00000
    22.3672    20218.00000
    22.3803    19356.00000
    22.3935    17604.00000
    22.4066    16139.00000
    22.4197    16175.00000
    22.4328    14146.00000
    22.4460    11113.00000
    22.4591     8409.00000
    22.4722     7123.00000
    22.4854     6234.00000
    22.4985     5178.00000
    22.5116     4675.00000
    22.5248     4332.00000
    22.5379     4243.00000
    22.5510     4193.00000
    22.5641     4010.00000
    22.5773     4070.00000
    22.5904     3995.00000
    22.6035     3992.00000
    22.6167     4005.00000
    22.6298     4067.00000
    22.6429     3902.00000
    22.6561     3885.00000
    22.6692     3852.00000
    22.6823     3845.00000
    22.6954     3878.00000
    22.7086     3852.00000
    22.7217     3873.00000
    22.7348     3833.00000
    22.7480     3945.00000
    22.7611     3948.00000
    22.7742     3794.00000
    22.7874     3969.00000
    22.8005     3847.00000
    22.8136     3897.00000
    22.8268     3863.00000
    22.8399     3869.00000
    22.8530     3920.00000
    22.8661     4047.00000
    22.8793     3885.00000
    22.8924     3792.00000
    22.9055     3762.00000
    22.9187     3910.00000
    22.9318     3900.00000
    22.9449     3794.00000
    22.9581     3751.00000
    22.9712     3789.00000
    22.9843     3822.00000
    22.9974     3743.00000
    23.0106     3833.00000
    23.0237     3827.00000
    23.0368     3797.00000
    23.0500     3747.00000
    23.0631     3811.00000
    23.0762     3838.00000
    23.0894     3839.00000
    23.1025     3661.00000
    23.1156     3830.00000
    23.1287     3744.00000
    23.1419     3824.00000
    23.1550     3699.00000
    23.1681     3800.00000
    23.1813     3828.00000
    23.1944     3762.00000
    23.2075     3716.00000
    23.2207     3753.00000
    23.2338     3743.00000
    23.2469     3706.00000
    23.2601     3794.00000
    23.2732     3749.00000
    23.2863     3761.00000
    23.2994     3723.00000
    23.3126     3700.00000
    23.3257     3812.00000
    23.3388     3772.00000
    23.3520     3787.00000
    23.3651     3788.00000
    23.3782     3741.00000
    23.3914     3923.00000
    23.4045     3891.00000
    23.4176     3840.00000
    23.4307     3791.00000
    23.4439     3778.00000
    23.4570     3811.00000
    23.4701     3833.00000
    23.4833     3810.00000
    23.4964     3935.00000
    23.5095     3899.00000
    23.5227     3833.00000
    23.5358     3988.00000
    23.5489     3801.00000
    23.5620     3868.00000
    23.5752     3977.00000
    23.5883     3972.00000
    23.6014     3957.00000
    23.6146     3943.00000
    23.6277     4093.00000
    23.6408     3947.00000
    23.6540     3883.00000
    23.6671     3951.00000
    23.6802     4015.00000
    23.6933     4036.00000
    23.7065     4031.00000
    23.7196     3968.00000
    23.7327     3958.00000
    23.7459     3940.00000
    23.7590     4081.00000
    23.7721     4072.00000
    23.7853     4022.00000
    23.7984     3872.00000
    23.8115     4034.00000
    23.8247     3952.00000
    23.8378     4134.00000
    23.8509     4026.00000
    23.8640     4057.00000
    23.8772     4154.00000
    23.8903     4188.00000
    23.9034     4164.00000
    23.9166     4095.00000
    23.9297     4256.00000
    23.9428     4466.00000
    23.9560     4524.00000
    23.9691     4428.00000
    23.9822     4465.00000
    23.9953     4617.00000
    24.0085     4521.00000
    24.0216     4648.00000
    24.0347     4655.00000
    24.0479     4819.00000
    24.0610     5086.00000
    24.0741     5225.00000
    24.0873     5426.00000
    24.1004     5929.00000
    24.1135     6788.00000
    24.1266     8275.00000
    24.1398    10855.00000
    24.1529    15617.00000
    24.1660    22375.00000
    24.1792    29654.00000
    24.1923    37872.00000
    24.2054    43704.00000
    24.2186    46525.00000
    24.2317    42947.00000
    24.2448    38472.00000
    24.2580    34307.00000
    24.2711    31341.00000
    24.2842    26591.00000
    24.2973    21324.00000
    24.3105    16724.00000
    24.3236    14223.00000
    24.3367    13725.00000
    24.3499    14898.00000
    24.3630    19379.00000
    24.3761    27684.00000
    24.3893    36714.00000
    24.4024    42964.00000
    24.4155    47732.00000
    24.4286    49723.00000
    24.4418    47369.00000
    24.4549    43105.00000
    24.4680    37859.00000
    24.4812    32715.00000
    24.4943    27638.00000
    24.5074    21485.00000
    24.5206    16097.00000
    24.5337    12022.00000
    24.5468     8673.00000
    24.5599     6914.00000
    24.5731     5789.00000
    24.5862     5178.00000
    24.5993     4782.00000
    24.6125     4591.00000
    24.6256     4453.00000
    24.6387     4448.00000
    24.6519     4257.00000
    24.6650     4290.00000
    24.6781     4121.00000
    24.6913     4130.00000
    24.7044     4019.00000
    24.7175     3957.00000
    24.7306     3846.00000
    24.7438     3891.00000
    24.7569     4022.00000
    24.7700     3771.00000
    24.7832     3826.00000
    24.7963     3937.00000
    24.8094     3816.00000
    24.8226     3837.00000
    24.8357     3797.00000
    24.8488     3758.00000
    24.8619     3809.00000
    24.8751     3876.00000
    24.8882     3768.00000
    24.9013     3719.00000
    24.9145     3807.00000
    24.9276     3799.00000
    24.9407     3812.00000
    24.9539     3788.00000
    24.9670     3848.00000
    24.9801     3623.00000
    24.9932     3680.00000
    25.0064     3883.00000
    25.0195     4109.00000
    25.0326     3954.00000
    25.0458     3934.00000
    25.0589     3897.00000
    25.0720     3803.00000
    25.0852     3795.00000
    25.0983     3688.00000
    25.1114     3689.00000
    25.1246     3608.00000
    25.1377     3784.00000
    25.1508     3764.00000
    25.1639     3778.00000
    25.1771     3670.00000
    25.1902     3599.00000
    25.2033     3680.00000
    25.2165     3761.00000
    25.2296     3618.00000
    25.2427     3680.00000
    25.2559     3624.00000
    25.2690     3648.00000
    25.2821     3592.00000
    25.2952     3764.00000
    25.3084     3647.00000
    25.3215     3706.00000
    25.3346     3688.00000
    25.3478     3771.00000
    25.3609     3645.00000
    25.3740     3671.00000
    25.3872     3563.00000
    25.4003     3721.00000
    25.4134     3657.00000
    25.4265     3610.00000
    25.4397     3680.00000
    25.4528     3598.00000
    25.4659     3565.00000
    25.4791     3533.00000
    25.4922     3619.00000
    25.5053     3777.00000
    25.5185     3666.00000
    25.5316     3638.00000
    25.5447     3648.00000
    25.5579     3678.00000
    25.5710     3654.00000
    25.5841     3591.00000
    25.5972     3620.00000
    25.6104     3429.00000
    25.6235     3670.00000
    25.6366     3559.00000
    25.6498     3605.00000
    25.6629     3478.00000
    25.6760     3631.00000
    25.6892     3507.00000
    25.7023     3560.00000
    25.7154     3536.00000
    25.7285     3629.00000
    25.7417     3596.00000
    25.7548     3449.00000
    25.7679     3475.00000
    25.7811     3640.00000
    25.7942     3552.00000
    25.8073     3498.00000
    25.8205     3552.00000
    25.8336     3586.00000
    25.8467     3525.00000
    25.8598     3534.00000
    25.8730     3499.00000
    25.8861     3486.00000
    25.8992     3496.00000
    25.9124     3572.00000
    25.9255     3651.00000
    25.9386     3533.00000
    25.9518     3599.00000
    25.9649     3622.00000
    25.9780     3546.00000
    25.9911     3563.00000
    26.0043     3545.00000
    26.0174     3579.00000
    26.0305     3683.00000
    26.0437     3745.00000
    26.0568     3821.00000
    26.0699     3757.00000
    26.0831     3905.00000
    26.0962     4149.00000
    26.1093     4107.00000
    26.1225     4023.00000
    26.1356     4060.00000
    26.1487     3960.00000
    26.1618     3931.00000
    26.1750     3898.00000
    26.1881     3707.00000
    26.2012     3729.00000
    26.2144     3705.00000
    26.2275     3570.00000
    26.2406     3548.00000
    26.2538     3544.00000
    26.2669     3566.00000
    26.2800     3577.00000
    26.2931     3464.00000
    26.3063     3550.00000
    26.3194     3505.00000
    26.3325     3607.00000
    26.3457     3532.00000
    26.3588     3551.00000
    26.3719     3492.00000
    26.3851     3563.00000
    26.3982     3577.00000
    26.4113     3589.00000
    26.4244     3524.00000
    26.4376     3472.00000
    26.4507     3472.00000
    26.4638     3515.00000
    26.4770     3509.00000
    26.4901     3567.00000
    26.5032     3618.00000
    26.5164     3493.00000
    26.5295     3378.00000
    26.5426     3545.00000
    26.5558     3433.00000
    26.5689     3470.00000
    26.5820     3490.00000
    26.5951     3517.00000
    26.6083     3467.00000
    26.6214     3522.00000
    26.6345     3395.00000
    26.6477     3532.00000
    26.6608     3466.00000
    26.6739     3376.00000
    26.6871     3487.00000
    26.7002     3447.00000
    26.7133     3442.00000
    26.7264     3661.00000
    26.7396     3494.00000
    26.7527     3554.00000
    26.7658     3490.00000
    26.7790     3659.00000
    26.7921     3641.00000
    26.8052     3719.00000
    26.8184     3619.00000
    26.8315     3725.00000
    26.8446     3687.00000
    26.8577     3618.00000
    26.8709     3530.00000
    26.8840     3606.00000
    26.8971     3737.00000
    26.9103     3536.00000
    26.9234     3645.00000
    26.9365     3582.00000
    26.9497     3559.00000
    26.9628     3729.00000
    26.9759     3774.00000
    26.9891     3824.00000
    27.0022     3668.00000
    27.0153     3713.00000
    27.0284     3652.00000
    27.0416     3690.00000
    27.0547     3624.00000
    27.0678     3699.00000
    27.0810     3679.00000
    27.0941     3749.00000
    27.1072     3591.00000
    27.1204     3744.00000
    27.1335     3680.00000
    27.1466     3750.00000
    27.1597     3718.00000
    27.1729     3730.00000
    27.1860     3611.00000
    27.1991     3635.00000
    27.2123     3594.00000
    27.2254     3671.00000
    27.2385     3640.00000
    27.2517     3625.00000
    27.2648     3660.00000
    27.2779     3840.00000
    27.2910     3798.00000
    27.3042     3708.00000
    27.3173     3715.00000
    27.3304     3827.00000
    27.3436     3670.00000
    27.3567     3773.00000
    27.3698     3775.00000
    27.3830     3760.00000
    27.3961     3878.00000
    27.4092     3991.00000
    27.4224     3866.00000
    27.4355     3888.00000
    27.4486     4109.00000
    27.4617     4074.00000
    27.4749     4226.00000
    27.4880     4240.00000
    27.5011     4443.00000
    27.5143     4577.00000
    27.5274     4575.00000
    27.5405     4879.00000
    27.5537     5069.00000
    27.5668     5309.00000
    27.5799     5506.00000
    27.5930     5885.00000
    27.6062     6501.00000
    27.6193     6820.00000
    27.6324     7731.00000
    27.6456     8792.00000
    27.6587    10666.00000
    27.6718    13529.00000
    27.6850    18456.00000
    27.6981    27228.00000
    27.7112    40764.00000
    27.7243    57276.00000
    27.7375    72603.00000
    27.7506    81558.00000
    27.7637    81016.00000
    27.7769    74202.00000
    27.7900    66468.00000
    27.8031    60056.00000
    27.8163    54403.00000
    27.8294    48588.00000
    27.8425    39795.00000
    27.8556    30763.00000
    27.8688    22550.00000
    27.8819    15742.00000
    27.8950    11410.00000
    27.9082     8839.00000
    27.9213     7250.00000
    27.9344     6571.00000
    27.9476     5824.00000
    27.9607     5266.00000
    27.9738     4932.00000
    27.9870     4699.00000
    28.0001     4536.00000
    28.0132     4361.00000
    28.0263     4346.00000
    28.0395     4128.00000
    28.0526     4088.00000
    28.0657     3974.00000
    28.0789     3804.00000
    28.0920     3858.00000
    28.1051     3809.00000
    28.1183     3760.00000
    28.1314     3715.00000
    28.1445     3727.00000
    28.1576     3732.00000
    28.1708     3728.00000
    28.1839     3581.00000
    28.1970     3666.00000
    28.2102     3681.00000
    28.2233     3627.00000
    28.2364     3651.00000
    28.2496     3787.00000
    28.2627     3732.00000
    28.2758     3821.00000
    28.2889     3947.00000
    28.3021     3905.00000
    28.3152     4124.00000
    28.3283     4064.00000
    28.3415     3903.00000
    28.3546     3945.00000
    28.3677     3954.00000
    28.3809     3737.00000
    28.3940     3727.00000
    28.4071     3846.00000
    28.4203     3803.00000
    28.4334     3806.00000
    28.4465     3685.00000
    28.4596     3732.00000
    28.4728     3665.00000
    28.4859     3532.00000
    28.4990     3772.00000
    28.5122     3757.00000
    28.5253     3503.00000
    28.5384     3652.00000
    28.5516     3618.00000
    28.5647     3732.00000
    28.5778     3613.00000
    28.5909     3677.00000
    28.6041     3426.00000
    28.6172     3568.00000
    28.6303     3543.00000
    28.6435     3463.00000
    28.6566     3505.00000
    28.6697     3556.00000
    28.6829     3489.00000
    28.6960     3490.00000
    28.7091     3551.00000
    28.7222     3522.00000
    28.7354     3549.00000
    28.7485     3612.00000
    28.7616     3526.00000
    28.7748     3504.00000
    28.7879     3465.00000
    28.8010     3488.00000
    28.8142     3371.00000
    28.8273     3559.00000
    28.8404     3532.00000
    28.8536     3665.00000
    28.8667     3546.00000
    28.8798     3565.00000
    28.8929     3534.00000
    28.9061     3538.00000
    28.9192     3542.00000
    28.9323     3608.00000
    28.9455     3651.00000
    28.9586     3678.00000
    28.9717     3610.00000
    28.9849     3768.00000
    28.9980     3629.00000
    29.0111     3751.00000
    29.0242     3820.00000
    29.0374     3805.00000
    29.0505     3797.00000
    29.0636     3993.00000
    29.0768     4019.00000
    29.0899     3954.00000
    29.1030     4267.00000
    29.1162     4250.00000
    29.1293     4433.00000
    29.1424     4649.00000
    29.1555     4664.00000
    29.1687     4822.00000
    29.1818     5351.00000
    29.1949     6194.00000
    29.2081     7455.00000
    29.2212    10473.00000
    29.2343    15086.00000
    29.2475    21504.00000
    29.2606    28683.00000
    29.2737    33266.00000
    29.2869    33695.00000
    29.3000    30668.00000
    29.3131    26372.00000
    29.3262    24808.00000
    29.3394    24298.00000
    29.3525    23334.00000
    29.3656    21160.00000
    29.3788    18062.00000
    29.3919    15762.00000
    29.4050    15282.00000
    29.4182    15917.00000
    29.4313    17207.00000
    29.4444    19160.00000
    29.4575    19613.00000
    29.4707    18775.00000
    29.4838    17289.00000
    29.4969    15318.00000
    29.5101    14141.00000
    29.5232    13011.00000
    29.5363    11893.00000
    29.5495    10373.00000
    29.5626     8890.00000
    29.5757     6951.00000
    29.5888     5851.00000
    29.6020     4905.00000
    29.6151     4245.00000
    29.6282     4121.00000
    29.6414     3794.00000
    29.6545     3728.00000
    29.6676     3594.00000
    29.6808     3667.00000
    29.6939     3537.00000
    29.7070     3522.00000
    29.7201     3500.00000
    29.7333     3494.00000
    29.7464     3454.00000
    29.7595     3413.00000
    29.7727     3454.00000
    29.7858     3329.00000
    29.7989     3362.00000
    29.8121     3414.00000
    29.8252     3395.00000
    29.8383     3420.00000
    29.8515     3457.00000
    29.8646     3343.00000
    29.8777     3394.00000
    29.8908     3437.00000
    29.9040     3427.00000
    29.9171     3316.00000
    29.9302     3472.00000
    29.9434     3468.00000
    29.9565     3357.00000
    29.9696     3349.00000
    29.9828     3328.00000
    29.9959     3374.00000
    30.0090     3378.00000
    30.0221     3274.00000
    30.0353     3313.00000
    30.0484     3277.00000
    30.0615     3242.00000
    30.0747     3320.00000
    30.0878     3420.00000
    30.1009     3330.00000
    30.1141     3394.00000
    30.1272     3427.00000
    30.1403     3361.00000
    30.1535     3285.00000
    30.1666     3342.00000
    30.1797     3269.00000
    30.1928     3373.00000
    30.2060     3247.00000
    30.2191     3376.00000
    30.2322     3226.00000
    30.2454     3261.00000
    30.2585     3315.00000
    30.2716     3370.00000
    30.2848     3287.00000
    30.2979     3263.00000
    30.3110     3318.00000
    30.3241     3282.00000
    30.3373     3292.00000
    30.3504     3413.00000
    30.3635     3357.00000
    30.3767     3255.00000
    30.3898     3376.00000
    30.4029     3344.00000
    30.4161     3276.00000
    30.4292     3280.00000
    30.4423     3343.00000
    30.4554     3290.00000
    30.4686     3251.00000
    30.4817     3300.00000
    30.4948     3261.00000
    30.5080     3256.00000
    30.5211     3230.00000
    30.5342     3323.00000
    30.5474     3206.00000
    30.5605     3226.00000
    30.5736     3224.00000
    30.5868     3187.00000
    30.5999     3193.00000
    30.6130     3217.00000
    30.6261     3114.00000
    30.6393     3151.00000
    30.6524     3356.00000
    30.6655     3193.00000
    30.6787     3217.00000
    30.6918     3186.00000
    30.7049     3243.00000
    30.7181     3219.00000
    30.7312     3287.00000
    30.7443     3142.00000
    30.7574     3308.00000
    30.7706     3251.00000
    30.7837     3278.00000
    30.7968     3253.00000
    30.8100     3131.00000
    30.8231     3228.00000
    30.8362     3175.00000
    30.8494     3197.00000
    30.8625     3193.00000
    30.8756     3104.00000
    30.8887     3229.00000
    30.9019     3171.00000
    30.9150     3117.00000
    30.9281     3132.00000
    30.9413     3092.00000
    30.9544     3191.00000
    30.9675     3088.00000
    30.9807     3255.00000
    30.9938     3191.00000
    31.0069     3197.00000
    31.0200     3067.00000
    31.0332     3128.00000
    31.0463     3178.00000
    31.0594     3252.00000
    31.0726     3226.00000
    31.0857     3167.00000
    31.0988     3278.00000
    31.1120     3219.00000
    31.1251     3110.00000
    31.1382     3192.00000
    31.1514     3148.00000
    31.1645     3142.00000
    31.1776     3224.00000
    31.1907     3239.00000
    31.2039     3136.00000
    31.2170     3112.00000
    31.2301     3097.00000
    31.2433     3265.00000
    31.2564     3165.00000
    31.2695     3155.00000
    31.2827     3150.00000
    31.2958     3159.00000
    31.3089     3204.00000
    31.3220     3057.00000
    31.3352     3159.00000
    31.3483     3127.00000
    31.3614     3083.00000
    31.3746     3034.00000
    31.3877     3027.00000
    31.4008     3119.00000
    31.4140     3036.00000
    31.4271     3117.00000
    31.4402     3019.00000
    31.4533     3234.00000
    31.4665     3087.00000
    31.4796     3176.00000
    31.4927     3049.00000
    31.5059     3014.00000
    31.5190     3145.00000
    31.5321     3037.00000
    31.5453     3137.00000
    31.5584     3148.00000
    31.5715     3171.00000
    31.5847     3193.00000
    31.5978     3081.00000
    31.6109     3182.00000
    31.6240     3101.00000
    31.6372     3067.00000
    31.6503     3147.00000
    31.6634     3037.00000
    31.6766     3105.00000
    31.6897     3114.00000
    31.7028     3143.00000
    31.7160     3066.00000
    31.7291     3114.00000
    31.7422     3153.00000
    31.7553     3034.00000
    31.7685     3196.00000
    31.7816     3085.00000
    31.7947     3170.00000
    31.8079     3156.00000
    31.8210     3133.00000
    31.8341     3161.00000
    31.8473     3086.00000
    31.8604     3132.00000
    31.8735     3088.00000
    31.8866     2998.00000
    31.8998     3135.00000
    31.9129     3148.00000
    31.9260     3158.00000
    31.9392     3073.00000
    31.9523     3112.00000
    31.9654     3183.00000
    31.9786     3233.00000
    31.9917     3096.00000
    32.0048     3070.00000
    32.0180     3166.00000
    32.0311     3049.00000
    32.0442     3119.00000
    32.0573     3135.00000
    32.0705     3116.00000
    32.0836     3097.00000
    32.0967     3167.00000
    32.1099     3219.00000
    32.1230     3085.00000
    32.1361     3174.00000
    32.1493     3121.00000
    32.1624     3152.00000
    32.1755     3046.00000
    32.1886     3202.00000
    32.2018     3222.00000
    32.2149     3073.00000
    32.2280     3304.00000
    32.2412     3009.00000
    32.2543     3235.00000
    32.2674     3214.00000
    32.2806     3315.00000
    32.2937     3295.00000
    32.3068     3202.00000
    32.3199     3386.00000
    32.3331     3098.00000
    32.3462     3157.00000
    32.3593     3186.00000
    32.3725     3174.00000
    32.3856     3229.00000
    32.3987     3197.00000
    32.4119     3203.00000
    32.4250     3258.00000
    32.4381     3328.00000
    32.4512     3278.00000
    32.4644     3235.00000
    32.4775     3254.00000
    32.4906     3326.00000
    32.5038     3263.00000
    32.5169     3348.00000
    32.5300     3356.00000
    32.5432     3428.00000
    32.5563     3426.00000
    32.5694     3559.00000
    32.5826     3508.00000
    32.5957     3670.00000
    32.6088     3708.00000
    32.6219     3765.00000
    32.6351     3850.00000
    32.6482     3875.00000
    32.6613     4005.00000
    32.6745     4379.00000
    32.6876     5039.00000
    32.7007     6329.00000
    32.7139     8859.00000
    32.7270    13151.00000
    32.7401    18473.00000
    32.7532    22359.00000
    32.7664    21194.00000
    32.7795    17501.00000
    32.7926    14185.00000
    32.8058    12620.00000
    32.8189    12722.00000
    32.8320    13594.00000
    32.8452    13404.00000
    32.8583    11337.00000
    32.8714     9132.00000
    32.8845     7019.00000
    32.8977     5734.00000
    32.9108     4835.00000
    32.9239     4228.00000
    32.9371     3972.00000
    32.9502     3891.00000
    32.9633     3767.00000
    32.9765     3748.00000
    32.9896     3809.00000
    33.0027     3722.00000
    33.0159     3841.00000
    33.0290     3657.00000
    33.0421     3752.00000
    33.0552     3888.00000
    33.0684     3953.00000
    33.0815     3938.00000
    33.0946     4044.00000
    33.1078     4148.00000
    33.1209     4202.00000
    33.1340     4405.00000
    33.1472     4480.00000
    33.1603     4847.00000
    33.1734     5121.00000
    33.1865     5902.00000
    33.1997     7016.00000
    33.2128     9868.00000
    33.2259    14251.00000
    33.2391    20282.00000
    33.2522    28145.00000
    33.2653    34441.00000
    33.2785    35969.00000
    33.2916    31660.00000
    33.3047    27362.00000
    33.3178    23525.00000
    33.3310    22088.00000
    33.3441    21630.00000
    33.3572    21992.00000
    33.3704    19685.00000
    33.3835    16275.00000
    33.3966    12612.00000
    33.4098     9803.00000
    33.4229     7619.00000
    33.4360     6085.00000
    33.4492     5215.00000
    33.4623     4795.00000
    33.4754     4545.00000
    33.4885     4544.00000
    33.5017     4289.00000
    33.5148     4257.00000
    33.5279     4328.00000
    33.5411     4224.00000
    33.5542     4245.00000
    33.5673     4381.00000
    33.5805     4588.00000
    33.5936     4648.00000
    33.6067     4819.00000
    33.6198     5158.00000
    33.6330     5371.00000
    33.6461     6275.00000
    33.6592     7281.00000
    33.6724     9123.00000
    33.6855    12280.00000
    33.6986    16248.00000
    33.7118    20701.00000
    33.7249    24927.00000
    33.7380    28819.00000
    33.7511    30356.00000
    33.7643    29287.00000
    33.7774    26867.00000
    33.7905    24404.00000
    33.8037    24251.00000
    33.8168    25692.00000
    33.8299    28514.00000
    33.8431    29707.00000
    33.8562    27276.00000
    33.8693    22248.00000
    33.8825    16771.00000
    33.8956    13558.00000
    33.9087    12532.00000
    33.9218    11919.00000
    33.9350    11486.00000
    33.9481     9918.00000
    33.9612     8355.00000
    33.9744     6815.00000
    33.9875     5814.00000
    34.0006     4781.00000
    34.0138     4383.00000
    34.0269     4074.00000
    34.0400     3843.00000
    34.0531     3622.00000
    34.0663     3484.00000
    34.0794     3593.00000
    34.0925     3406.00000
    34.1057     3387.00000
    34.1188     3396.00000
    34.1319     3366.00000
    34.1451     3267.00000
    34.1582     3292.00000
    34.1713     3211.00000
    34.1844     3216.00000
    34.1976     3252.00000
    34.2107     3312.00000
    34.2238     3244.00000
    34.2370     3133.00000
    34.2501     3123.00000
    34.2632     3334.00000
    34.2764     3191.00000
    34.2895     3216.00000
    34.3026     3221.00000
    34.3158     3120.00000
    34.3289     3253.00000
    34.3420     3129.00000
    34.3551     3214.00000
    34.3683     3159.00000
    34.3814     3062.00000
    34.3945     3196.00000
    34.4077     3218.00000
    34.4208     3226.00000
    34.4339     3213.00000
    34.4471     3285.00000
    34.4602     3266.00000
    34.4733     3288.00000
    34.4864     3380.00000
    34.4996     3332.00000
    34.5127     3367.00000
    34.5258     3453.00000
    34.5390     3457.00000
    34.5521     3507.00000
    34.5652     3467.00000
    34.5784     3477.00000
    34.5915     3464.00000
    34.6046     3747.00000
    34.6177     4015.00000
    34.6309     4510.00000
    34.6440     5252.00000
    34.6571     6816.00000
    34.6703     8927.00000
    34.6834    11783.00000
    34.6965    14434.00000
    34.7097    14101.00000
    34.7228    12727.00000
    34.7359    10867.00000
    34.7491     9199.00000
    34.7622     8664.00000
    34.7753     8944.00000
    34.7884     9318.00000
    34.8016     8758.00000
    34.8147     7756.00000
    34.8278     6575.00000
    34.8410     5190.00000
    34.8541     4532.00000
    34.8672     3922.00000
    34.8804     3626.00000
    34.8935     3499.00000
    34.9066     3438.00000
    34.9197     3285.00000
    34.9329     3336.00000
    34.9460     3138.00000
    34.9591     3249.00000
    34.9723     3257.00000
    34.9854     3383.00000
    34.9985     3645.00000
    35.0117     3773.00000
    35.0248     3949.00000
    35.0379     3729.00000
    35.0510     3550.00000
    35.0642     3423.00000
    35.0773     3278.00000
    35.0904     3333.00000
    35.1036     3388.00000
    35.1167     3444.00000
    35.1298     3233.00000
    35.1430     3199.00000
    35.1561     3032.00000
    35.1692     3063.00000
    35.1824     3110.00000
    35.1955     3052.00000
    35.2086     3073.00000
    35.2217     2884.00000
    35.2349     2967.00000
    35.2480     2847.00000
    35.2611     2917.00000
    35.2743     2971.00000
    35.2874     3022.00000
    35.3005     3009.00000
    35.3137     2988.00000
    35.3268     3034.00000
    35.3399     3028.00000
    35.3530     2945.00000
    35.3662     3038.00000
    35.3793     3066.00000
    35.3924     2975.00000
    35.4056     2990.00000
    35.4187     2974.00000
    35.4318     2978.00000
    35.4450     2853.00000
    35.4581     2947.00000
    35.4712     3007.00000
    35.4843     2936.00000
    35.4975     3048.00000
    35.5106     2895.00000
    35.5237     3042.00000
    35.5369     2955.00000
    35.5500     2930.00000
    35.5631     2881.00000
    35.5763     2948.00000
    35.5894     2873.00000
    35.6025     2974.00000
    35.6156     2937.00000
    35.6288     2987.00000
    35.6419     2951.00000
    35.6550     2907.00000
    35.6682     2961.00000
    35.6813     2853.00000
    35.6944     2970.00000
    35.7076     3053.00000
    35.7207     2960.00000
    35.7338     2932.00000
    35.7470     2899.00000
    35.7601     2859.00000
    35.7732     2964.00000
    35.7863     2917.00000
    35.7995     2941.00000
    35.8126     2961.00000
    35.8257     2820.00000
    35.8389     2862.00000
    35.8520     2894.00000
    35.8651     2823.00000
    35.8783     2872.00000
    35.8914     2887.00000
    35.9045     2902.00000
    35.9176     2888.00000
    35.9308     2903.00000
    35.9439     2871.00000
    35.9570     2898.00000
    35.9702     2921.00000
    35.9833     2902.00000
    35.9964     3025.00000
    36.0096     3079.00000
    36.0227     2947.00000
    36.0358     3013.00000
    36.0489     2968.00000
    36.0621     2922.00000
    36.0752     2930.00000
    36.0883     2979.00000
    36.1015     3028.00000
    36.1146     3124.00000
    36.1277     3011.00000
    36.1409     3002.00000
    36.1540     3006.00000
    36.1671     2953.00000
    36.1802     2923.00000
    36.1934     2961.00000
    36.2065     2915.00000
    36.2196     2966.00000
    36.2328     2864.00000
    36.2459     2950.00000
    36.2590     2842.00000
    36.2722     2980.00000
    36.2853     2923.00000
    36.2984     2900.00000
    36.3116     2967.00000
    36.3247     2866.00000
    36.3378     2913.00000
    36.3509     2920.00000
    36.3641     2957.00000
    36.3772     2953.00000
    36.3903     2972.00000
    36.4035     2863.00000
    36.4166     2913.00000
    36.4297     2975.00000
    36.4429     3011.00000
    36.4560     2975.00000
    36.4691     2902.00000
    36.4822     3047.00000
    36.4954     3026.00000
    36.5085     3127.00000
    36.5216     3073.00000
    36.5348     3081.00000
    36.5479     3183.00000
    36.5610     3071.00000
    36.5742     3262.00000
    36.5873     3432.00000
    36.6004     3544.00000
    36.6135     3757.00000
    36.6267     4729.00000
    36.6398     5857.00000
    36.6529     7412.00000
    36.6661     8765.00000
    36.6792     9896.00000
    36.6923     9828.00000
    36.7055     8504.00000
    36.7186     7171.00000
    36.7317     6281.00000
    36.7449     6237.00000
    36.7580     6490.00000
    36.7711     6707.00000
    36.7842     6480.00000
    36.7974     5976.00000
    36.8105     5142.00000
    36.8236     4240.00000
    36.8368     3737.00000
    36.8499     3328.00000
    36.8630     3222.00000
    36.8762     3205.00000
    36.8893     3194.00000
    36.9024     3181.00000
    36.9155     3117.00000
    36.9287     3070.00000
    36.9418     2964.00000
    36.9549     3117.00000
    36.9681     2891.00000
    36.9812     2972.00000
    36.9943     2931.00000
    37.0075     2931.00000
    37.0206     2953.00000
    37.0337     3074.00000
    37.0468     2986.00000
    37.0600     2915.00000
    37.0731     2994.00000
    37.0862     3003.00000
    37.0994     2876.00000
    37.1125     2936.00000
    37.1256     2999.00000
    37.1388     2998.00000
    37.1519     2983.00000
    37.1650     3018.00000
    37.1782     3003.00000
    37.1913     3183.00000
    37.2044     3094.00000
    37.2175     3192.00000
    37.2307     3329.00000
    37.2438     3096.00000
    37.2569     3255.00000
    37.2701     3347.00000
    37.2832     3401.00000
    37.2963     3629.00000
    37.3095     3838.00000
    37.3226     4577.00000
    37.3357     5454.00000
    37.3488     6702.00000
    37.3620     8115.00000
    37.3751     9261.00000
    37.3882     9952.00000
    37.4014     9929.00000
    37.4145     9575.00000
    37.4276     8604.00000
    37.4408     7638.00000
    37.4539     7086.00000
    37.4670     6871.00000
    37.4801     6843.00000
    37.4933     6801.00000
    37.5064     6328.00000
    37.5195     5796.00000
    37.5327     4941.00000
    37.5458     4110.00000
    37.5589     3697.00000
    37.5721     3369.00000
    37.5852     3249.00000
    37.5983     3196.00000
    37.6115     3159.00000
    37.6246     3164.00000
    37.6377     3203.00000
    37.6508     3359.00000
    37.6640     3637.00000
    37.6771     3717.00000
    37.6902     3626.00000
    37.7034     3523.00000
    37.7165     3409.00000
    37.7296     3325.00000
    37.7428     3252.00000
    37.7559     3356.00000
    37.7690     3303.00000
    37.7821     3403.00000
    37.7953     3306.00000
    37.8084     3098.00000
    37.8215     3145.00000
    37.8347     3066.00000
    37.8478     2945.00000
    37.8609     2856.00000
    37.8741     2874.00000
    37.8872     2788.00000
    37.9003     2802.00000
    37.9134     2768.00000
    37.9266     2753.00000
    37.9397     2808.00000
    37.9528     2840.00000
    37.9660     2820.00000
    37.9791     2889.00000
    37.9922     2762.00000
    38.0054     2910.00000
    38.0185     2795.00000
    38.0316     2668.00000
    38.0448     2773.00000
    38.0579     2716.00000
    38.0710     2672.00000
    38.0841     2701.00000
    38.0973     2739.00000
    38.1104     2709.00000
    38.1235     2653.00000
    38.1367     2687.00000
    38.1498     2751.00000
    38.1629     2719.00000
    38.1761     2793.00000
    38.1892     2748.00000
    38.2023     2727.00000
    38.2154     2706.00000
    38.2286     2763.00000
    38.2417     2676.00000
    38.2548     2785.00000
    38.2680     2667.00000
    38.2811     2743.00000
    38.2942     2724.00000
    38.3074     2710.00000
    38.3205     2645.00000
    38.3336     2775.00000
    38.3467     2766.00000
    38.3599     2774.00000
    38.3730     2839.00000
    38.3861     2798.00000
    38.3993     2671.00000
    38.4124     2725.00000
    38.4255     2781.00000
    38.4387     2719.00000
    38.4518     2799.00000
    38.4649     2772.00000
    38.4781     2703.00000
    38.4912     2788.00000
    38.5043     2663.00000
    38.5174     2801.00000
    38.5306     2726.00000
    38.5437     2801.00000
    38.5568     2730.00000
    38.5700     2769.00000
    38.5831     2724.00000
    38.5962     2699.00000
    38.6094     2859.00000
    38.6225     2805.00000
    38.6356     2725.00000
    38.6487     2747.00000
    38.6619     2856.00000
    38.6750     2780.00000
    38.6881     2805.00000
    38.7013     2838.00000
    38.7144     2640.00000
    38.7275     2741.00000
    38.7407     2731.00000
    38.7538     2787.00000
    38.7669     2693.00000
    38.7800     2785.00000
    38.7932     2789.00000
    38.8063     2651.00000
    38.8194     2628.00000
    38.8326     2656.00000
    38.8457     2793.00000
    38.8588     2713.00000
    38.8720     2708.00000
    38.8851     2826.00000
    38.8982     2712.00000
    38.9114     2749.00000
    38.9245     2811.00000
    38.9376     2711.00000
    38.9507     2760.00000
    38.9639     2818.00000
    38.9770     2801.00000
    38.9901     2718.00000
    39.0033     2813.00000
    39.0164     2807.00000
    39.0295     2744.00000
    39.0427     2775.00000
    39.0558     2746.00000
    39.0689     2701.00000
    39.0820     2743.00000
    39.0952     2717.00000
    39.1083     2784.00000
    39.1214     2738.00000
    39.1346     2763.00000
    39.1477     2667.00000
    39.1608     2739.00000
    39.1740     2698.00000
    39.1871     2766.00000
    39.2002     2772.00000
    39.2133     2738.00000
    39.2265     2764.00000
    39.2396     2642.00000
    39.2527     2765.00000
    39.2659     2684.00000
    39.2790     2670.00000
    39.2921     2727.00000
    39.3053     2724.00000
    39.3184     2714.00000
    39.3315     2714.00000
    39.3446     2715.00000
    39.3578     2690.00000
    39.3709     2797.00000
    39.3840     2768.00000
    39.3972     2805.00000
    39.4103     2700.00000
    39.4234     2771.00000
    39.4366     2784.00000
    39.4497     2877.00000
    39.4628     2800.00000
    39.4760     2824.00000
    39.4891     2786.00000
    39.5022     2766.00000
    39.5153     2841.00000
    39.5285     2838.00000
    39.5416     2826.00000
    39.5547     2871.00000
    39.5679     2790.00000
    39.5810     2908.00000
    39.5941     2949.00000
    39.6073     2901.00000
    39.6204     2993.00000
    39.6335     3189.00000
    39.6466     3361.00000
    39.6598     3624.00000
    39.6729     4100.00000
    39.6860     4491.00000
    39.6992     4869.00000
    39.7123     5135.00000
    39.7254     4972.00000
    39.7386     4930.00000
    39.7517     4524.00000
    39.7648     4105.00000
    39.7779     4014.00000
    39.7911     4089.00000
    39.8042     4057.00000
    39.8173     4143.00000
    39.8305     4142.00000
    39.8436     3863.00000
    39.8567     3635.00000
    39.8699     3401.00000
    39.8830     3294.00000
    39.8961     3136.00000
    39.9092     3162.00000
    39.9224     3063.00000
    39.9355     3231.00000
    39.9486     3362.00000
    39.9618     3596.00000
    39.9749     3871.00000
    39.9880     4224.00000
    40.0012     5019.00000
    40.0143     6244.00000
    40.0274     7134.00000
    40.0406     7452.00000
    40.0537     7126.00000
    40.0668     6527.00000
    40.0799     6031.00000
    40.0931     5413.00000
    40.1062     5253.00000
    40.1193     5378.00000
    40.1325     5470.00000
    40.1456     5730.00000
    40.1587     5332.00000
    40.1719     4822.00000
    40.1850     4437.00000
    40.1981     3995.00000
    40.2112     3779.00000
    40.2244     3604.00000
    40.2375     3469.00000
    40.2506     3547.00000
    40.2638     3863.00000
    40.2769     4195.00000
    40.2900     4804.00000
    40.3032     6043.00000
    40.3163     7497.00000
    40.3294     9078.00000
    40.3425     9644.00000
    40.3557     9449.00000
    40.3688     8160.00000
    40.3819     6782.00000
    40.3951     5786.00000
    40.4082     5666.00000
    40.4213     5912.00000
    40.4345     6290.00000
    40.4476     6663.00000
    40.4607     6097.00000
    40.4739     5496.00000
    40.4870     4676.00000
    40.5001     3988.00000
    40.5132     3567.00000
    40.5264     3393.00000
    40.5395     3238.00000
    40.5526     3096.00000
    40.5658     3058.00000
    40.5789     3088.00000
    40.5920     2878.00000
    40.6052     2941.00000
    40.6183     2897.00000
    40.6314     2986.00000
    40.6445     2889.00000
    40.6577     2891.00000
    40.6708     2918.00000
    40.6839     2932.00000
    40.6971     2882.00000
    40.7102     2868.00000
    40.7233     2817.00000
    40.7365     2916.00000
    40.7496     2986.00000
    40.7627     2874.00000
    40.7758     2963.00000
    40.7890     3025.00000
    40.8021     3025.00000
    40.8152     3077.00000
    40.8284     3178.00000
    40.8415     3157.00000
    40.8546     3223.00000
    40.8678     3381.00000
    40.8809     3442.00000
    40.8940     3550.00000
    40.9072     3814.00000
    40.9203     4135.00000
    40.9334     4797.00000
    40.9465     5422.00000
    40.9597     6645.00000
    40.9728     7870.00000
    40.9859     9500.00000
    40.9991    10758.00000
    41.0122    11367.00000
    41.0253    10955.00000
    41.0385     9876.00000
    41.0516     8412.00000
    41.0647     7733.00000
    41.0778     7548.00000
    41.0910     8288.00000
    41.1041     9384.00000
    41.1172    10769.00000
    41.1304    12504.00000
    41.1435    14199.00000
    41.1566    14615.00000
    41.1698    14279.00000
    41.1829    12298.00000
    41.1960    10581.00000
    41.2091     8907.00000
    41.2223     8325.00000
    41.2354     9357.00000
    41.2485    11279.00000
    41.2617    13564.00000
    41.2748    15396.00000
    41.2879    16253.00000
    41.3011    15411.00000
    41.3142    13460.00000
    41.3273    10542.00000
    41.3405     8524.00000
    41.3536     7381.00000
    41.3667     7057.00000
    41.3798     7410.00000
    41.3930     7681.00000
    41.4061     7926.00000
    41.4192     7254.00000
    41.4324     6242.00000
    41.4455     5265.00000
    41.4586     4449.00000
    41.4718     3754.00000
    41.4849     3431.00000
    41.4980     3180.00000
    41.5111     3114.00000
    41.5243     3068.00000
    41.5374     3052.00000
    41.5505     2890.00000
    41.5637     2905.00000
    41.5768     2819.00000
    41.5899     2818.00000
    41.6031     2739.00000
    41.6162     2812.00000
    41.6293     2869.00000
    41.6424     2822.00000
    41.6556     2755.00000
    41.6687     2698.00000
    41.6818     2771.00000
    41.6950     2795.00000
    41.7081     2819.00000
    41.7212     2740.00000
    41.7344     2808.00000
    41.7475     2741.00000
    41.7606     2801.00000
    41.7738     2793.00000
    41.7869     2748.00000
    41.8000     2671.00000
    41.8131     2781.00000
    41.8263     2593.00000
    41.8394     2705.00000
    41.8525     2661.00000
    41.8657     2649.00000
    41.8788     2653.00000
    41.8919     2647.00000
    41.9051     2760.00000
    41.9182     2557.00000
    41.9313     2649.00000
    41.9444     2689.00000
    41.9576     2761.00000
    41.9707     2612.00000
    41.9838     2632.00000
    41.9970     2764.00000
    42.0101     2659.00000
    42.0232     2733.00000
    42.0364     2704.00000
    42.0495     2727.00000
    42.0626     2627.00000
    42.0757     2666.00000
    42.0889     2671.00000
    42.1020     2729.00000
    42.1151     2640.00000
    42.1283     2601.00000
    42.1414     2728.00000
    42.1545     2648.00000
    42.1677     2593.00000
    42.1808     2565.00000
    42.1939     2640.00000
    42.2071     2698.00000
    42.2202     2684.00000
    42.2333     2644.00000
    42.2464     2653.00000
    42.2596     2727.00000
    42.2727     2706.00000
    42.2858     2647.00000
    42.2990     2700.00000
    42.3121     2729.00000
    42.3252     2684.00000
    42.3384     2678.00000
    42.3515     2680.00000
    42.3646     2754.00000
    42.3777     2784.00000
    42.3909     2670.00000
    42.4040     2601.00000
    42.4171     2747.00000
    42.4303     2648.00000
    42.4434     2782.00000
    42.4565     2650.00000
    42.4697     2645.00000
    42.4828     2639.00000
    42.4959     2628.00000
    42.5090     2723.00000
    42.5222     2601.00000
    42.5353     2667.00000
    42.5484     2674.00000
    42.5616     2552.00000
    42.5747     2586.00000
    42.5878     2706.00000
    42.6010     2678.00000
    42.6141     2694.00000
    42.6272     2641.00000
    42.6404     2682.00000
    42.6535     2680.00000
    42.6666     2612.00000
    42.6797     2703.00000
    42.6929     2664.00000
    42.7060     2639.00000
    42.7191     2703.00000
    42.7323     2668.00000
    42.7454     2676.00000
    42.7585     2624.00000
    42.7717     2759.00000
    42.7848     2737.00000
    42.7979     2711.00000
    42.8110     2633.00000
    42.8242     2676.00000
    42.8373     2699.00000
    42.8504     2711.00000
    42.8636     2646.00000
    42.8767     2604.00000
    42.8898     2596.00000
    42.9030     2738.00000
    42.9161     2743.00000
    42.9292     2715.00000
    42.9423     2778.00000
    42.9555     2802.00000
    42.9686     2745.00000
    42.9817     2691.00000
    42.9949     2717.00000
    43.0080     2728.00000
    43.0211     2697.00000
    43.0343     2616.00000
    43.0474     2659.00000
    43.0605     2678.00000
    43.0736     2635.00000
    43.0868     2636.00000
    43.0999     2646.00000
    43.1130     2638.00000
    43.1262     2686.00000
    43.1393     2689.00000
    43.1524     2583.00000
    43.1656     2642.00000
    43.1787     2639.00000
    43.1918     2644.00000
    43.2050     2587.00000
    43.2181     2619.00000
    43.2312     2540.00000
    43.2443     2726.00000
    43.2575     2663.00000
    43.2706     2744.00000
    43.2837     2640.00000
    43.2969     2747.00000
    43.3100     2641.00000
    43.3231     2707.00000
    43.3363     2681.00000
    43.3494     2834.00000
    43.3625     2815.00000
    43.3756     2831.00000
    43.3888     2909.00000
    43.4019     3234.00000
    43.4150     3315.00000
    43.4282     3492.00000
    43.4413     3457.00000
    43.4544     3286.00000
    43.4676     3149.00000
    43.4807     3231.00000
    43.4938     2992.00000
    43.5069     3037.00000
    43.5201     3060.00000
    43.5332     3038.00000
    43.5463     3137.00000
    43.5595     3085.00000
    43.5726     2951.00000
    43.5857     2840.00000
    43.5989     2875.00000
    43.6120     2787.00000
    43.6251     2729.00000
    43.6383     2667.00000
    43.6514     2734.00000
    43.6645     2652.00000
    43.6776     2823.00000
    43.6908     2646.00000
    43.7039     2657.00000
    43.7170     2651.00000
    43.7302     2611.00000
    43.7433     2633.00000
    43.7564     2567.00000
    43.7696     2556.00000
    43.7827     2669.00000
    43.7958     2742.00000
    43.8089     2696.00000
    43.8221     2642.00000
    43.8352     2571.00000
    43.8483     2705.00000
    43.8615     2769.00000
    43.8746     2709.00000
    43.8877     2689.00000
    43.9009     2671.00000
    43.9140     2652.00000
    43.9271     2710.00000
    43.9402     2709.00000
    43.9534     2660.00000
    43.9665     2667.00000
    43.9796     2614.00000
    43.9928     2670.00000
    44.0059     2668.00000
    44.0190     2743.00000
    44.0322     2648.00000
    44.0453     2654.00000
    44.0584     2633.00000
    44.0715     2663.00000
    44.0847     2563.00000
    44.0978     2769.00000
    44.1109     2717.00000
    44.1241     2850.00000
    44.1372     3013.00000
    44.1503     2976.00000
    44.1635     3133.00000
    44.1766     3456.00000
    44.1897     3659.00000
    44.2029     3794.00000
    44.2160     3870.00000
    44.2291     3825.00000
    44.2422     3835.00000
    44.2554     3516.00000
    44.2685     3341.00000
    44.2816     3269.00000
    44.2948     3239.00000
    44.3079     3317.00000
    44.3210     3357.00000
    44.3342     3313.00000
    44.3473     3275.00000
    44.3604     3236.00000
    44.3735     3124.00000
    44.3867     2989.00000
    44.3998     2892.00000
    44.4129     2967.00000
    44.4261     2814.00000
    44.4392     2873.00000
    44.4523     2856.00000
    44.4655     2996.00000
    44.4786     2998.00000
    44.4917     3044.00000
    44.5048     3177.00000
    44.5180     3317.00000
    44.5311     3533.00000
    44.5442     4137.00000
    44.5574     4470.00000
    44.5705     4989.00000
    44.5836     5560.00000
    44.5968     5692.00000
    44.6099     5459.00000
    44.6230     5190.00000
    44.6362     4676.00000
    44.6493     4215.00000
    44.6624     4067.00000
    44.6755     4054.00000
    44.6887     4124.00000
    44.7018     4363.00000
    44.7149     4368.00000
    44.7281     4118.00000
    44.7412     3835.00000
    44.7543     3631.00000
    44.7675     3342.00000
    44.7806     3180.00000
    44.7937     2956.00000
    44.8068     2817.00000
    44.8200     2793.00000
    44.8331     2743.00000
    44.8462     2809.00000
    44.8594     2719.00000
    44.8725     2706.00000
    44.8856     2788.00000
    44.8988     2695.00000
    44.9119     2693.00000
    44.9250     2802.00000
    44.9381     2709.00000
    44.9513     2713.00000
    44.9644     2638.00000
    44.9775     2585.00000
    44.9907     2605.00000
    45.0038     2686.00000
    45.0169     2623.00000
    45.0301     2667.00000
    45.0432     2601.00000
    45.0563     2598.00000
    45.0695     2491.00000
    45.0826     2607.00000
    45.0957     2675.00000
    45.1088     2697.00000
    45.1220     2633.00000
    45.1351     2565.00000
    45.1482     2610.00000
    45.1614     2594.00000
    45.1745     2610.00000
    45.1876     2620.00000
    45.2008     2618.00000
    45.2139     2606.00000
    45.2270     2614.00000
    45.2401     2637.00000
    45.2533     2659.00000
    45.2664     2551.00000
    45.2795     2646.00000
    45.2927     2530.00000
    45.3058     2590.00000
    45.3189     2587.00000
    45.3321     2561.00000
    45.3452     2805.00000
    45.3583     2630.00000
    45.3714     2699.00000
    45.3846     2674.00000
    45.3977     2709.00000
    45.4108     2828.00000
    45.4240     2741.00000
    45.4371     2798.00000
    45.4502     2775.00000
    45.4634     2839.00000
    45.4765     2913.00000
    45.4896     2878.00000
    45.5028     2875.00000
    45.5159     2979.00000
    45.5290     2800.00000
    45.5421     2956.00000
    45.5553     2957.00000
    45.5684     3070.00000
    45.5815     3137.00000
    45.5947     3225.00000
    45.6078     3490.00000
    45.6209     3852.00000
    45.6341     4786.00000
    45.6472     6192.00000
    45.6603     8621.00000
    45.6734    10730.00000
    45.6866    12308.00000
    45.6997    11644.00000
    45.7128     9642.00000
    45.7260     7472.00000
    45.7391     5868.00000
    45.7522     5117.00000
    45.7654     5337.00000
    45.7785     5766.00000
    45.7916     6753.00000
    45.8047     7375.00000
    45.8179     7436.00000
    45.8310     6342.00000
    45.8441     5217.00000
    45.8573     4347.00000
    45.8704     3538.00000
    45.8835     3146.00000
    45.8967     3174.00000
    45.9098     2966.00000
    45.9229     3033.00000
    45.9361     2817.00000
    45.9492     2929.00000
    45.9623     2848.00000
    45.9754     2684.00000
    45.9886     2802.00000
    46.0017     2736.00000
    46.0148     2724.00000
    46.0280     2653.00000
    46.0411     2658.00000
    46.0542     2747.00000
    46.0674     2760.00000
    46.0805     2724.00000
    46.0936     2691.00000
    46.1067     2776.00000
    46.1199     2842.00000
    46.1330     2800.00000
    46.1461     2851.00000
    46.1593     2833.00000
    46.1724     2866.00000
    46.1855     2864.00000
    46.1987     2898.00000
    46.2118     2843.00000
    46.2249     2819.00000
    46.2380     2980.00000
    46.2512     3084.00000
    46.2643     3239.00000
    46.2774     3491.00000
    46.2906     4016.00000
    46.3037     4968.00000
    46.3168     6114.00000
    46.3300     7387.00000
    46.3431     7558.00000
    46.3562     6631.00000
    46.3694     5674.00000
    46.3825     4737.00000
    46.3956     4281.00000
    46.4087     3969.00000
    46.4219     4080.00000
    46.4350     4392.00000
    46.4481     4996.00000
    46.4613     5246.00000
    46.4744     4871.00000
    46.4875     4469.00000
    46.5007     3746.00000
    46.5138     3422.00000
    46.5269     3250.00000
    46.5400     3016.00000
    46.5532     2961.00000
    46.5663     2823.00000
    46.5794     2791.00000
    46.5926     2793.00000
    46.6057     2829.00000
    46.6188     2810.00000
    46.6320     2749.00000
    46.6451     2801.00000
    46.6582     2693.00000
    46.6713     2724.00000
    46.6845     2568.00000
    46.6976     2722.00000
    46.7107     2824.00000
    46.7239     2770.00000
    46.7370     2669.00000
    46.7501     2666.00000
    46.7633     2710.00000
    46.7764     2689.00000
    46.7895     2649.00000
    46.8027     2735.00000
    46.8158     2784.00000
    46.8289     2750.00000
    46.8420     2689.00000
    46.8552     2769.00000
    46.8683     2695.00000
    46.8814     2783.00000
    46.8946     2822.00000
    46.9077     2784.00000
    46.9208     2795.00000
    46.9340     2912.00000
    46.9471     2913.00000
    46.9602     2843.00000
    46.9733     2953.00000
    46.9865     2873.00000
    46.9996     2913.00000
    47.0127     3009.00000
    47.0259     3108.00000
    47.0390     3097.00000
    47.0521     3163.00000
    47.0653     3295.00000
    47.0784     3483.00000
    47.0915     3818.00000
    47.1046     4443.00000
    47.1178     4964.00000
    47.1309     5913.00000
    47.1440     6858.00000
    47.1572     7643.00000
    47.1703     8385.00000
    47.1834     8650.00000
    47.1966     8414.00000
    47.2097     7332.00000
    47.2228     6159.00000
    47.2359     5271.00000
    47.2491     5148.00000
    47.2622     5119.00000
    47.2753     5419.00000
    47.2885     5635.00000
    47.3016     5856.00000
    47.3147     5937.00000
    47.3279     5338.00000
    47.3410     4714.00000
    47.3541     4087.00000
    47.3673     3556.00000
    47.3804     3416.00000
    47.3935     3181.00000
    47.4066     3111.00000
    47.4198     3108.00000
    47.4329     3021.00000
    47.4460     2970.00000
    47.4592     3092.00000
    47.4723     2964.00000
    47.4854     2932.00000
    47.4986     3027.00000
    47.5117     3083.00000
    47.5248     3043.00000
    47.5379     3164.00000
    47.5511     3205.00000
    47.5642     3248.00000
    47.5773     3258.00000
    47.5905     3332.00000
    47.6036     3294.00000
    47.6167     3467.00000
    47.6299     3484.00000
    47.6430     3492.00000
    47.6561     3540.00000
    47.6692     3641.00000
    47.6824     3779.00000
    47.6955     3904.00000
    47.7086     4228.00000
    47.7218     4570.00000
    47.7349     5031.00000
    47.7480     5839.00000
    47.7612     6837.00000
    47.7743     8466.00000
    47.7874    10874.00000
    47.8005    14145.00000
    47.8137    17795.00000
    47.8268    20306.00000
    47.8399    20226.00000
    47.8531    18360.00000
    47.8662    15372.00000
    47.8793    12703.00000
    47.8925    11005.00000
    47.9056     9965.00000
    47.9187    10275.00000
    47.9319    10887.00000
    47.9450    12087.00000
    47.9581    12486.00000
    47.9712    11686.00000
    47.9844    10379.00000
    47.9975     8634.00000
    48.0106     7218.00000
    48.0238     5908.00000
    48.0369     5093.00000
    48.0500     4466.00000
    48.0632     3999.00000
    48.0763     3864.00000
    48.0894     3598.00000
    48.1025     3502.00000
    48.1157     3334.00000
    48.1288     3365.00000
    48.1419     3392.00000
    48.1551     3172.00000
    48.1682     3361.00000
    48.1813     3173.00000
    48.1945     3246.00000
    48.2076     3209.00000
    48.2207     3240.00000
    48.2338     3271.00000
    48.2470     3437.00000
    48.2601     3442.00000
    48.2732     3452.00000
    48.2864     3531.00000
    48.2995     3673.00000
    48.3126     4019.00000
    48.3258     4427.00000
    48.3389     5259.00000
    48.3520     6702.00000
    48.3652     8458.00000
    48.3783    10638.00000
    48.3914    12611.00000
    48.4045    13070.00000
    48.4177    13034.00000
    48.4308    13130.00000
    48.4439    13159.00000
    48.4571    12640.00000
    48.4702    11913.00000
    48.4833    10577.00000
    48.4965    10385.00000
    48.5096     9909.00000
    48.5227     9432.00000
    48.5358     8895.00000
    48.5490     8719.00000
    48.5621     8224.00000
    48.5752     8034.00000
    48.5884     7783.00000
    48.6015     7000.00000
    48.6146     6185.00000
    48.6278     5371.00000
    48.6409     4759.00000
    48.6540     4343.00000
    48.6671     3910.00000
    48.6803     3943.00000
    48.6934     4036.00000
    48.7065     4203.00000
    48.7197     4798.00000
    48.7328     5665.00000
    48.7459     6761.00000
    48.7591     8530.00000
    48.7722    11142.00000
    48.7853    13049.00000
    48.7985    13220.00000
    48.8116    12552.00000
    48.8247    10527.00000
    48.8378     8297.00000
    48.8510     6934.00000
    48.8641     6356.00000
    48.8772     6195.00000
    48.8904     6635.00000
    48.9035     7607.00000
    48.9166     8238.00000
    48.9298     8273.00000
    48.9429     7672.00000
    48.9560     6513.00000
    48.9691     5385.00000
    48.9823     4578.00000
    48.9954     3864.00000
    49.0085     3580.00000
    49.0217     3497.00000
    49.0348     3255.00000
    49.0479     3223.00000
    49.0611     3195.00000
    49.0742     3012.00000
    49.0873     2987.00000
    49.1004     2890.00000
    49.1136     2923.00000
    49.1267     2901.00000
    49.1398     2889.00000
    49.1530     2892.00000
    49.1661     2825.00000
    49.1792     2840.00000
    49.1924     2745.00000
    49.2055     2844.00000
    49.2186     2841.00000
    49.2318     2843.00000
    49.2449     2893.00000
    49.2580     2913.00000
    49.2711     2798.00000
    49.2843     2794.00000
    49.2974     2897.00000
    49.3105     2857.00000
    49.3237     2847.00000
    49.3368     2821.00000
    49.3499     2866.00000
    49.3631     3009.00000
    49.3762     3072.00000
    49.3893     3201.00000
    49.4024     3309.00000
    49.4156     3527.00000
    49.4287     3524.00000
    49.4418     3449.00000
    49.4550     3251.00000
    49.4681     3200.00000
    49.4812     3168.00000
    49.4944     3303.00000
    49.5075     3098.00000
    49.5206     3281.00000
    49.5337     3324.00000
    49.5469     3297.00000
    49.5600     3252.00000
    49.5731     3331.00000
    49.5863     3380.00000
    49.5994     3423.00000
    49.6125     3372.00000
    49.6257     3425.00000
    49.6388     3352.00000
    49.6519     3195.00000
    49.6651     3186.00000
    49.6782     3161.00000
    49.6913     3123.00000
    49.7044     3275.00000
    49.7176     3222.00000
    49.7307     3293.00000
    49.7438     3300.00000
    49.7570     3310.00000
    49.7701     3390.00000
    49.7832     3503.00000
    49.7964     3410.00000
    49.8095     3404.00000
    49.8226     3348.00000
    49.8357     3367.00000
    49.8489     3556.00000
    49.8620     3739.00000
    49.8751     3767.00000
    49.8883     4031.00000
    49.9014     4368.00000
    49.9145     4941.00000
    49.9277     5884.00000
    49.9408     7231.00000
    49.9539     9078.00000
    49.9670    12491.00000
    49.9802    16117.00000
    49.9933    18496.00000
    50.0064    19014.00000
    50.0196    18239.00000
    50.0327    15776.00000
    50.0458    12759.00000
    50.0590    10823.00000
    50.0721     9789.00000
    50.0852     9873.00000
    50.0984    10806.00000
    50.1115    11709.00000
    50.1246    12849.00000
    50.1377    12778.00000
    50.1509    11674.00000
    50.1640     9969.00000
    50.1771     8356.00000
    50.1903     6999.00000
    50.2034     6207.00000
    50.2165     5389.00000
    50.2297     4916.00000
    50.2428     4640.00000
    50.2559     4377.00000
    50.2690     4127.00000
    50.2822     3842.00000
    50.2953     3653.00000
    50.3084     3443.00000
    50.3216     3572.00000
    50.3347     3345.00000
    50.3478     3458.00000
    50.3610     3369.00000
    50.3741     3356.00000
    50.3872     3351.00000
    50.4003     3400.00000
    50.4135     3506.00000
    50.4266     3649.00000
    50.4397     3739.00000
    50.4529     3915.00000
    50.4660     4129.00000
    50.4791     4611.00000
    50.4923     5024.00000
    50.5054     5930.00000
    50.5185     7039.00000
    50.5317     8195.00000
    50.5448     9761.00000
    50.5579    10808.00000
    50.5710    11266.00000
    50.5842    11201.00000
    50.5973    10098.00000
    50.6104     8271.00000
    50.6236     7364.00000
    50.6367     6605.00000
    50.6498     6207.00000
    50.6630     6403.00000
    50.6761     6837.00000
    50.6892     7104.00000
    50.7023     7318.00000
    50.7155     7031.00000
    50.7286     6609.00000
    50.7417     5907.00000
    50.7549     5025.00000
    50.7680     4446.00000
    50.7811     3818.00000
    50.7943     3574.00000
    50.8074     3446.00000
    50.8205     3276.00000
    50.8336     3149.00000
    50.8468     3069.00000
    50.8599     2964.00000
    50.8730     2989.00000
    50.8862     2934.00000
    50.8993     2937.00000
    50.9124     2903.00000
    50.9256     2802.00000
    50.9387     2880.00000
    50.9518     2772.00000
    50.9649     2850.00000
    50.9781     2745.00000
    50.9912     2838.00000
    51.0043     2715.00000
    51.0175     2771.00000
    51.0306     2806.00000
    51.0437     2764.00000
    51.0569     2756.00000
    51.0700     2823.00000
    51.0831     2800.00000
    51.0963     2754.00000
    51.1094     2834.00000
    51.1225     2824.00000
    51.1356     2797.00000
    51.1488     2874.00000
    51.1619     2910.00000
    51.1750     2752.00000
    51.1882     2791.00000
    51.2013     2882.00000
    51.2144     3020.00000
    51.2276     2964.00000
    51.2407     2884.00000
    51.2538     2935.00000
    51.2669     2930.00000
    51.2801     2978.00000
    51.2932     2967.00000
    51.3063     2964.00000
    51.3195     2995.00000
    51.3326     3104.00000
    51.3457     3210.00000
    51.3589     3263.00000
    51.3720     3605.00000
    51.3851     3786.00000
    51.3982     4328.00000
    51.4114     5134.00000
    51.4245     6163.00000
    51.4376     8017.00000
    51.4508     9031.00000
    51.4639     9307.00000
    51.4770     8483.00000
    51.4902     7158.00000
    51.5033     5800.00000
    51.5164     4752.00000
    51.5296     4447.00000
    51.5427     4445.00000
    51.5558     4645.00000
    51.5689     5240.00000
    51.5821     5900.00000
    51.5952     6179.00000
    51.6083     6039.00000
    51.6215     5464.00000
    51.6346     4689.00000
    51.6477     4210.00000
    51.6609     3959.00000
    51.6740     3824.00000
    51.6871     3798.00000
    51.7002     3645.00000
    51.7134     3588.00000
    51.7265     3461.00000
    51.7396     3280.00000
    51.7528     3150.00000
    51.7659     3057.00000
    51.7790     2974.00000
    51.7922     3063.00000
    51.8053     3110.00000
    51.8184     3162.00000
    51.8315     3155.00000
    51.8447     3155.00000
    51.8578     3047.00000
    51.8709     2962.00000
    51.8841     2918.00000
    51.8972     2786.00000
    51.9103     2804.00000
    51.9235     2888.00000
    51.9366     2769.00000
    51.9497     2748.00000
    51.9628     2766.00000
    51.9760     2751.00000
    51.9891     2740.00000
    52.0022     2801.00000
    52.0154     2819.00000
    52.0285     2686.00000
    52.0416     2825.00000
    52.0548     2785.00000
    52.0679     2741.00000
    52.0810     2728.00000
    52.0942     2737.00000
    52.1073     2740.00000
    52.1204     2703.00000
    52.1335     2775.00000
    52.1467     2766.00000
    52.1598     2692.00000
    52.1729     2720.00000
    52.1861     2641.00000
    52.1992     2767.00000
    52.2123     2690.00000
    52.2255     2838.00000
    52.2386     2822.00000
    52.2517     2768.00000
    52.2648     2828.00000
    52.2780     2768.00000
    52.2911     2732.00000
    52.3042     2808.00000
    52.3174     2875.00000
    52.3305     2800.00000
    52.3436     2958.00000
    52.3568     2950.00000
    52.3699     3026.00000
    52.3830     2981.00000
    52.3961     3052.00000
    52.4093     3122.00000
    52.4224     3185.00000
    52.4355     3346.00000
    52.4487     3531.00000
    52.4618     3789.00000
    52.4749     4133.00000
    52.4881     4997.00000
    52.5012     6030.00000
    52.5143     7483.00000
    52.5275     8823.00000
    52.5406     9834.00000
    52.5537    10585.00000
    52.5668    10788.00000
    52.5800    10699.00000
    52.5931     9724.00000
    52.6062     8749.00000
    52.6194     7449.00000
    52.6325     6223.00000
    52.6456     5833.00000
    52.6588     6093.00000
    52.6719     6326.00000
    52.6850     6567.00000
    52.6981     6923.00000
    52.7113     6739.00000
    52.7244     6810.00000
    52.7375     6138.00000
    52.7507     5385.00000
    52.7638     4504.00000
    52.7769     3892.00000
    52.7901     3573.00000
    52.8032     3361.00000
    52.8163     3259.00000
    52.8294     3174.00000
    52.8426     3157.00000
    52.8557     3212.00000
    52.8688     3151.00000
    52.8820     3342.00000
    52.8951     3544.00000
    52.9082     3613.00000
    52.9214     4165.00000
    52.9345     4461.00000
    52.9476     4857.00000
    52.9608     5187.00000
    52.9739     5617.00000
    52.9870     5739.00000
    53.0001     5795.00000
    53.0133     5745.00000
    53.0264     5557.00000
    53.0395     5238.00000
    53.0527     5095.00000
    53.0658     4592.00000
    53.0789     4498.00000
    53.0921     4315.00000
    53.1052     4297.00000
    53.1183     4458.00000
    53.1314     4335.00000
    53.1446     4274.00000
    53.1577     4148.00000
    53.1708     4170.00000
    53.1840     3884.00000
    53.1971     3505.00000
    53.2102     3356.00000
    53.2234     3107.00000
    53.2365     3030.00000
    53.2496     2971.00000
    53.2627     2740.00000
    53.2759     2773.00000
    53.2890     2757.00000
    53.3021     2705.00000
    53.3153     2707.00000
    53.3284     2776.00000
    53.3415     2669.00000
    53.3547     2903.00000
    53.3678     2784.00000
    53.3809     2742.00000
    53.3941     2809.00000
    53.4072     2640.00000
    53.4203     2717.00000
    53.4334     2836.00000
    53.4466     2856.00000
    53.4597     2918.00000
    53.4728     3038.00000
    53.4860     3270.00000
    53.4991     3429.00000
    53.5122     3615.00000
    53.5254     3901.00000
    53.5385     4186.00000
    53.5516     4443.00000
    53.5647     4248.00000
    53.5779     3997.00000
    53.5910     3839.00000
    53.6041     3439.00000
    53.6173     3269.00000
    53.6304     3213.00000
    53.6435     3310.00000
    53.6567     3469.00000
    53.6698     3545.00000
    53.6829     3611.00000
    53.6960     3689.00000
    53.7092     3587.00000
    53.7223     3530.00000
    53.7354     3233.00000
    53.7486     2977.00000
    53.7617     2960.00000
    53.7748     2932.00000
    53.7880     2806.00000
    53.8011     2827.00000
    53.8142     2847.00000
    53.8274     2832.00000
    53.8405     2761.00000
    53.8536     2651.00000
    53.8667     2688.00000
    53.8799     2746.00000
    53.8930     2627.00000
    53.9061     2699.00000
    53.9193     2640.00000
    53.9324     2655.00000
    53.9455     2714.00000
    53.9587     2652.00000
    53.9718     2570.00000
    53.9849     2633.00000
    53.9980     2576.00000
    54.0112     2617.00000
    54.0243     2611.00000
    54.0374     2595.00000
    54.0506     2613.00000
    54.0637     2707.00000
    54.0768     2595.00000
    54.0900     2591.00000
    54.1031     2716.00000
    54.1162     2590.00000
    54.1293     2786.00000
    54.1425     2735.00000
    54.1556     2619.00000
    54.1687     2621.00000
    54.1819     2609.00000
    54.1950     2665.00000
    54.2081     2598.00000
    54.2213     2638.00000
    54.2344     2606.00000
    54.2475     2582.00000
    54.2607     2619.00000
    54.2738     2620.00000
    54.2869     2663.00000
    54.3000     2728.00000
    54.3132     2738.00000
    54.3263     2886.00000
    54.3394     2835.00000
    54.3526     2868.00000
    54.3657     2828.00000
    54.3788     3016.00000
    54.3920     3014.00000
    54.4051     3021.00000
    54.4182     2961.00000
    54.4313     3029.00000
    54.4445     3020.00000
    54.4576     2967.00000
    54.4707     2916.00000
    54.4839     2919.00000
    54.4970     2822.00000
    54.5101     2818.00000
    54.5233     2768.00000
    54.5364     2815.00000
    54.5495     2810.00000
    54.5626     2751.00000
    54.5758     2783.00000
    54.5889     2740.00000
    54.6020     2763.00000
    54.6152     2695.00000
    54.6283     2705.00000
    54.6414     2724.00000
    54.6546     2758.00000
    54.6677     2682.00000
    54.6808     2640.00000
    54.6940     2717.00000
    54.7071     2718.00000
    54.7202     2694.00000
    54.7333     2602.00000
    54.7465     2728.00000
    54.7596     2585.00000
    54.7727     2563.00000
    54.7859     2637.00000
    54.7990     2595.00000
    54.8121     2585.00000
    54.8253     2609.00000
    54.8384     2623.00000
    54.8515     2645.00000
    54.8646     2619.00000
    54.8778     2733.00000
    54.8909     2588.00000
    54.9040     2621.00000
    54.9172     2587.00000
    54.9303     2665.00000
    54.9434     2524.00000
    54.9566     2681.00000
    54.9697     2556.00000
    54.9828     2641.00000
    54.9959     2637.00000
    55.0091     2731.00000
    55.0222     2678.00000
    55.0353     2608.00000
    55.0485     2738.00000
    55.0616     2802.00000
    55.0747     2594.00000
    55.0879     2684.00000
    55.1010     2728.00000
    55.1141     2669.00000
    55.1272     2616.00000
    55.1404     2677.00000
    55.1535     2793.00000
    55.1666     2836.00000
    55.1798     2778.00000
    55.1929     2755.00000
    55.2060     2803.00000
    55.2192     2785.00000
    55.2323     2819.00000
    55.2454     2938.00000
    55.2586     2828.00000
    55.2717     2999.00000
    55.2848     2957.00000
    55.2979     2985.00000
    55.3111     3023.00000
    55.3242     3102.00000
    55.3373     3106.00000
    55.3505     3191.00000
    55.3636     3310.00000
    55.3767     3487.00000
    55.3899     3761.00000
    55.4030     4080.00000
    55.4161     4613.00000
    55.4292     5420.00000
    55.4424     6632.00000
    55.4555     8018.00000
    55.4686     9771.00000
    55.4818    11054.00000
    55.4949    11748.00000
    55.5080    11139.00000
    55.5212     9839.00000
    55.5343     8323.00000
    55.5474     6815.00000
    55.5605     5933.00000
    55.5737     5694.00000
    55.5868     5651.00000
    55.5999     6104.00000
    55.6131     6461.00000
    55.6262     7305.00000
    55.6393     7806.00000
    55.6525     7619.00000
    55.6656     6774.00000
    55.6787     6201.00000
    55.6918     5303.00000
    55.7050     4652.00000
    55.7181     3957.00000
    55.7312     3681.00000
    55.7444     3504.00000
    55.7575     3600.00000
    55.7706     3505.00000
    55.7838     3481.00000
    55.7969     3525.00000
    55.8100     3614.00000
    55.8232     3656.00000
    55.8363     3506.00000
    55.8494     3391.00000
    55.8625     3297.00000
    55.8757     3064.00000
    55.8888     3087.00000
    55.9019     3054.00000
    55.9151     2992.00000
    55.9282     2956.00000
    55.9413     3045.00000
    55.9545     3059.00000
    55.9676     3087.00000
    55.9807     3107.00000
    55.9938     3155.00000
    56.0070     3091.00000
    56.0201     2916.00000
    56.0332     2954.00000
    56.0464     2930.00000
    56.0595     3020.00000
    56.0726     2936.00000
    56.0858     2986.00000
    56.0989     2949.00000
    56.1120     2953.00000
    56.1251     2978.00000
    56.1383     3014.00000
    56.1514     3022.00000
    56.1645     3101.00000
    56.1777     3140.00000
    56.1908     3201.00000
    56.2039     3311.00000
    56.2171     3529.00000
    56.2302     3745.00000
    56.2433     4095.00000
    56.2565     4688.00000
    56.2696     5625.00000
    56.2827     6957.00000
    56.2958     8353.00000
    56.3090    10049.00000
    56.3221    11478.00000
    56.3352    12363.00000
    56.3484    12773.00000
    56.3615    12330.00000
    56.3746    11186.00000
    56.3878    10057.00000
    56.4009     8163.00000
    56.4140     7465.00000
    56.4271     7041.00000
    56.4403     7389.00000
    56.4534     8077.00000
    56.4665     8912.00000
    56.4797     9520.00000
    56.4928    10003.00000
    56.5059     9377.00000
    56.5191     8782.00000
    56.5322     8011.00000
    56.5453     6721.00000
    56.5584     5788.00000
    56.5716     4979.00000
    56.5847     4545.00000
    56.5978     4375.00000
    56.6110     4203.00000
    56.6241     4222.00000
    56.6372     4201.00000
    56.6504     4037.00000
    56.6635     3878.00000
    56.6766     3637.00000
    56.6898     3426.00000
    56.7029     3253.00000
    56.7160     3260.00000
    56.7291     3053.00000
    56.7423     2990.00000
    56.7554     2919.00000
    56.7685     2942.00000
    56.7817     3022.00000
    56.7948     2930.00000
    56.8079     2906.00000
    56.8211     2917.00000
    56.8342     2888.00000
    56.8473     2790.00000
    56.8604     3058.00000
    56.8736     2898.00000
    56.8867     2943.00000
    56.8998     3038.00000
    56.9130     2965.00000
    56.9261     3022.00000
    56.9392     2963.00000
    56.9524     3047.00000
    56.9655     3084.00000
    56.9786     3260.00000
    56.9917     3229.00000
    57.0049     3339.00000
    57.0180     3576.00000
    57.0311     3748.00000
    57.0443     4027.00000
    57.0574     4503.00000
    57.0705     5160.00000
    57.0837     5984.00000
    57.0968     6790.00000
    57.1099     7514.00000
    57.1231     8213.00000
    57.1362     8744.00000
    57.1493     9388.00000
    57.1624     9620.00000
    57.1756     9807.00000
    57.1887     9942.00000
    57.2018     9750.00000
    57.2150     9000.00000
    57.2281     8349.00000
    57.2412     7859.00000
    57.2544     7225.00000
    57.2675     7142.00000
    57.2806     7215.00000
    57.2937     7379.00000
    57.3069     7915.00000
    57.3200     8568.00000
    57.3331     8985.00000
    57.3463     9351.00000
    57.3594     9646.00000
    57.3725     9106.00000
    57.3857     8269.00000
    57.3988     6984.00000
    57.4119     5926.00000
    57.4250     5087.00000
    57.4382     4768.00000
    57.4513     4379.00000
    57.4644     4311.00000
    57.4776     4411.00000
    57.4907     4731.00000
    57.5038     4876.00000
    57.5170     4924.00000
    57.5301     4842.00000
    57.5432     4602.00000
    57.5564     4049.00000
    57.5695     3903.00000
    57.5826     3613.00000
    57.5957     3386.00000
    57.6089     3247.00000
    57.6220     3227.00000
    57.6351     3123.00000
    57.6483     3136.00000
    57.6614     2982.00000
    57.6745     3085.00000
    57.6877     2943.00000
    57.7008     3050.00000
    57.7139     3008.00000
    57.7270     3063.00000
    57.7402     3062.00000
    57.7533     3143.00000
    57.7664     3098.00000
    57.7796     3209.00000
    57.7927     3255.00000
    57.8058     3415.00000
    57.8190     3547.00000
    57.8321     3728.00000
    57.8452     4287.00000
    57.8583     4872.00000
    57.8715     5723.00000
    57.8846     6683.00000
    57.8977     8167.00000
    57.9109     8697.00000
    57.9240     8750.00000
    57.9371     8138.00000
    57.9503     6962.00000
    57.9634     5893.00000
    57.9765     5183.00000
    57.9897     4887.00000
    58.0028     4840.00000
    58.0159     4791.00000
    58.0290     5081.00000
    58.0422     5849.00000
    58.0553     6288.00000
    58.0684     6823.00000
    58.0816     6833.00000
    58.0947     6367.00000
    58.1078     5512.00000
    58.1210     5013.00000
    58.1341     4486.00000
    58.1472     4218.00000
    58.1603     4100.00000
    58.1735     3965.00000
    58.1866     4083.00000
    58.1997     3917.00000
    58.2129     3858.00000
    58.2260     3735.00000
    58.2391     3559.00000
    58.2523     3445.00000
    58.2654     3357.00000
    58.2785     3256.00000
    58.2916     3163.00000
    58.3048     3239.00000
    58.3179     3201.00000
    58.3310     3327.00000
    58.3442     3256.00000
    58.3573     3316.00000
    58.3704     3063.00000
    58.3836     3152.00000
    58.3967     3150.00000
    58.4098     3131.00000
    58.4230     2974.00000
    58.4361     3123.00000
    58.4492     3091.00000
    58.4623     3223.00000
    58.4755     3264.00000
    58.4886     3274.00000
    58.5017     3427.00000
    58.5149     3600.00000
    58.5280     3885.00000
    58.5411     4220.00000
    58.5543     4806.00000
    58.5674     5182.00000
    58.5805     5709.00000
    58.5936     6688.00000
    58.6068     7408.00000
    58.6199     8025.00000
    58.6330     8332.00000
    58.6462     8328.00000
    58.6593     8015.00000
    58.6724     7185.00000
    58.6856     6506.00000
    58.6987     5749.00000
    58.7118     5451.00000
    58.7249     5564.00000
    58.7381     5824.00000
    58.7512     6098.00000
    58.7643     6898.00000
    58.7775     7858.00000
    58.7906     8824.00000
    58.8037    10152.00000
    58.8169    10876.00000
    58.8300    10970.00000
    58.8431    10557.00000
    58.8562     9391.00000
    58.8694     8273.00000
    58.8825     6566.00000
    58.8956     5581.00000
    58.9088     4968.00000
    58.9219     4756.00000
    58.9350     4819.00000
    58.9482     5105.00000
    58.9613     5635.00000
    58.9744     6127.00000
    58.9876     6398.00000
    59.0007     6631.00000
    59.0138     6448.00000
    59.0269     6221.00000
    59.0401     5651.00000
    59.0532     5586.00000
    59.0663     5683.00000
    59.0795     6192.00000
    59.0926     6931.00000
    59.1057     7847.00000
    59.1189     8954.00000
    59.1320     9340.00000
    59.1451     9702.00000
    59.1582     9130.00000
    59.1714     8137.00000
    59.1845     6852.00000
    59.1976     5908.00000
    59.2108     5268.00000
    59.2239     4842.00000
    59.2370     4862.00000
    59.2502     5110.00000
    59.2633     5308.00000
    59.2764     5767.00000
    59.2895     6012.00000
    59.3027     6257.00000
    59.3158     6139.00000
    59.3289     5561.00000
    59.3421     4965.00000
    59.3552     4348.00000
    59.3683     3894.00000
    59.3815     3652.00000
    59.3946     3406.00000
    59.4077     3280.00000
    59.4208     3248.00000
    59.4340     3193.00000
    59.4471     3126.00000
    59.4602     3055.00000
    59.4734     3105.00000
    59.4865     3107.00000
    59.4996     2992.00000
    59.5128     3184.00000
    59.5259     3100.00000
    59.5390     3110.00000
    59.5522     3194.00000
    59.5653     3175.00000
    59.5784     3314.00000
    59.5915     3432.00000
    59.6047     3561.00000
    59.6178     3954.00000
    59.6309     4414.00000
    59.6441     4924.00000
    59.6572     5753.00000
    59.6703     6432.00000
    59.6835     7144.00000
    59.6966     7986.00000
    59.7097     8364.00000
    59.7228     9000.00000
    59.7360     8895.00000
    59.7491     8740.00000
    59.7622     8278.00000
    59.7754     8011.00000
    59.7885     7626.00000
    59.8016     7640.00000
    59.8148     7568.00000
    59.8279     7660.00000
    59.8410     8093.00000
    59.8541     8589.00000
    59.8673     9457.00000
    59.8804    10629.00000
    59.8935    12300.00000
    59.9067    13304.00000
    59.9198    13669.00000
    59.9329    12563.00000
    59.9461    10716.00000
    59.9592     9009.00000
    59.9723     7423.00000
    59.9855     6308.00000
    59.9986     5925.00000
    60.0117     5440.00000
    60.0248     5291.00000
    60.0380     5749.00000
    60.0511     6107.00000
    60.0642     6785.00000
    60.0774     7013.00000
    60.0905     6917.00000
    60.1036     6277.00000
    60.1168     5366.00000
    60.1299     4699.00000
    60.1430     4120.00000
    60.1561     3745.00000
    60.1693     3348.00000
    60.1824     3222.00000
    60.1955     3242.00000
    60.2087     3125.00000
    60.2218     2986.00000
    60.2349     2933.00000
    60.2481     2931.00000
    60.2612     2896.00000
    60.2743     2903.00000
    60.2874     2820.00000
    60.3006     2904.00000
    60.3137     2801.00000
    60.3268     2819.00000
    60.3400     2828.00000
    60.3531     2806.00000
    60.3662     2885.00000
    60.3794     2904.00000
    60.3925     2829.00000
    60.4056     2737.00000
    60.4188     2925.00000
    60.4319     2848.00000
    60.4450     2935.00000
    60.4581     2883.00000
    60.4713     3011.00000
    60.4844     3020.00000
    60.4975     2953.00000
    60.5107     2912.00000
    60.5238     2991.00000
    60.5369     3019.00000
    60.5501     3230.00000
    60.5632     3189.00000
    60.5763     3341.00000
    60.5894     3298.00000
    60.6026     3521.00000
    60.6157     3686.00000
    60.6288     3856.00000
    60.6420     4259.00000
    60.6551     4728.00000
    60.6682     5730.00000
    60.6814     6732.00000
    60.6945     8125.00000
    60.7076     9463.00000
    60.7207    10477.00000
    60.7339    10784.00000
    60.7470    10514.00000
    60.7601    10049.00000
    60.7733     9735.00000
    60.7864     9666.00000
    60.7995     9898.00000
    60.8127     9871.00000
    60.8258     9829.00000
    60.8389     9395.00000
    60.8521     8953.00000
    60.8652     8762.00000
    60.8783     8585.00000
    60.8914     8420.00000
    60.9046     8096.00000
    60.9177     7814.00000
    60.9308     7682.00000
    60.9440     7535.00000
    60.9571     7516.00000
    60.9702     7881.00000
    60.9834     7724.00000
    60.9965     7508.00000
    61.0096     7214.00000
    61.0227     6664.00000
    61.0359     6058.00000
    61.0490     5514.00000
    61.0621     5223.00000
    61.0753     5042.00000
    61.0884     4937.00000
    61.1015     4827.00000
    61.1147     5174.00000
    61.1278     5221.00000
    61.1409     5469.00000
    61.1540     5650.00000
    61.1672     5605.00000
    61.1803     5864.00000
    61.1934     5662.00000
    61.2066     5351.00000
    61.2197     4953.00000
    61.2328     4511.00000
    61.2460     4189.00000
    61.2591     3891.00000
    61.2722     3714.00000
    61.2854     3724.00000
    61.2985     3718.00000
    61.3116     3806.00000
    61.3247     3741.00000
    61.3379     3759.00000
    61.3510     3691.00000
    61.3641     3643.00000
    61.3773     3464.00000
    61.3904     3266.00000
    61.4035     3210.00000
    61.4167     2958.00000
    61.4298     2770.00000
    61.4429     2813.00000
    61.4560     2738.00000
    61.4692     2664.00000
    61.4823     2652.00000
    61.4954     2698.00000
    61.5086     2638.00000
    61.5217     2607.00000
    61.5348     2571.00000
    61.5480     2546.00000
    61.5611     2629.00000
    61.5742     2577.00000
    61.5873     2580.00000
    61.6005     2526.00000
    61.6136     2502.00000
    61.6267     2481.00000
    61.6399     2587.00000
    61.6530     2530.00000
    61.6661     2601.00000
    61.6793     2481.00000
    61.6924     2593.00000
    61.7055     2534.00000
    61.7187     2593.00000
    61.7318     2516.00000
    61.7449     2529.00000
    61.7580     2516.00000
    61.7712     2650.00000
    61.7843     2522.00000
    61.7974     2449.00000
    61.8106     2526.00000
    61.8237     2559.00000
    61.8368     2643.00000
    61.8500     2508.00000
    61.8631     2584.00000
    61.8762     2547.00000
    61.8893     2498.00000
    61.9025     2537.00000
    61.9156     2485.00000
    61.9287     2583.00000
    61.9419     2505.00000
    61.9550     2493.00000
    61.9681     2515.00000
    61.9813     2532.00000
    61.9944     2576.00000
    62.0075     2565.00000
    62.0206     2581.00000
    62.0338     2456.00000
    62.0469     2431.00000
    62.0600     2509.00000
    62.0732     2507.00000
    62.0863     2567.00000
    62.0994     2511.00000
    62.1126     2620.00000
    62.1257     2495.00000
    62.1388     2488.00000
    62.1520     2519.00000
    62.1651     2452.00000
    62.1782     2446.00000
    62.1913     2502.00000
    62.2045     2388.00000
    62.2176     2510.00000
    62.2307     2467.00000
    62.2439     2521.00000
    62.2570     2462.00000
    62.2701     2357.00000
    62.2833     2475.00000
    62.2964     2440.00000
    62.3095     2493.00000
    62.3226     2416.00000
    62.3358     2503.00000
    62.3489     2416.00000
    62.3620     2567.00000
    62.3752     2574.00000
    62.3883     2623.00000
    62.4014     2533.00000
    62.4146     2534.00000
    62.4277     2638.00000
    62.4408     2530.00000
    62.4539     2459.00000
    62.4671     2519.00000
    62.4802     2472.00000
    62.4933     2486.00000
    62.5065     2436.00000
    62.5196     2373.00000
    62.5327     2525.00000
    62.5459     2523.00000
    62.5590     2528.00000
    62.5721     2551.00000
    62.5852     2531.00000
    62.5984     2519.00000
    62.6115     2455.00000
    62.6246     2542.00000
    62.6378     2400.00000
    62.6509     2407.00000
    62.6640     2486.00000
    62.6772     2417.00000
    62.6903     2431.00000
    62.7034     2419.00000
    62.7166     2444.00000
    62.7297     2505.00000
    62.7428     2405.00000
    62.7559     2431.00000
    62.7691     2484.00000
    62.7822     2518.00000
    62.7953     2430.00000
    62.8085     2494.00000
    62.8216     2495.00000
    62.8347     2497.00000
    62.8479     2499.00000
    62.8610     2437.00000
    62.8741     2512.00000
    62.8872     2413.00000
    62.9004     2493.00000
    62.9135     2506.00000
    62.9266     2497.00000
    62.9398     2509.00000
    62.9529     2408.00000
    62.9660     2487.00000
    62.9792     2472.00000
    62.9923     2545.00000
    63.0054     2335.00000
    63.0185     2421.00000
    63.0317     2386.00000
    63.0448     2424.00000
    63.0579     2520.00000
    63.0711     2481.00000
    63.0842     2464.00000
    63.0973     2479.00000
    63.1105     2463.00000
    63.1236     2456.00000
    63.1367     2364.00000
    63.1499     2457.00000
    63.1630     2445.00000
    63.1761     2488.00000
    63.1892     2429.00000
    63.2024     2433.00000
    63.2155     2428.00000
    63.2286     2500.00000
    63.2418     2409.00000
    63.2549     2457.00000
    63.2680     2438.00000
    63.2812     2418.00000
    63.2943     2461.00000
    63.3074     2496.00000
    63.3205     2544.00000
    63.3337     2524.00000
    63.3468     2461.00000
    63.3599     2471.00000
    63.3731     2465.00000
    63.3862     2506.00000
    63.3993     2468.00000
    63.4125     2517.00000
    63.4256     2488.00000
    63.4387     2483.00000
    63.4518     2608.00000
    63.4650     2577.00000
    63.4781     2626.00000
    63.4912     2624.00000
    63.5044     2777.00000
    63.5175     2765.00000
    63.5306     2747.00000
    63.5438     2854.00000
    63.5569     2948.00000
    63.5700     3003.00000
    63.5831     3106.00000
    63.5963     3294.00000
    63.6094     3327.00000
    63.6225     3639.00000
    63.6357     3965.00000
    63.6488     3916.00000
    63.6619     4177.00000
    63.6751     4075.00000
    63.6882     3915.00000
    63.7013     3579.00000
    63.7145     3413.00000
    63.7276     3194.00000
    63.7407     3073.00000
    63.7538     3023.00000
    63.7670     3011.00000
    63.7801     2998.00000
    63.7932     3123.00000
    63.8064     3108.00000
    63.8195     3277.00000
    63.8326     3381.00000
    63.8458     3368.00000
    63.8589     3222.00000
    63.8720     2998.00000
    63.8851     2882.00000
    63.8983     2854.00000
    63.9114     2755.00000
    63.9245     2742.00000
    63.9377     2691.00000
    63.9508     2586.00000
    63.9639     2641.00000
    63.9771     2659.00000
    63.9902     2574.00000
    64.0033     2784.00000
    64.0164     2758.00000
    64.0296     2807.00000
    64.0427     2853.00000
    64.0558     2947.00000
    64.0690     3074.00000
    64.0821     3350.00000
    64.0952     3506.00000
    64.1084     3860.00000
    64.1215     4081.00000
    64.1346     4390.00000
    64.1478     4652.00000
    64.1609     4648.00000
    64.1740     4598.00000
    64.1871     4735.00000
    64.2003     4672.00000
    64.2134     4646.00000
    64.2265     4640.00000
    64.2397     4639.00000
    64.2528     4253.00000
    64.2659     4141.00000
    64.2791     3792.00000
    64.2922     3834.00000
    64.3053     3728.00000
    64.3184     3651.00000
    64.3316     3689.00000
    64.3447     3778.00000
    64.3578     3782.00000
    64.3710     3644.00000
    64.3841     3496.00000
    64.3972     3419.00000
    64.4104     3430.00000
    64.4235     3270.00000
    64.4366     3237.00000
    64.4498     3025.00000
    64.4629     2940.00000
    64.4760     2687.00000
    64.4891     2692.00000
    64.5023     2559.00000
    64.5154     2581.00000
    64.5285     2535.00000
    64.5417     2399.00000
    64.5548     2501.00000
    64.5679     2404.00000
    64.5811     2476.00000
    64.5942     2452.00000
    64.6073     2373.00000
    64.6204     2415.00000
    64.6336     2401.00000
    64.6467     2424.00000
    64.6598     2386.00000
    64.6730     2388.00000
    64.6861     2351.00000
    64.6992     2383.00000
    64.7124     2433.00000
    64.7255     2433.00000
    64.7386     2408.00000
    64.7517     2510.00000
    64.7649     2400.00000
    64.7780     2417.00000
    64.7911     2433.00000
    64.8043     2488.00000
    64.8174     2462.00000
    64.8305     2407.00000
    64.8437     2390.00000
    64.8568     2443.00000
    64.8699     2505.00000
    64.8830     2562.00000
    64.8962     2441.00000
    64.9093     2564.00000
    64.9224     2600.00000
    64.9356     2654.00000
    64.9487     2532.00000
    64.9618     2651.00000
    64.9750     2694.00000
    64.9881     2688.00000
    65.0012     2652.00000
    65.0144     2625.00000
    65.0275     2748.00000
    65.0406     2527.00000
    65.0537     2658.00000
    65.0669     2588.00000
    65.0800     2706.00000
    65.0931     2745.00000
    65.1063     2673.00000
    65.1194     2738.00000
    65.1325     2643.00000
    65.1457     2833.00000
    65.1588     2766.00000
    65.1719     2775.00000
    65.1850     2669.00000
    65.1982     2709.00000
    65.2113     2590.00000
    65.2244     2604.00000
    65.2376     2446.00000
    65.2507     2565.00000
    65.2638     2469.00000
    65.2770     2581.00000
    65.2901     2467.00000
    65.3032     2510.00000
    65.3163     2443.00000
    65.3295     2433.00000
    65.3426     2483.00000
    65.3557     2444.00000
    65.3689     2500.00000
    65.3820     2517.00000
    65.3951     2383.00000
    65.4083     2433.00000
    65.4214     2410.00000
    65.4345     2390.00000
    65.4476     2441.00000
    65.4608     2370.00000
    65.4739     2383.00000
    65.4870     2372.00000
    65.5002     2340.00000
    65.5133     2293.00000
    65.5264     2426.00000
    65.5396     2349.00000
    65.5527     2354.00000
    65.5658     2289.00000
    65.5790     2388.00000
    65.5921     2390.00000
    65.6052     2348.00000
    65.6183     2350.00000
    65.6315     2405.00000
    65.6446     2386.00000
    65.6577     2290.00000
    65.6709     2409.00000
    65.6840     2377.00000
    65.6971     2342.00000
    65.7103     2341.00000
    65.7234     2361.00000
    65.7365     2470.00000
    65.7496     2384.00000
    65.7628     2377.00000
    65.7759     2382.00000
    65.7890     2407.00000
    65.8022     2426.00000
    65.8153     2311.00000
    65.8284     2383.00000
    65.8416     2367.00000
    65.8547     2471.00000
    65.8678     2486.00000
    65.8810     2396.00000
    65.8941     2404.00000
    65.9072     2385.00000
    65.9203     2456.00000
    65.9335     2399.00000
    65.9466     2363.00000
    65.9597     2445.00000
    65.9729     2419.00000
    65.9860     2314.00000
    65.9991     2402.00000
    66.0123     2420.00000
    66.0254     2454.00000
    66.0385     2349.00000
    66.0516     2383.00000
    66.0648     2390.00000
    66.0779     2404.00000
    66.0910     2362.00000
    66.1042     2418.00000
    66.1173     2443.00000
    66.1304     2385.00000
    66.1436     2352.00000
    66.1567     2351.00000
    66.1698     2337.00000
    66.1829     2331.00000
    66.1961     2310.00000
    66.2092     2305.00000
    66.2223     2444.00000
    66.2355     2275.00000
    66.2486     2405.00000
    66.2617     2274.00000
    66.2749     2329.00000
    66.2880     2373.00000
    66.3011     2339.00000
    66.3142     2331.00000
    66.3274     2425.00000
    66.3405     2349.00000
    66.3536     2380.00000
    66.3668     2476.00000
    66.3799     2318.00000
    66.3930     2377.00000
    66.4062     2430.00000
    66.4193     2440.00000
    66.4324     2390.00000
    66.4455     2379.00000
    66.4587     2407.00000
    66.4718     2521.00000
    66.4849     2461.00000
    66.4981     2483.00000
    66.5112     2522.00000
    66.5243     2412.00000
    66.5375     2542.00000
    66.5506     2482.00000
    66.5637     2436.00000
    66.5769     2466.00000
    66.5900     2322.00000
    66.6031     2386.00000
    66.6162     2413.00000
    66.6294     2468.00000
    66.6425     2422.00000
    66.6556     2446.00000
    66.6688     2447.00000
    66.6819     2538.00000
    66.6950     2498.00000
    66.7082     2583.00000
    66.7213     2579.00000
    66.7344     2571.00000
    66.7476     2643.00000
    66.7607     2463.00000
    66.7738     2446.00000
    66.7869     2331.00000
    66.8001     2507.00000
    66.8132     2452.00000
    66.8263     2374.00000
    66.8395     2407.00000
    66.8526     2420.00000
    66.8657     2361.00000
    66.8789     2445.00000
    66.8920     2343.00000
    66.9051     2423.00000
    66.9182     2417.00000
    66.9314     2455.00000
    66.9445     2403.00000
    66.9576     2465.00000
    66.9708     2411.00000
    66.9839     2376.00000
    66.9970     2389.00000
    67.0102     2373.00000
    67.0233     2348.00000
    67.0364     2305.00000
    67.0495     2382.00000
    67.0627     2403.00000
    67.0758     2348.00000
    67.0889     2318.00000
    67.1021     2361.00000
    67.1152     2346.00000
    67.1283     2425.00000
    67.1415     2404.00000
    67.1546     2271.00000
    67.1677     2264.00000
    67.1808     2385.00000
    67.1940     2322.00000
    67.2071     2299.00000
    67.2202     2271.00000
    67.2334     2412.00000
    67.2465     2339.00000
    67.2596     2316.00000
    67.2728     2253.00000
    67.2859     2426.00000
    67.2990     2398.00000
    67.3121     2295.00000
    67.3253     2424.00000
    67.3384     2339.00000
    67.3515     2344.00000
    67.3647     2394.00000
    67.3778     2415.00000
    67.3909     2379.00000
    67.4041     2475.00000
    67.4172     2359.00000
    67.4303     2350.00000
    67.4435     2424.00000
    67.4566     2362.00000
    67.4697     2404.00000
    67.4828     2435.00000
    67.4960     2440.00000
    67.5091     2258.00000
    67.5222     2306.00000
    67.5354     2367.00000
    67.5485     2495.00000
    67.5616     2411.00000
    67.5748     2385.00000
    67.5879     2394.00000
    67.6010     2316.00000
    67.6142     2342.00000
    67.6273     2337.00000
    67.6404     2412.00000
    67.6535     2324.00000
    67.6667     2348.00000
    67.6798     2383.00000
    67.6929     2398.00000
    67.7061     2364.00000
    67.7192     2373.00000
    67.7323     2306.00000
    67.7455     2366.00000
    67.7586     2421.00000
    67.7717     2349.00000
    67.7848     2413.00000
    67.7980     2416.00000
    67.8111     2328.00000
    67.8242     2449.00000
    67.8374     2464.00000
    67.8505     2457.00000
    67.8636     2437.00000
    67.8768     2408.00000
    67.8899     2402.00000
    67.9030     2524.00000
    67.9161     2436.00000
    67.9293     2477.00000
    67.9424     2534.00000
    67.9555     2556.00000
    67.9687     2690.00000
    67.9818     2758.00000
    67.9949     2958.00000
    68.0081     3188.00000
    68.0212     3503.00000
    68.0343     3625.00000
    68.0474     3703.00000
    68.0606     3689.00000
    68.0737     3323.00000
    68.0868     3109.00000
    68.1000     2871.00000
    68.1131     2788.00000
    68.1262     2720.00000
    68.1394     2673.00000
    68.1525     2683.00000
    68.1656     2679.00000
    68.1787     2752.00000
    68.1919     2759.00000
    68.2050     3023.00000
    68.2181     2959.00000
    68.2313     3153.00000
    68.2444     3033.00000
    68.2575     3142.00000
    68.2707     3152.00000
    68.2838     3106.00000
    68.2969     3072.00000
    68.3101     3073.00000
    68.3232     2959.00000
    68.3363     2926.00000
    68.3494     2885.00000
    68.3626     2781.00000
    68.3757     2852.00000
    68.3888     2702.00000
    68.4020     2726.00000
    68.4151     2817.00000
    68.4282     2677.00000
    68.4414     2737.00000
    68.4545     2712.00000
    68.4676     2741.00000
    68.4807     2785.00000
    68.4939     2790.00000
    68.5070     2756.00000
    68.5201     2756.00000
    68.5333     2677.00000
    68.5464     2652.00000
    68.5595     2712.00000
    68.5727     2773.00000
    68.5858     2726.00000
    68.5989     2804.00000
    68.6120     2900.00000
    68.6252     3033.00000
    68.6383     3258.00000
    68.6514     3575.00000
    68.6646     4043.00000
    68.6777     4624.00000
    68.6908     5024.00000
    68.7040     5264.00000
    68.7171     4992.00000
    68.7302     4637.00000
    68.7434     4083.00000
    68.7565     3579.00000
    68.7696     3207.00000
    68.7827     2976.00000
    68.7959     2695.00000
    68.8090     2909.00000
    68.8221     2886.00000
    68.8353     2950.00000
    68.8484     3035.00000
    68.8615     3330.00000
    68.8747     3594.00000
    68.8878     3773.00000
    68.9009     3752.00000
    68.9140     3783.00000
    68.9272     3582.00000
    68.9403     3194.00000
    68.9534     2930.00000
    68.9666     2748.00000
    68.9797     2696.00000
    68.9928     2649.00000
    69.0060     2556.00000
    69.0191     2577.00000
    69.0322     2487.00000
    69.0453     2543.00000
    69.0585     2570.00000
    69.0716     2541.00000
    69.0847     2474.00000
    69.0979     2603.00000
    69.1110     2563.00000
    69.1241     2637.00000
    69.1373     2616.00000
    69.1504     2647.00000
    69.1635     2665.00000
    69.1767     2675.00000
    69.1898     2746.00000
    69.2029     2829.00000
    69.2160     3034.00000
    69.2292     3331.00000
    69.2423     3614.00000
    69.2554     3822.00000
    69.2686     3907.00000
    69.2817     3840.00000
    69.2948     3566.00000
    69.3080     3281.00000
    69.3211     3061.00000
    69.3342     2946.00000
    69.3473     2887.00000
    69.3605     2821.00000
    69.3736     2765.00000
    69.3867     2853.00000
    69.3999     2895.00000
    69.4130     3109.00000
    69.4261     3309.00000
    69.4393     3591.00000
    69.4524     3910.00000
    69.4655     3976.00000
    69.4786     4152.00000
    69.4918     4162.00000
    69.5049     4143.00000
    69.5180     4038.00000
    69.5312     4029.00000
    69.5443     3773.00000
    69.5574     3811.00000
    69.5706     3664.00000
    69.5837     3586.00000
    69.5968     3334.00000
    69.6099     3218.00000
    69.6231     3093.00000
    69.6362     3135.00000
    69.6493     3156.00000
    69.6625     3126.00000
    69.6756     3201.00000
    69.6887     3231.00000
    69.7019     3305.00000
    69.7150     3433.00000
    69.7281     3425.00000
    69.7413     3379.00000
    69.7544     3357.00000
    69.7675     3486.00000
    69.7806     3506.00000
    69.7938     3609.00000
    69.8069     3860.00000
    69.8200     4120.00000
    69.8332     4579.00000
    69.8463     5179.00000
    69.8594     5602.00000
    69.8726     6290.00000
    69.8857     6911.00000
    69.8988     7041.00000
    69.9119     7107.00000
    69.9251     6620.00000
    69.9382     5986.00000
    69.9513     5174.00000
    69.9645     4687.00000
    69.9776     4322.00000
    69.9907     4161.00000
    70.0039     4074.00000
    70.0170     4022.00000
    70.0301     4405.00000
    70.0433     4804.00000
    70.0564     5176.00000
    70.0695     5591.00000
    70.0826     5944.00000
    70.0958     6438.00000
    70.1089     6264.00000
    70.1220     5960.00000
    70.1352     5539.00000
    70.1483     4998.00000
    70.1614     4493.00000
    70.1746     4090.00000
    70.1877     3701.00000
    70.2008     3596.00000
    70.2139     3570.00000
    70.2271     3481.00000
    70.2402     3545.00000
    70.2533     3706.00000
    70.2665     3746.00000
    70.2796     3809.00000
    70.2927     3918.00000
    70.3059     3817.00000
    70.3190     3832.00000
    70.3321     3635.00000
    70.3452     3535.00000
    70.3584     3346.00000
    70.3715     3241.00000
    70.3846     3314.00000
    70.3978     3307.00000
    70.4109     3659.00000
    70.4240     3789.00000
    70.4372     4209.00000
    70.4503     4676.00000
    70.4634     4937.00000
    70.4765     5105.00000
    70.4897     5156.00000
    70.5028     4861.00000
    70.5159     4478.00000
    70.5291     4143.00000
    70.5422     3834.00000
    70.5553     3689.00000
    70.5685     3422.00000
    70.5816     3428.00000
    70.5947     3382.00000
    70.6078     3501.00000
    70.6210     3550.00000
    70.6341     3702.00000
    70.6472     3936.00000
    70.6604     3976.00000
    70.6735     4011.00000
    70.6866     4103.00000
    70.6998     4014.00000
    70.7129     3531.00000
    70.7260     3455.00000
    70.7392     3230.00000
    70.7523     3185.00000
    70.7654     3004.00000
    70.7785     3062.00000
    70.7917     3035.00000
    70.8048     3023.00000
    70.8179     3070.00000
    70.8311     2984.00000
    70.8442     2973.00000
    70.8573     3100.00000
    70.8705     3249.00000
    70.8836     3129.00000
    70.8967     3319.00000
    70.9099     3407.00000
    70.9230     3594.00000
    70.9361     3662.00000
    70.9492     3839.00000
    70.9624     4091.00000
    70.9755     4068.00000
    70.9886     4314.00000
    71.0018     4286.00000
    71.0149     4281.00000
    71.0280     4302.00000
    71.0412     4243.00000
    71.0543     4014.00000
    71.0674     4025.00000
    71.0805     3791.00000
    71.0937     3621.00000
    71.1068     3497.00000
    71.1199     3389.00000
    71.1331     3518.00000
    71.1462     3590.00000
    71.1593     3665.00000
    71.1725     3893.00000
    71.1856     4132.00000
    71.1987     4324.00000
    71.2118     4966.00000
    71.2250     5540.00000
    71.2381     6019.00000
    71.2512     6156.00000
    71.2644     5610.00000
    71.2775     4931.00000
    71.2906     4270.00000
    71.3038     3952.00000
    71.3169     3444.00000
    71.3300     3371.00000
    71.3431     3067.00000
    71.3563     2961.00000
    71.3694     2976.00000
    71.3825     3020.00000
    71.3957     3103.00000
    71.4088     3390.00000
    71.4219     3557.00000
    71.4351     3683.00000
    71.4482     3910.00000
    71.4613     3806.00000
    71.4744     3625.00000
    71.4876     3433.00000
    71.5007     3119.00000
    71.5138     2999.00000
    71.5270     2984.00000
    71.5401     2735.00000
    71.5532     2687.00000
    71.5664     2790.00000
    71.5795     2734.00000
    71.5926     2852.00000
    71.6058     2925.00000
    71.6189     3081.00000
    71.6320     3269.00000
    71.6451     3519.00000
    71.6583     3651.00000
    71.6714     3973.00000
    71.6845     4182.00000
    71.6977     4159.00000
    71.7108     4001.00000
    71.7239     3729.00000
    71.7371     3418.00000
    71.7502     3278.00000
    71.7633     3051.00000
    71.7764     2944.00000
    71.7896     2982.00000
    71.8027     2885.00000
    71.8158     3125.00000
    71.8290     3198.00000
    71.8421     3281.00000
    71.8552     3536.00000
    71.8684     3715.00000
    71.8815     3921.00000
    71.8946     3986.00000
    71.9078     4053.00000
    71.9209     3998.00000
    71.9340     3954.00000
    71.9471     3838.00000
    71.9603     3734.00000
    71.9734     3672.00000
    71.9865     3645.00000
    71.9997     3368.00000
    72.0128     3293.00000
    72.0259     3111.00000
    72.0391     3101.00000
    72.0522     3044.00000
    72.0653     2869.00000
    72.0784     2826.00000
    72.0916     2852.00000
    72.1047     2933.00000
    72.1178     2968.00000
    72.1310     2984.00000
    72.1441     2904.00000
    72.1572     3063.00000
    72.1704     2970.00000
    72.1835     2956.00000
    72.1966     2977.00000
    72.2097     2946.00000
    72.2229     2806.00000
    72.2360     2741.00000
    72.2491     2655.00000
    72.2623     2578.00000
    72.2754     2655.00000
    72.2885     2480.00000
    72.3017     2495.00000
    72.3148     2608.00000
    72.3279     2519.00000
    72.3410     2477.00000
    72.3542     2572.00000
    72.3673     2563.00000
    72.3804     2481.00000
    72.3936     2526.00000
    72.4067     2476.00000
    72.4198     2463.00000
    72.4330     2618.00000
    72.4461     2512.00000
    72.4592     2641.00000
    72.4724     2538.00000
    72.4855     2476.00000
    72.4986     2599.00000
    72.5117     2539.00000
    72.5249     2599.00000
    72.5380     2649.00000
    72.5511     2689.00000
    72.5643     2680.00000
    72.5774     2770.00000
    72.5905     2823.00000
    72.6037     2999.00000
    72.6168     3105.00000
    72.6299     3296.00000
    72.6430     3596.00000
    72.6562     3855.00000
    72.6693     4071.00000
    72.6824     4141.00000
    72.6956     4183.00000
    72.7087     4155.00000
    72.7218     3931.00000
    72.7350     3630.00000
    72.7481     3232.00000
    72.7612     3167.00000
    72.7743     2961.00000
    72.7875     2955.00000
    72.8006     2955.00000
    72.8137     2886.00000
    72.8269     2841.00000
    72.8400     3060.00000
    72.8531     2951.00000
    72.8663     3206.00000
    72.8794     3439.00000
    72.8925     3371.00000
    72.9057     3246.00000
    72.9188     3352.00000
    72.9319     3318.00000
    72.9450     3062.00000
    72.9582     2999.00000
    72.9713     2779.00000
    72.9844     2678.00000
    72.9976     2734.00000
    73.0107     2604.00000
    73.0238     2670.00000
    73.0370     2701.00000
    73.0501     2569.00000
    73.0632     2767.00000
    73.0763     2833.00000
    73.0895     2945.00000
    73.1026     2993.00000
    73.1157     3292.00000
    73.1289     3427.00000
    73.1420     3699.00000
    73.1551     3839.00000
    73.1683     4049.00000
    73.1814     4043.00000
    73.1945     4356.00000
    73.2076     4096.00000
    73.2208     3997.00000
    73.2339     3861.00000
    73.2470     3611.00000
    73.2602     3510.00000
    73.2733     3375.00000
    73.2864     3201.00000
    73.2996     3213.00000
    73.3127     3282.00000
    73.3258     3204.00000
    73.3390     3188.00000
    73.3521     3332.00000
    73.3652     3428.00000
    73.3783     3496.00000
    73.3915     3451.00000
    73.4046     3384.00000
    73.4177     3461.00000
    73.4309     3488.00000
    73.4440     3386.00000
    73.4571     3364.00000
    73.4703     3558.00000
    73.4834     3646.00000
    73.4965     3756.00000
    73.5096     3750.00000
    73.5228     3968.00000
    73.5359     4018.00000
    73.5490     4013.00000
    73.5622     4136.00000
    73.5753     3925.00000
    73.5884     4013.00000
    73.6016     3819.00000
    73.6147     3787.00000
    73.6278     3725.00000
    73.6409     3647.00000
    73.6541     3543.00000
    73.6672     3427.00000
    73.6803     3323.00000
    73.6935     3332.00000
    73.7066     3124.00000
    73.7197     3219.00000
    73.7329     3258.00000
    73.7460     3207.00000
    73.7591     3253.00000
    73.7722     3338.00000
    73.7854     3293.00000
    73.7985     3205.00000
    73.8116     3223.00000
    73.8248     3173.00000
    73.8379     3182.00000
    73.8510     3065.00000
    73.8642     2935.00000
    73.8773     3100.00000
    73.8904     2932.00000
    73.9035     2946.00000
    73.9167     2960.00000
    73.9298     2984.00000
    73.9429     2964.00000
    73.9561     3178.00000
    73.9692     3337.00000
    73.9823     3638.00000
    73.9955     3914.00000
    74.0086     4414.00000
    74.0217     4869.00000
    74.0349     5149.00000
    74.0480     5375.00000
    74.0611     5207.00000
    74.0742     5159.00000
    74.0874     5277.00000
    74.1005     5240.00000
    74.1136     5389.00000
    74.1268     5448.00000
    74.1399     5225.00000
    74.1530     5065.00000
    74.1662     4541.00000
    74.1793     4152.00000
    74.1924     3904.00000
    74.2056     3715.00000
    74.2187     3796.00000
    74.2318     4059.00000
    74.2449     3944.00000
    74.2581     3843.00000
    74.2712     3862.00000
    74.2843     3952.00000
    74.2975     3943.00000
    74.3106     3903.00000
    74.3237     3912.00000
    74.3369     3917.00000
    74.3500     3802.00000
    74.3631     3625.00000
    74.3762     3398.00000
    74.3894     3272.00000
    74.4025     2926.00000
    74.4156     2855.00000
    74.4288     2724.00000
    74.4419     2710.00000
    74.4550     2515.00000
    74.4682     2595.00000
    74.4813     2463.00000
    74.4944     2510.00000
    74.5075     2453.00000
    74.5207     2497.00000
    74.5338     2381.00000
    74.5469     2422.00000
    74.5601     2473.00000
    74.5732     2330.00000
    74.5863     2411.00000
    74.5995     2416.00000
    74.6126     2438.00000
    74.6257     2406.00000
    74.6388     2499.00000
    74.6520     2488.00000
    74.6651     2353.00000
    74.6782     2307.00000
    74.6914     2369.00000
    74.7045     2423.00000
    74.7176     2383.00000
    74.7308     2418.00000
    74.7439     2485.00000
    74.7570     2350.00000
    74.7701     2263.00000
    74.7833     2353.00000
    74.7964     2471.00000
    74.8095     2368.00000
    74.8227     2409.00000
    74.8358     2345.00000
    74.8489     2406.00000
    74.8621     2393.00000
    74.8752     2408.00000
    74.8883     2235.00000
    74.9015     2371.00000
    74.9146     2329.00000
    74.9277     2404.00000
    74.9408     2412.00000
    74.9540     2294.00000
    74.9671     2325.00000
    74.9802     2323.00000
    74.9934     2367.00000
    75.0065     2337.00000
    75.0196     2428.00000
    75.0328     2329.00000
    75.0459     2373.00000
    75.0590     2393.00000
    75.0722     2409.00000
    75.0853     2364.00000
    75.0984     2430.00000
    75.1115     2309.00000
    75.1247     2352.00000
    75.1378     2317.00000
    75.1509     2215.00000
    75.1641     2431.00000
    75.1772     2376.00000
    75.1903     2421.00000
    75.2035     2439.00000
    75.2166     2292.00000
    75.2297     2338.00000
    75.2428     2387.00000
    75.2560     2315.00000
    75.2691     2365.00000
    75.2822     2335.00000
    75.2954     2319.00000
    75.3085     2302.00000
    75.3216     2304.00000
    75.3348     2352.00000
    75.3479     2274.00000
    75.3610     2355.00000
    75.3741     2293.00000
    75.3873     2387.00000
    75.4004     2414.00000
    75.4135     2288.00000
    75.4267     2268.00000
    75.4398     2380.00000
    75.4529     2353.00000
    75.4661     2389.00000
    75.4792     2362.00000
    75.4923     2396.00000
    75.5054     2313.00000
    75.5186     2382.00000
    75.5317     2274.00000
    75.5448     2387.00000
    75.5580     2415.00000
    75.5711     2421.00000
    75.5842     2490.00000
    75.5974     2424.00000
    75.6105     2489.00000
    75.6236     2463.00000
    75.6367     2555.00000
    75.6499     2476.00000
    75.6630     2507.00000
    75.6761     2512.00000
    75.6893     2515.00000
    75.7024     2529.00000
    75.7155     2546.00000
    75.7287     2439.00000
    75.7418     2402.00000
    75.7549     2462.00000
    75.7681     2428.00000
    75.7812     2445.00000
    75.7943     2454.00000
    75.8074     2554.00000
    75.8206     2521.00000
    75.8337     2498.00000
    75.8468     2554.00000
    75.8600     2531.00000
    75.8731     2408.00000
    75.8862     2478.00000
    75.8994     2504.00000
    75.9125     2519.00000
    75.9256     2613.00000
    75.9387     2508.00000
    75.9519     2505.00000
    75.9650     2527.00000
    75.9781     2651.00000
    75.9913     2617.00000
    76.0044     2599.00000
    76.0175     2540.00000
    76.0307     2782.00000
    76.0438     2663.00000
    76.0569     2684.00000
    76.0701     2781.00000
    76.0832     2775.00000
    76.0963     2763.00000
    76.1094     2835.00000
    76.1226     2929.00000
    76.1357     2897.00000
    76.1488     2957.00000
    76.1620     2961.00000
    76.1751     2918.00000
    76.1882     2902.00000
    76.2014     2889.00000
    76.2145     2844.00000
    76.2276     2935.00000
    76.2407     2942.00000
    76.2539     3164.00000
    76.2670     3302.00000
    76.2801     3395.00000
    76.2933     3632.00000
    76.3064     3880.00000
    76.3195     4129.00000
    76.3327     4377.00000
    76.3458     4449.00000
    76.3589     4752.00000
    76.3720     4821.00000
    76.3852     4778.00000
    76.3983     4642.00000
    76.4114     4374.00000
    76.4246     4081.00000
    76.4377     3679.00000
    76.4508     3490.00000
    76.4640     3384.00000
    76.4771     3140.00000
    76.4902     3134.00000
    76.5033     3150.00000
    76.5165     3125.00000
    76.5296     3173.00000
    76.5427     3246.00000
    76.5559     3424.00000
    76.5690     3543.00000
    76.5821     3518.00000
    76.5953     3616.00000
    76.6084     3598.00000
    76.6215     3505.00000
    76.6347     3252.00000
    76.6478     3238.00000
    76.6609     3087.00000
    76.6740     3044.00000
    76.6872     2800.00000
    76.7003     2754.00000
    76.7134     2714.00000
    76.7266     2605.00000
    76.7397     2563.00000
    76.7528     2596.00000
    76.7660     2563.00000
    76.7791     2562.00000
    76.7922     2445.00000
    76.8053     2559.00000
    76.8185     2626.00000
    76.8316     2558.00000
    76.8447     2567.00000
    76.8579     2709.00000
    76.8710     2533.00000
    76.8841     2684.00000
    76.8973     2741.00000
    76.9104     2624.00000
    76.9235     2705.00000
    76.9366     2819.00000
    76.9498     2924.00000
    76.9629     3009.00000
    76.9760     3170.00000
    76.9892     3450.00000
    77.0023     3607.00000
    77.0154     3833.00000
    77.0286     3977.00000
    77.0417     4244.00000
    77.0548     4388.00000
    77.0679     4435.00000
    77.0811     4414.00000
    77.0942     4465.00000
    77.1073     4342.00000
    77.1205     4262.00000
    77.1336     3859.00000
    77.1467     3751.00000
    77.1599     3460.00000
    77.1730     3337.00000
    77.1861     3168.00000
    77.1993     3076.00000
    77.2124     3138.00000
    77.2255     3191.00000
    77.2386     3159.00000
    77.2518     3273.00000
    77.2649     3302.00000
    77.2780     3569.00000
    77.2912     3376.00000
    77.3043     3430.00000
    77.3174     3322.00000
    77.3306     3442.00000
    77.3437     3369.00000
    77.3568     3175.00000
    77.3699     3083.00000
    77.3831     3082.00000
    77.3962     2804.00000
    77.4093     2747.00000
    77.4225     2733.00000
    77.4356     2625.00000
    77.4487     2544.00000
    77.4619     2536.00000
    77.4750     2601.00000
    77.4881     2503.00000
    77.5013     2505.00000
    77.5144     2622.00000
    77.5275     2643.00000
    77.5406     2685.00000
    77.5538     2809.00000
    77.5669     2865.00000
    77.5800     2978.00000
    77.5932     3043.00000
    77.6063     3110.00000
    77.6194     3033.00000
    77.6326     3157.00000
    77.6457     2979.00000
    77.6588     2750.00000
    77.6719     2757.00000
    77.6851     2662.00000
    77.6982     2588.00000
    77.7113     2601.00000
    77.7245     2575.00000
    77.7376     2524.00000
    77.7507     2617.00000
    77.7639     2546.00000
    77.7770     2567.00000
    77.7901     2632.00000
    77.8032     2781.00000
    77.8164     2784.00000
    77.8295     2837.00000
    77.8426     2679.00000
    77.8558     2751.00000
    77.8689     2646.00000
    77.8820     2742.00000
    77.8952     2758.00000
    77.9083     2688.00000
    77.9214     2663.00000
    77.9345     2585.00000
    77.9477     2592.00000
    77.9608     2616.00000
    77.9739     2652.00000
    77.9871     2742.00000
    78.0002     2810.00000
    78.0133     2754.00000
    78.0265     2880.00000
    78.0396     3003.00000
    78.0527     2978.00000
    78.0658     2844.00000
    78.0790     2802.00000
    78.0921     2680.00000
    78.1052     2647.00000
    78.1184     2580.00000
    78.1315     2687.00000
    78.1446     2609.00000
    78.1578     2604.00000
    78.1709     2548.00000
    78.1840     2473.00000
    78.1972     2563.00000
    78.2103     2644.00000
    78.2234     2677.00000
    78.2365     2695.00000
    78.2497     2658.00000
    78.2628     2760.00000
    78.2759     2878.00000
    78.2891     2839.00000
    78.3022     2749.00000
    78.3153     2793.00000
    78.3285     2887.00000
    78.3416     3027.00000
    78.3547     3119.00000
    78.3679     3297.00000
    78.3810     3378.00000
    78.3941     3468.00000
    78.4072     3535.00000
    78.4204     3406.00000
    78.4335     3426.00000
    78.4466     3574.00000
    78.4598     3544.00000
    78.4729     3483.00000
    78.4860     3388.00000
    78.4992     3471.00000
    78.5123     3407.00000
    78.5254     3320.00000
    78.5385     3198.00000
    78.5517     3151.00000
    78.5648     3012.00000
    78.5779     3031.00000
    78.5911     3013.00000
    78.6042     3069.00000
    78.6173     3221.00000
    78.6305     3266.00000
    78.6436     3270.00000
    78.6567     3295.00000
    78.6698     3296.00000
    78.6830     3255.00000
    78.6961     3442.00000
    78.7092     3550.00000
    78.7224     3500.00000
    78.7355     3761.00000
    78.7486     3705.00000
    78.7618     3784.00000
    78.7749     3803.00000
    78.7880     3865.00000
    78.8011     3905.00000
    78.8143     4077.00000
    78.8274     3906.00000
    78.8405     4042.00000
    78.8537     4057.00000
    78.8668     4099.00000
    78.8799     3993.00000
    78.8931     3874.00000
    78.9062     3744.00000
    78.9193     3741.00000
    78.9324     3773.00000
    78.9456     3899.00000
    78.9587     3984.00000
    78.9718     4004.00000
    78.9850     4022.00000
    78.9981     4025.00000
    79.0112     4183.00000
    79.0244     4292.00000
    79.0375     4276.00000
    79.0506     4113.00000
    79.0638     4217.00000
    79.0769     4139.00000
    79.0900     3946.00000
    79.1031     3878.00000
    79.1163     3589.00000
    79.1294     3488.00000
    79.1425     3350.00000
    79.1557     3276.00000
    79.1688     3159.00000
    79.1819     3200.00000
    79.1951     3240.00000
    79.2082     3170.00000
    79.2213     3153.00000
    79.2345     3183.00000
    79.2476     3156.00000
    79.2607     3195.00000
    79.2738     3241.00000
    79.2870     3196.00000
    79.3001     3191.00000
    79.3132     3156.00000
    79.3264     2956.00000
    79.3395     3065.00000
    79.3526     3083.00000
    79.3658     3036.00000
    79.3789     3051.00000
    79.3920     3061.00000
    79.4051     3234.00000
    79.4183     3453.00000
    79.4314     3704.00000
    79.4445     3820.00000
    79.4577     4112.00000
    79.4708     4155.00000
    79.4839     4214.00000
    79.4971     3980.00000
    79.5102     3840.00000
    79.5233     3561.00000
    79.5364     3346.00000
    79.5496     3191.00000
    79.5627     3089.00000
    79.5758     3048.00000
    79.5890     2912.00000
    79.6021     3047.00000
    79.6152     2959.00000
    79.6284     3008.00000
    79.6415     3105.00000
    79.6546     3162.00000
    79.6677     3303.00000
    79.6809     3401.00000
    79.6940     3440.00000
    79.7071     3499.00000
    79.7203     3656.00000
    79.7334     3657.00000
    79.7465     3464.00000
    79.7597     3319.00000
    79.7728     3299.00000
    79.7859     3118.00000
    79.7990     3023.00000
    79.8122     2919.00000
    79.8253     2818.00000
    79.8384     2744.00000
    79.8516     2770.00000
    79.8647     2825.00000
    79.8778     2849.00000
    79.8910     2840.00000
    79.9041     2853.00000
    79.9172     2703.00000
    79.9304     2768.00000
    79.9435     2779.00000
    79.9566     2849.00000
    79.9697     2694.00000
    79.9829     2783.00000
    79.9960     2801.00000
    80.0091     2934.00000
    80.0223     2918.00000
    80.0354     3051.00000
    80.0485     2913.00000
    80.0617     2974.00000
    80.0748     3176.00000
    80.0879     3246.00000
    80.1010     3447.00000
    80.1142     3336.00000
    80.1273     3543.00000
    80.1404     3692.00000
    80.1536     3879.00000
    80.1667     4124.00000
    80.1798     4304.00000
    80.1930     4547.00000
    80.2061     4613.00000
    80.2192     4616.00000
    80.2323     4759.00000
    80.2455     4755.00000
    80.2586     4886.00000
    80.2717     5212.00000
    80.2849     5214.00000
    80.2980     5304.00000
    80.3111     5534.00000
    80.3243     5911.00000
    80.3374     6009.00000
    80.3505     6178.00000
    80.3637     6282.00000
    80.3768     6110.00000
    80.3899     5960.00000
    80.4030     5739.00000
    80.4162     5532.00000
    80.4293     5543.00000
    80.4424     5412.00000
    80.4556     5245.00000
    80.4687     5384.00000
    80.4818     5252.00000
    80.4950     5456.00000
    80.5081     5566.00000
    80.5212     5488.00000
    80.5343     5323.00000
    80.5475     5305.00000
    80.5606     4957.00000
    80.5737     5169.00000
    80.5869     5196.00000
    80.6000     5060.00000
    80.6131     5248.00000
    80.6263     5151.00000
    80.6394     5161.00000
    80.6525     5091.00000
    80.6656     5070.00000
    80.6788     5029.00000
    80.6919     4776.00000
    80.7050     4567.00000
    80.7182     4286.00000
    80.7313     4076.00000
    80.7444     3847.00000
    80.7576     3890.00000
    80.7707     3720.00000
    80.7838     3567.00000
    80.7970     3504.00000
    80.8101     3343.00000
    80.8232     3265.00000
    80.8363     3438.00000
    80.8495     3401.00000
    80.8626     3465.00000
    80.8757     3601.00000
    80.8889     3739.00000
    80.9020     3812.00000
    80.9151     3950.00000
    80.9283     4049.00000
    80.9414     3927.00000
    80.9545     3825.00000
    80.9676     3606.00000
    80.9808     3560.00000
    80.9939     3414.00000
    81.0070     3270.00000
    81.0202     3276.00000
    81.0333     3302.00000
    81.0464     3226.00000
    81.0596     3259.00000
    81.0727     3229.00000
    81.0858     3213.00000
    81.0989     3360.00000
    81.1121     3287.00000
    81.1252     3367.00000
    81.1383     3522.00000
    81.1515     3506.00000
    81.1646     3522.00000
    81.1777     3841.00000
    81.1909     3657.00000
    81.2040     3813.00000
    81.2171     3548.00000
    81.2302     3580.00000
    81.2434     3586.00000
    81.2565     3426.00000
    81.2696     3374.00000
    81.2828     3161.00000
    81.2959     3094.00000
    81.3090     2965.00000
    81.3222     2926.00000
    81.3353     2844.00000
    81.3484     2819.00000
    81.3616     2862.00000
    81.3747     2852.00000
    81.3878     2891.00000
    81.4009     2756.00000
    81.4141     2857.00000
    81.4272     2939.00000
    81.4403     2754.00000
    81.4535     2965.00000
    81.4666     2786.00000
    81.4797     2848.00000
    81.4929     2812.00000
    81.5060     2792.00000
    81.5191     2798.00000
    81.5322     2555.00000
    81.5454     2641.00000
    81.5585     2499.00000
    81.5716     2511.00000
    81.5848     2558.00000
    81.5979     2464.00000
    81.6110     2457.00000
    81.6242     2599.00000
    81.6373     2416.00000
    81.6504     2556.00000
    81.6636     2484.00000
    81.6767     2506.00000
    81.6898     2480.00000
    81.7029     2518.00000
    81.7161     2489.00000
    81.7292     2485.00000
    81.7423     2355.00000
    81.7555     2471.00000
    81.7686     2557.00000
    81.7817     2526.00000
    81.7949     2535.00000
    81.8080     2560.00000
    81.8211     2514.00000
    81.8342     2529.00000
    81.8474     2519.00000
    81.8605     2583.00000
    81.8736     2596.00000
    81.8868     2549.00000
    81.8999     2620.00000
    81.9130     2607.00000
    81.9262     2613.00000
    81.9393     2640.00000
    81.9524     2719.00000
    81.9655     2780.00000
    81.9787     2728.00000
    81.9918     2810.00000
    82.0049     2895.00000
    82.0181     3067.00000
    82.0312     3184.00000
    82.0443     3240.00000
    82.0575     3476.00000
    82.0706     3558.00000
    82.0837     3775.00000
    82.0968     3906.00000
    82.1100     3971.00000
    82.1231     4109.00000
    82.1362     4252.00000
    82.1494     4156.00000
    82.1625     4069.00000
    82.1756     3977.00000
    82.1888     3788.00000
    82.2019     3750.00000
    82.2150     3498.00000
    82.2281     3389.00000
    82.2413     3332.00000
    82.2544     3143.00000
    82.2675     3095.00000
    82.2807     3001.00000
    82.2938     3140.00000
    82.3069     3077.00000
    82.3201     3245.00000
    82.3332     3176.00000
    82.3463     3233.00000
    82.3595     3340.00000
    82.3726     3395.00000
    82.3857     3287.00000
    82.3988     3254.00000
    82.4120     3440.00000
    82.4251     3225.00000
    82.4382     3111.00000
    82.4514     3261.00000
    82.4645     3043.00000
    82.4776     3001.00000
    82.4908     3100.00000
    82.5039     3055.00000
    82.5170     3208.00000
    82.5302     3280.00000
    82.5433     3494.00000
    82.5564     3659.00000
    82.5695     3886.00000
    82.5827     3722.00000
    82.5958     3618.00000
    82.6089     3367.00000
    82.6221     3112.00000
    82.6352     3007.00000
    82.6483     2821.00000
    82.6615     2809.00000
    82.6746     2730.00000
    82.6877     2719.00000
    82.7008     2725.00000
    82.7140     2730.00000
    82.7271     2756.00000
    82.7402     2739.00000
    82.7534     2789.00000
    82.7665     2752.00000
    82.7796     2875.00000
    82.7928     3051.00000
    82.8059     3017.00000
    82.8190     3207.00000
    82.8321     3175.00000
    82.8453     3045.00000
    82.8584     2852.00000
    82.8715     2818.00000
    82.8847     2736.00000
    82.8978     2695.00000
    82.9109     2645.00000
    82.9241     2581.00000
    82.9372     2483.00000
    82.9503     2522.00000
    82.9634     2502.00000
    82.9766     2594.00000
    82.9897     2449.00000
    83.0028     2400.00000
    83.0160     2476.00000
    83.0291     2408.00000
    83.0422     2474.00000
    83.0554     2425.00000
    83.0685     2389.00000
    83.0816     2538.00000
    83.0947     2419.00000
    83.1079     2433.00000
    83.1210     2480.00000
    83.1341     2366.00000
    83.1473     2512.00000
    83.1604     2482.00000
    83.1735     2490.00000
    83.1867     2451.00000
    83.1998     2460.00000
    83.2129     2435.00000
    83.2261     2448.00000
    83.2392     2423.00000
    83.2523     2322.00000
    83.2654     2394.00000
    83.2786     2566.00000
    83.2917     2556.00000
    83.3048     2568.00000
    83.3180     2431.00000
    83.3311     2529.00000
    83.3442     2616.00000
    83.3574     2613.00000
    83.3705     2750.00000
    83.3836     2755.00000
    83.3967     2694.00000
    83.4099     2682.00000
    83.4230     2594.00000
    83.4361     2705.00000
    83.4493     2692.00000
    83.4624     2764.00000
    83.4755     2807.00000
    83.4887     2576.00000
    83.5018     2771.00000
    83.5149     2767.00000
    83.5281     2723.00000
    83.5412     2762.00000
    83.5543     2750.00000
    83.5674     2825.00000
    83.5806     2748.00000
    83.5937     2742.00000
    83.6068     2848.00000
    83.6200     2799.00000
    83.6331     2815.00000
    83.6462     2976.00000
    83.6594     3155.00000
    83.6725     3138.00000
    83.6856     3215.00000
    83.6987     3376.00000
    83.7119     3464.00000
    83.7250     3437.00000
    83.7381     3332.00000
    83.7513     3288.00000
    83.7644     3103.00000
    83.7775     2829.00000
    83.7907     2716.00000
    83.8038     2730.00000
    83.8169     2658.00000
    83.8300     2622.00000
    83.8432     2605.00000
    83.8563     2618.00000
    83.8694     2641.00000
    83.8826     2502.00000
    83.8957     2552.00000
    83.9088     2620.00000
    83.9220     2714.00000
    83.9351     2692.00000
    83.9482     2837.00000
    83.9613     2819.00000
    83.9745     2837.00000
    83.9876     2760.00000
    84.0007     2833.00000
    84.0139     2735.00000
    84.0270     2628.00000
    84.0401     2612.00000
    84.0533     2516.00000
    84.0664     2562.00000
    84.0795     2440.00000
    84.0927     2396.00000
    84.1058     2461.00000
    84.1189     2287.00000
    84.1320     2414.00000
    84.1452     2480.00000
    84.1583     2405.00000
    84.1714     2468.00000
    84.1846     2380.00000
    84.1977     2364.00000
    84.2108     2313.00000
    84.2240     2382.00000
    84.2371     2477.00000
    84.2502     2419.00000
    84.2633     2384.00000
    84.2765     2376.00000
    84.2896     2395.00000
    84.3027     2387.00000
    84.3159     2347.00000
    84.3290     2395.00000
    84.3421     2377.00000
    84.3553     2319.00000
    84.3684     2362.00000
    84.3815     2367.00000
    84.3946     2458.00000
    84.4078     2532.00000
    84.4209     2492.00000
    84.4340     2475.00000
    84.4472     2493.00000
    84.4603     2659.00000
    84.4734     2507.00000
    84.4866     2522.00000
    84.4997     2537.00000
    84.5128     2431.00000
    84.5260     2511.00000
    84.5391     2476.00000
    84.5522     2500.00000
    84.5653     2480.00000
    84.5785     2486.00000
    84.5916     2439.00000
    84.6047     2465.00000
    84.6179     2482.00000
    84.6310     2420.00000
    84.6441     2417.00000
    84.6573     2386.00000
    84.6704     2426.00000
    84.6835     2414.00000
    84.6966     2488.00000
    84.7098     2430.00000
    84.7229     2493.00000
    84.7360     2464.00000
    84.7492     2453.00000
    84.7623     2469.00000
    84.7754     2363.00000
    84.7886     2416.00000
    84.8017     2451.00000
    84.8148     2470.00000
    84.8279     2472.00000
    84.8411     2400.00000
    84.8542     2445.00000
    84.8673     2465.00000
    84.8805     2526.00000
    84.8936     2423.00000
    84.9067     2450.00000
    84.9199     2418.00000
    84.9330     2344.00000
    84.9461     2367.00000
    84.9593     2442.00000
    84.9724     2406.00000
    84.9855     2382.00000
    84.9986     2388.00000
    85.0118     2440.00000
    85.0249     2453.00000
    85.0380     2438.00000
    85.0512     2391.00000
    85.0643     2381.00000
    85.0774     2425.00000
    85.0906     2487.00000
    85.1037     2396.00000
    85.1168     2415.00000
    85.1299     2497.00000
    85.1431     2408.00000
    85.1562     2519.00000
    85.1693     2433.00000
    85.1825     2442.00000
    85.1956     2497.00000
    85.2087     2530.00000
    85.2219     2541.00000
    85.2350     2508.00000
    85.2481     2625.00000
    85.2612     2685.00000
    85.2744     2719.00000
    85.2875     2791.00000
    85.3006     2855.00000
    85.3138     2947.00000
    85.3269     2915.00000
    85.3400     2951.00000
    85.3532     2908.00000
    85.3663     2887.00000
    85.3794     2975.00000
    85.3925     3118.00000
    85.4057     3112.00000
    85.4188     3162.00000
    85.4319     3117.00000
    85.4451     3110.00000
    85.4582     3001.00000
    85.4713     2889.00000
    85.4845     2954.00000
    85.4976     2920.00000
    85.5107     3079.00000
    85.5238     3098.00000
    85.5370     3240.00000
    85.5501     3375.00000
    85.5632     3505.00000
    85.5764     3679.00000
    85.5895     3823.00000
    85.6026     3922.00000
    85.6158     3996.00000
    85.6289     4095.00000
    85.6420     4198.00000
    85.6552     4123.00000
    85.6683     4136.00000
    85.6814     4101.00000
    85.6945     4069.00000
    85.7077     3910.00000
    85.7208     3738.00000
    85.7339     3651.00000
    85.7471     3476.00000
    85.7602     3355.00000
    85.7733     3286.00000
    85.7865     3404.00000
    85.7996     3370.00000
    85.8127     3513.00000
    85.8259     3443.00000
    85.8390     3452.00000
    85.8521     3431.00000
    85.8652     3546.00000
    85.8784     3476.00000
    85.8915     3433.00000
    85.9046     3448.00000
    85.9178     3332.00000
    85.9309     3308.00000
    85.9440     3219.00000
    85.9572     3244.00000
    85.9703     3155.00000
    85.9834     3079.00000
    85.9965     3008.00000
    86.0097     2939.00000
    86.0228     2792.00000
    86.0359     2847.00000
    86.0491     2791.00000
    86.0622     2707.00000
    86.0753     2736.00000
    86.0885     2734.00000
    86.1016     2770.00000
    86.1147     2619.00000
    86.1278     2665.00000
    86.1410     2692.00000
    86.1541     2584.00000
    86.1672     2533.00000
    86.1804     2522.00000
    86.1935     2479.00000
    86.2066     2402.00000
    86.2198     2398.00000
    86.2329     2379.00000
    86.2460     2563.00000
    86.2591     2411.00000
    86.2723     2461.00000
    86.2854     2393.00000
    86.2985     2491.00000
    86.3117     2504.00000
    86.3248     2555.00000
    86.3379     2500.00000
    86.3511     2578.00000
    86.3642     2484.00000
    86.3773     2629.00000
    86.3904     2701.00000
    86.4036     2786.00000
    86.4167     2791.00000
    86.4298     2847.00000
    86.4430     2927.00000
    86.4561     2953.00000
    86.4692     3144.00000
    86.4824     3107.00000
    86.4955     3029.00000
    86.5086     2951.00000
    86.5218     2905.00000
    86.5349     2814.00000
    86.5480     2736.00000
    86.5611     2632.00000
    86.5743     2617.00000
    86.5874     2694.00000
    86.6005     2577.00000
    86.6137     2572.00000
    86.6268     2631.00000
    86.6399     2604.00000
    86.6531     2569.00000
    86.6662     2642.00000
    86.6793     2556.00000
    86.6925     2669.00000
    86.7056     2715.00000
    86.7187     2820.00000
    86.7318     2712.00000
    86.7450     2724.00000
    86.7581     2850.00000
    86.7712     2792.00000
    86.7844     2811.00000
    86.7975     2745.00000
    86.8106     2775.00000
    86.8238     2606.00000
    86.8369     2729.00000
    86.8500     2675.00000
    86.8631     2777.00000
    86.8763     2846.00000
    86.8894     2902.00000
    86.9025     3100.00000
    86.9157     3146.00000
    86.9288     3230.00000
    86.9419     3402.00000
    86.9551     3421.00000
    86.9682     3269.00000
    86.9813     3129.00000
    86.9944     3012.00000
    87.0076     2876.00000
    87.0207     2911.00000
    87.0338     2819.00000
    87.0470     2761.00000
    87.0601     2685.00000
    87.0732     2615.00000
    87.0864     2812.00000
    87.0995     2700.00000
    87.1126     2756.00000
    87.1257     2802.00000
    87.1389     2751.00000
    87.1520     2915.00000
    87.1651     2772.00000
    87.1783     2930.00000
    87.1914     3007.00000
    87.2045     3022.00000
    87.2177     3192.00000
    87.2308     3194.00000
    87.2439     3171.00000
    87.2570     3177.00000
    87.2702     3085.00000
    87.2833     2985.00000
    87.2964     2972.00000
    87.3096     2747.00000
    87.3227     2777.00000
    87.3358     2688.00000
    87.3490     2727.00000
    87.3621     2667.00000
    87.3752     2648.00000
    87.3884     2636.00000
    87.4015     2679.00000
    87.4146     2656.00000
    87.4277     2729.00000
    87.4409     2779.00000
    87.4540     2674.00000
    87.4671     2804.00000
    87.4803     2966.00000
    87.4934     3043.00000
    87.5065     3107.00000
    87.5197     3353.00000
    87.5328     3397.00000
    87.5459     3378.00000
    87.5590     3410.00000
    87.5722     3473.00000
    87.5853     3439.00000
    87.5984     3195.00000
    87.6116     3095.00000
    87.6247     2975.00000
    87.6378     2850.00000
    87.6510     2820.00000
    87.6641     2904.00000
    87.6772     2805.00000
    87.6904     2788.00000
    87.7035     2779.00000
    87.7166     2721.00000
    87.7297     2727.00000
    87.7429     2700.00000
    87.7560     2849.00000
    87.7691     2922.00000
    87.7823     2960.00000
    87.7954     2971.00000
    87.8085     3140.00000
    87.8217     3175.00000
    87.8348     3298.00000
    87.8479     3393.00000
    87.8610     3586.00000
    87.8742     3566.00000
    87.8873     3718.00000
    87.9004     3857.00000
    87.9136     3878.00000
    87.9267     3684.00000
    87.9398     3569.00000
    87.9530     3354.00000
    87.9661     3173.00000
    87.9792     3057.00000
    87.9923     3021.00000
    88.0055     2900.00000
    88.0186     2967.00000
    88.0317     2974.00000
    88.0449     2930.00000
    88.0580     2944.00000
    88.0711     2877.00000
    88.0843     2862.00000
    88.0974     2968.00000
    88.1105     2922.00000
    88.1236     3040.00000
    88.1368     2938.00000
    88.1499     2979.00000
    88.1630     3114.00000
    88.1762     3094.00000
    88.1893     3116.00000
    88.2024     3010.00000
    88.2156     2859.00000
    88.2287     2878.00000
    88.2418     2859.00000
    88.2550     2802.00000
    88.2681     2749.00000
    88.2812     2810.00000
    88.2943     2792.00000
    88.3075     2776.00000
    88.3206     2794.00000
    88.3337     2842.00000
    88.3469     2838.00000
    88.3600     2947.00000
    88.3731     2992.00000
    88.3863     3124.00000
    88.3994     3283.00000
    88.4125     3330.00000
    88.4256     3614.00000
    88.4388     3557.00000
    88.4519     3774.00000
    88.4650     3697.00000
    88.4782     3947.00000
    88.4913     3828.00000
    88.5044     3800.00000
    88.5176     3673.00000
    88.5307     3804.00000
    88.5438     3476.00000
    88.5569     3278.00000
    88.5701     3140.00000
    88.5832     3013.00000
    88.5963     2808.00000
    88.6095     2824.00000
    88.6226     2806.00000
    88.6357     2741.00000
    88.6489     2768.00000
    88.6620     2756.00000
    88.6751     2777.00000
    88.6882     2884.00000
    88.7014     2804.00000
    88.7145     3009.00000
    88.7276     3032.00000
    88.7408     3100.00000
    88.7539     3108.00000
    88.7670     3161.00000
    88.7802     3136.00000
    88.7933     3057.00000
    88.8064     3025.00000
    88.8196     2986.00000
    88.8327     2903.00000
    88.8458     2795.00000
    88.8589     2740.00000
    88.8721     2631.00000
    88.8852     2596.00000
    88.8983     2554.00000
    88.9115     2510.00000
    88.9246     2621.00000
    88.9377     2529.00000
    88.9509     2517.00000
    88.9640     2608.00000
    88.9771     2624.00000
    88.9902     2638.00000
    89.0034     2683.00000
    89.0165     2678.00000
    89.0296     2794.00000
    89.0428     2955.00000
    89.0559     2980.00000
    89.0690     3001.00000
    89.0822     3124.00000
    89.0953     3202.00000
    89.1084     3336.00000
    89.1216     3243.00000
    89.1347     3257.00000
    89.1478     3154.00000
    89.1609     2989.00000
    89.1741     2844.00000
    89.1872     2825.00000
    89.2003     2702.00000
    89.2135     2711.00000
    89.2266     2650.00000
    89.2397     2654.00000
    89.2529     2644.00000
    89.2660     2639.00000
    89.2791     2638.00000
    89.2922     2549.00000
    89.3054     2653.00000
    89.3185     2707.00000
    89.3316     2674.00000
    89.3448     2909.00000
    89.3579     2880.00000
    89.3710     2868.00000
    89.3842     2952.00000
    89.3973     2856.00000
    89.4104     2895.00000
    89.4235     2869.00000
    89.4367     2674.00000
    89.4498     2785.00000
    89.4629     2722.00000
    89.4761     2475.00000
    89.4892     2616.00000
    89.5023     2538.00000
    89.5155     2566.00000
    89.5286     2469.00000
    89.5417     2505.00000
    89.5548     2648.00000
    89.5680     2634.00000
    89.5811     2471.00000
    89.5942     2464.00000
    89.6074     2514.00000
    89.6205     2673.00000
    89.6336     2618.00000
    89.6468     2597.00000
    89.6599     2750.00000
    89.6730     2729.00000
    89.6861     2800.00000
    89.6993     2882.00000
    89.7124     2932.00000
    89.7255     2935.00000
    89.7387     2929.00000
    89.7518     2987.00000
    89.7649     3178.00000
    89.7781     3245.00000
    89.7912     3344.00000
    89.8043     3330.00000
    89.8175     3442.00000
    89.8306     3609.00000
    89.8437     3636.00000
    89.8568     3423.00000
    89.8700     3389.00000
    89.8831     3150.00000
    89.8962     3010.00000
    89.9094     2889.00000
    89.9225     2856.00000
    89.9356     2721.00000
    89.9488     2709.00000
    89.9619     2864.00000
    89.9750     2751.00000
    89.9882     2779.00000
    90.0013     2743.00000
    90.0144     2838.00000
    90.0275     2832.00000
    90.0407     2832.00000
    90.0538     2904.00000
    90.0669     2992.00000
    90.0801     2987.00000
    90.0932     3114.00000
    90.1063     3202.00000
    90.1195     3269.00000
    90.1326     3320.00000
    90.1457     3206.00000
    90.1588     3228.00000
    90.1720     3211.00000
    90.1851     3121.00000
    90.1982     3239.00000
    90.2114     3255.00000
    90.2245     3207.00000
    90.2376     3310.00000
    90.2508     3292.00000
    90.2639     3226.00000
    90.2770     3245.00000
    90.2901     3208.00000
    90.3033     3132.00000
    90.3164     2997.00000
    90.3295     3117.00000
    90.3427     3237.00000
    90.3558     3073.00000
    90.3689     3103.00000
    90.3821     2923.00000
    90.3952     3006.00000
    90.4083     3056.00000
    90.4214     3024.00000
    90.4346     3106.00000
    90.4477     2922.00000
    90.4608     3064.00000
    90.4740     2938.00000
    90.4871     2994.00000
    90.5002     3115.00000
    90.5134     3098.00000
    90.5265     3205.00000
    90.5396     3270.00000
    90.5527     3167.00000
    90.5659     3025.00000
    90.5790     3024.00000
    90.5921     2974.00000
    90.6053     2992.00000
    90.6184     2910.00000
    90.6315     2882.00000
    90.6447     2898.00000
    90.6578     3027.00000
    90.6709     2979.00000
    90.6841     2950.00000
    90.6972     2946.00000
    90.7103     2998.00000
    90.7234     2930.00000
    90.7366     3044.00000
    90.7497     3104.00000
    90.7628     3121.00000
    90.7760     3375.00000
    90.7891     3330.00000
    90.8022     3222.00000
    90.8154     3388.00000
    90.8285     3442.00000
    90.8416     3289.00000
    90.8548     3153.00000
    90.8679     2985.00000
    90.8810     2903.00000
    90.8941     2832.00000
    90.9073     2797.00000
    90.9204     2814.00000
    90.9335     2648.00000
    90.9467     2746.00000
    90.9598     2730.00000
    90.9729     2663.00000
    90.9861     2643.00000
    90.9992     2809.00000
    91.0123     2715.00000
    91.0254     2679.00000
    91.0386     2883.00000
    91.0517     2879.00000
    91.0648     2892.00000
    91.0780     2953.00000
    91.0911     2969.00000
    91.1042     3089.00000
    91.1174     3234.00000
    91.1305     3164.00000
    91.1436     3144.00000
    91.1567     3171.00000
    91.1699     3231.00000
    91.1830     3317.00000
    91.1961     3384.00000
    91.2093     3472.00000
    91.2224     3464.00000
    91.2355     3481.00000
    91.2487     3518.00000
    91.2618     3576.00000
    91.2749     3631.00000
    91.2880     3585.00000
    91.3012     3654.00000
    91.3143     3728.00000
    91.3274     3663.00000
    91.3406     3708.00000
    91.3537     3705.00000
    91.3668     3682.00000
    91.3800     3680.00000
    91.3931     3401.00000
    91.4062     3397.00000
    91.4193     3263.00000
    91.4325     3094.00000
    91.4456     3133.00000
    91.4587     3104.00000
    91.4719     3068.00000
    91.4850     3002.00000
    91.4981     2949.00000
    91.5113     3162.00000
    91.5244     3018.00000
    91.5375     3072.00000
    91.5507     3156.00000
    91.5638     3259.00000
    91.5769     3262.00000
    91.5900     3222.00000
    91.6032     3313.00000
    91.6163     3353.00000
    91.6294     3409.00000
    91.6426     3529.00000
    91.6557     3530.00000
    91.6688     3746.00000
    91.6820     3854.00000
    91.6951     3858.00000
    91.7082     3878.00000
    91.7213     3957.00000
    91.7345     3848.00000
    91.7476     3718.00000
    91.7607     3476.00000
    91.7739     3424.00000
    91.7870     3196.00000
    91.8001     3105.00000
    91.8133     3044.00000
    91.8264     2986.00000
    91.8395     2999.00000
    91.8526     3065.00000
    91.8658     2982.00000
    91.8789     3052.00000
    91.8920     3017.00000
    91.9052     2939.00000
    91.9183     3022.00000
    91.9314     3115.00000
    91.9446     3206.00000
    91.9577     3168.00000
    91.9708     3129.00000
    91.9840     3169.00000
    91.9971     3228.00000
    92.0102     3237.00000
    92.0233     3287.00000
    92.0365     3227.00000
    92.0496     3206.00000
    92.0627     3111.00000
    92.0759     3019.00000
    92.0890     3022.00000
    92.1021     3058.00000
    92.1153     2918.00000
    92.1284     2935.00000
    92.1415     2863.00000
    92.1546     2723.00000
    92.1678     2765.00000
    92.1809     2898.00000
    92.1940     2796.00000
    92.2072     2682.00000
    92.2203     2728.00000
    92.2334     2721.00000
    92.2466     2733.00000
    92.2597     2674.00000
    92.2728     2532.00000
    92.2859     2642.00000
    92.2991     2593.00000
    92.3122     2555.00000
    92.3253     2537.00000
    92.3385     2628.00000
    92.3516     2622.00000
    92.3647     2656.00000
    92.3779     2615.00000
    92.3910     2770.00000
    92.4041     2771.00000
    92.4173     2865.00000
    92.4304     2791.00000
    92.4435     2816.00000
    92.4566     2770.00000
    92.4698     2838.00000
    92.4829     2861.00000
    92.4960     2843.00000
    92.5092     2849.00000
    92.5223     2874.00000
    92.5354     2819.00000
    92.5486     2835.00000
    92.5617     2701.00000
    92.5748     2769.00000
    92.5879     2787.00000
    92.6011     2851.00000
    92.6142     2705.00000
    92.6273     2774.00000
    92.6405     2848.00000
    92.6536     2819.00000
    92.6667     2852.00000
    92.6799     2812.00000
    92.6930     2981.00000
    92.7061     2957.00000
    92.7192     3062.00000
    92.7324     3002.00000
    92.7455     3150.00000
    92.7586     3076.00000
    92.7718     3235.00000
    92.7849     3299.00000
    92.7980     3366.00000
    92.8112     3602.00000
    92.8243     3639.00000
    92.8374     3782.00000
    92.8505     3870.00000
    92.8637     3784.00000
    92.8768     3688.00000
    92.8899     3587.00000
    92.9031     3442.00000
    92.9162     3277.00000
    92.9293     3179.00000
    92.9425     2962.00000
    92.9556     2953.00000
    92.9687     2819.00000
    92.9819     2896.00000
    92.9950     2780.00000
    93.0081     2770.00000
    93.0212     2774.00000
    93.0344     2701.00000
    93.0475     2712.00000
    93.0606     2842.00000
    93.0738     2763.00000
    93.0869     2826.00000
    93.1000     2829.00000
    93.1132     2919.00000
    93.1263     2972.00000
    93.1394     3007.00000
    93.1525     3090.00000
    93.1657     2983.00000
    93.1788     2988.00000
    93.1919     2883.00000
    93.2051     2794.00000
    93.2182     2709.00000
    93.2313     2672.00000
    93.2445     2685.00000
    93.2576     2677.00000
    93.2707     2571.00000
    93.2839     2588.00000
    93.2970     2487.00000
    93.3101     2488.00000
    93.3232     2508.00000
    93.3364     2454.00000
    93.3495     2435.00000
    93.3626     2441.00000
    93.3758     2391.00000
    93.3889     2435.00000
    93.4020     2395.00000
    93.4152     2465.00000
    93.4283     2423.00000
    93.4414     2433.00000
    93.4545     2341.00000
    93.4677     2382.00000
    93.4808     2369.00000
    93.4939     2390.00000
    93.5071     2429.00000
    93.5202     2403.00000
    93.5333     2351.00000
    93.5465     2348.00000
    93.5596     2321.00000
    93.5727     2281.00000
    93.5858     2317.00000
    93.5990     2377.00000
    93.6121     2355.00000
    93.6252     2318.00000
    93.6384     2333.00000
    93.6515     2364.00000
    93.6646     2332.00000
    93.6778     2330.00000
    93.6909     2380.00000
    93.7040     2303.00000
    93.7171     2342.00000
    93.7303     2256.00000
    93.7434     2315.00000
    93.7565     2393.00000
    93.7697     2425.00000
    93.7828     2378.00000
    93.7959     2290.00000
    93.8091     2366.00000
    93.8222     2369.00000
    93.8353     2383.00000
    93.8484     2352.00000
    93.8616     2385.00000
    93.8747     2508.00000
    93.8878     2352.00000
    93.9010     2473.00000
    93.9141     2484.00000
    93.9272     2446.00000
    93.9404     2486.00000
    93.9535     2530.00000
    93.9666     2531.00000
    93.9798     2733.00000
    93.9929     2770.00000
    94.0060     2729.00000
    94.0191     2985.00000
    94.0323     2978.00000
    94.0454     3025.00000
    94.0585     3237.00000
    94.0717     3222.00000
    94.0848     3037.00000
    94.0979     3048.00000
    94.1111     2937.00000
    94.1242     2916.00000
    94.1373     2823.00000
    94.1505     2818.00000
    94.1636     2738.00000
    94.1767     2804.00000
    94.1898     2807.00000
    94.2030     2946.00000
    94.2161     2830.00000
    94.2292     2915.00000
    94.2424     2865.00000
    94.2555     2769.00000
    94.2686     2837.00000
    94.2818     2866.00000
    94.2949     2902.00000
    94.3080     3007.00000
    94.3211     2801.00000
    94.3343     2944.00000
    94.3474     2894.00000
    94.3605     2992.00000
    94.3737     2889.00000
    94.3868     2868.00000
    94.3999     2803.00000
    94.4131     2865.00000
    94.4262     2786.00000
    94.4393     2741.00000
    94.4524     2668.00000
    94.4656     2641.00000
    94.4787     2676.00000
    94.4918     2546.00000
    94.5050     2693.00000
    94.5181     2712.00000
    94.5312     2607.00000
    94.5444     2594.00000
    94.5575     2750.00000
    94.5706     2699.00000
    94.5837     2569.00000
    94.5969     2578.00000
    94.6100     2550.00000
    94.6231     2674.00000
    94.6363     2663.00000
    94.6494     2778.00000
    94.6625     2705.00000
    94.6757     2764.00000
    94.6888     2787.00000
    94.7019     2985.00000
    94.7150     3104.00000
    94.7282     3257.00000
    94.7413     3474.00000
    94.7544     3560.00000
    94.7676     3689.00000
    94.7807     3681.00000
    94.7938     3685.00000
    94.8070     3453.00000
    94.8201     3332.00000
    94.8332     3218.00000
    94.8464     3152.00000
    94.8595     3094.00000
    94.8726     2941.00000
    94.8857     2872.00000
    94.8989     2827.00000
    94.9120     2774.00000
    94.9251     2814.00000
    94.9383     2690.00000
    94.9514     2677.00000
    94.9645     2597.00000
    94.9777     2747.00000
    94.9908     2791.00000
    95.0039     2664.00000
    95.0170     2777.00000
    95.0302     2595.00000
    95.0433     2819.00000
    95.0564     2812.00000
    95.0696     3015.00000
    95.0827     2941.00000
    95.0958     2881.00000
    95.1090     2852.00000
    95.1221     2785.00000
    95.1352     2833.00000
    95.1484     2849.00000
    95.1615     2702.00000
    95.1746     2639.00000
    95.1877     2657.00000
    95.2009     2570.00000
    95.2140     2546.00000
    95.2271     2512.00000
    95.2403     2500.00000
    95.2534     2438.00000
    95.2665     2459.00000
    95.2797     2393.00000
    95.2928     2379.00000
    95.3059     2399.00000
    95.3190     2478.00000
    95.3322     2393.00000
    95.3453     2359.00000
    95.3584     2380.00000
    95.3716     2423.00000
    95.3847     2337.00000
    95.3978     2417.00000
    95.4110     2453.00000
    95.4241     2378.00000
    95.4372     2400.00000
    95.4503     2297.00000
    95.4635     2401.00000
    95.4766     2307.00000
    95.4897     2342.00000
    95.5029     2407.00000
    95.5160     2331.00000
    95.5291     2403.00000
    95.5423     2417.00000
    95.5554     2388.00000
    95.5685     2305.00000
    95.5816     2264.00000
    95.5948     2288.00000
    95.6079     2280.00000
    95.6210     2382.00000
    95.6342     2268.00000
    95.6473     2347.00000
    95.6604     2277.00000
    95.6736     2418.00000
    95.6867     2302.00000
    95.6998     2395.00000
    95.7130     2339.00000
    95.7261     2253.00000
    95.7392     2383.00000
    95.7523     2372.00000
    95.7655     2462.00000
    95.7786     2428.00000
    95.7917     2338.00000
    95.8049     2292.00000
    95.8180     2386.00000
    95.8311     2403.00000
    95.8443     2294.00000
    95.8574     2351.00000
    95.8705     2409.00000
    95.8836     2325.00000
    95.8968     2273.00000
    95.9099     2367.00000
    95.9230     2323.00000
    95.9362     2340.00000
    95.9493     2350.00000
    95.9624     2309.00000
    95.9756     2289.00000
    95.9887     2353.00000
    96.0018     2359.00000
    96.0149     2349.00000
    96.0281     2357.00000
    96.0412     2418.00000
    96.0543     2387.00000
    96.0675     2431.00000
    96.0806     2361.00000
    96.0937     2388.00000
    96.1069     2426.00000
    96.1200     2397.00000
    96.1331     2419.00000
    96.1463     2393.00000
    96.1594     2408.00000
    96.1725     2387.00000
    96.1856     2353.00000
    96.1988     2433.00000
    96.2119     2425.00000
    96.2250     2518.00000
    96.2382     2513.00000
    96.2513     2527.00000
    96.2644     2458.00000
    96.2776     2587.00000
    96.2907     2548.00000
    96.3038     2525.00000
    96.3169     2551.00000
    96.3301     2537.00000
    96.3432     2486.00000
    96.3563     2491.00000
    96.3695     2550.00000
    96.3826     2525.00000
    96.3957     2408.00000
    96.4089     2423.00000
    96.4220     2371.00000
    96.4351     2354.00000
    96.4482     2407.00000
    96.4614     2388.00000
    96.4745     2340.00000
    96.4876     2479.00000
    96.5008     2452.00000
    96.5139     2452.00000
    96.5270     2413.00000
    96.5402     2395.00000
    96.5533     2503.00000
    96.5664     2409.00000
    96.5796     2455.00000
    96.5927     2579.00000
    96.6058     2611.00000
    96.6189     2569.00000
    96.6321     2634.00000
    96.6452     2590.00000
    96.6583     2668.00000
    96.6715     2730.00000
    96.6846     2734.00000
    96.6977     2784.00000
    96.7109     2845.00000
    96.7240     2800.00000
    96.7371     2803.00000
    96.7502     2930.00000
    96.7634     3045.00000
    96.7765     3138.00000
    96.7896     3184.00000
    96.8028     3333.00000
    96.8159     3266.00000
    96.8290     3330.00000
    96.8422     3583.00000
    96.8553     3552.00000
    96.8684     3648.00000
    96.8815     3723.00000
    96.8947     3670.00000
    96.9078     3334.00000
    96.9209     3203.00000
    96.9341     3044.00000
    96.9472     3073.00000
    96.9603     2916.00000
    96.9735     2756.00000
    96.9866     2816.00000
    96.9997     2816.00000
    97.0128     2850.00000
    97.0260     2972.00000
    97.0391     2972.00000
    97.0522     2998.00000
    97.0654     3193.00000
    97.0785     3185.00000
    97.0916     3434.00000
    97.1048     3347.00000
    97.1179     3534.00000
    97.1310     3636.00000
    97.1442     3601.00000
    97.1573     3743.00000
    97.1704     3698.00000
    97.1835     3556.00000
    97.1967     3355.00000
    97.2098     3329.00000
    97.2229     3150.00000
    97.2361     3185.00000
    97.2492     2957.00000
    97.2623     2794.00000
    97.2755     2846.00000
    97.2886     2641.00000
    97.3017     2773.00000
    97.3148     2720.00000
    97.3280     2736.00000
    97.3411     2668.00000
    97.3542     2614.00000
    97.3674     2716.00000
    97.3805     2719.00000
    97.3936     2824.00000
    97.4068     2711.00000
    97.4199     2856.00000
    97.4330     2862.00000
    97.4462     3032.00000
    97.4593     2997.00000
    97.4724     2990.00000
    97.4855     3092.00000
    97.4987     2967.00000
    97.5118     2997.00000
    97.5249     3132.00000
    97.5381     3098.00000
    97.5512     3082.00000
    97.5643     3167.00000
    97.5775     3206.00000
    97.5906     3148.00000
    97.6037     3164.00000
    97.6168     3285.00000
    97.6300     3190.00000
    97.6431     3217.00000
    97.6562     3218.00000
    97.6694     3323.00000
    97.6825     3155.00000
    97.6956     3153.00000
    97.7088     3116.00000
    97.7219     3242.00000
    97.7350     3195.00000
    97.7481     3130.00000
    97.7613     2979.00000
    97.7744     2958.00000
    97.7875     2835.00000
    97.8007     2883.00000
    97.8138     2778.00000
    97.8269     2815.00000
    97.8401     2871.00000
    97.8532     2722.00000
    97.8663     2739.00000
    97.8794     2774.00000
    97.8926     2746.00000
    97.9057     2740.00000
    97.9188     2755.00000
    97.9320     2836.00000
    97.9451     2825.00000
    97.9582     2820.00000
    97.9714     2791.00000
    97.9845     2827.00000
    97.9976     2840.00000
    98.0107     2843.00000
    98.0239     2729.00000
    98.0370     2741.00000
    98.0501     2731.00000
    98.0633     2666.00000
    98.0764     2746.00000
    98.0895     2652.00000
    98.1027     2608.00000
    98.1158     2646.00000
    98.1289     2596.00000
    98.1421     2539.00000
    98.1552     2451.00000
    98.1683     2523.00000
    98.1814     2467.00000
    98.1946     2469.00000
    98.2077     2426.00000
    98.2208     2419.00000
    98.2340     2480.00000
    98.2471     2435.00000
    98.2602     2435.00000
    98.2734     2384.00000
    98.2865     2491.00000
    98.2996     2458.00000
    98.3128     2439.00000
    98.3259     2371.00000
    98.3390     2423.00000
    98.3521     2438.00000
    98.3653     2443.00000
    98.3784     2463.00000
    98.3915     2437.00000
    98.4047     2384.00000
    98.4178     2403.00000
    98.4309     2498.00000
    98.4441     2471.00000
    98.4572     2456.00000
    98.4703     2496.00000
    98.4834     2508.00000
    98.4966     2546.00000
    98.5097     2578.00000
    98.5228     2692.00000
    98.5360     2675.00000
    98.5491     2621.00000
    98.5622     2755.00000
    98.5754     2791.00000
    98.5885     2861.00000
    98.6016     2946.00000
    98.6147     3029.00000
    98.6279     3197.00000
    98.6410     3432.00000
    98.6541     3482.00000
    98.6673     3489.00000
    98.6804     3718.00000
    98.6935     3967.00000
    98.7067     3976.00000
    98.7198     4078.00000
    98.7329     3986.00000
    98.7460     4022.00000
    98.7592     3988.00000
    98.7723     3698.00000
    98.7854     3675.00000
    98.7986     3575.00000
    98.8117     3530.00000
    98.8248     3433.00000
    98.8380     3280.00000
    98.8511     3335.00000
    98.8642     3206.00000
    98.8773     3216.00000
    98.8905     3144.00000
    98.9036     3214.00000
    98.9167     3402.00000
    98.9299     3418.00000
    98.9430     3447.00000
    98.9561     3763.00000
    98.9693     3836.00000
    98.9824     3990.00000
    98.9955     4085.00000
    99.0087     4331.00000
    99.0218     4478.00000
    99.0349     4499.00000
    99.0480     4424.00000
    99.0612     4568.00000
    99.0743     4400.00000
    99.0874     4407.00000
    99.1006     4597.00000
    99.1137     4527.00000
    99.1268     4498.00000
    99.1400     4364.00000
    99.1531     4387.00000
    99.1662     4108.00000
    99.1793     3900.00000
    99.1925     3895.00000
    99.2056     3702.00000
    99.2187     3611.00000
    99.2319     3467.00000
    99.2450     3415.00000
    99.2581     3506.00000
    99.2713     3353.00000
    99.2844     3407.00000
    99.2975     3540.00000
    99.3107     3615.00000
    99.3238     3573.00000
    99.3369     3575.00000
    99.3500     3808.00000
    99.3632     3671.00000
    99.3763     3771.00000
    99.3894     3817.00000
    99.4026     3976.00000
    99.4157     3928.00000
    99.4288     3918.00000
    99.4420     3974.00000
    99.4551     4210.00000
    99.4682     4109.00000
    99.4813     4114.00000
    99.4945     4075.00000
    99.5076     4064.00000
    99.5207     4093.00000
    99.5339     3973.00000
    99.5470     3918.00000
    99.5601     3755.00000
    99.5733     3678.00000
    99.5864     3471.00000
    99.5995     3430.00000
    99.6126     3332.00000
    99.6258     3252.00000
    99.6389     3234.00000
    99.6520     3133.00000
    99.6652     3046.00000
    99.6783     2910.00000
    99.6914     2870.00000
    99.7046     3032.00000
    99.7177     2956.00000
    99.7308     2846.00000
    99.7439     2958.00000
    99.7571     2936.00000
    99.7702     2932.00000
    99.7833     2955.00000
    99.7965     3037.00000
    99.8096     3050.00000
    99.8227     3011.00000
    99.8359     3051.00000
    99.8490     2963.00000
    99.8621     3186.00000
    99.8753     3094.00000
    99.8884     3092.00000
    99.9015     3222.00000
    99.9146     3201.00000
    99.9278     3201.00000
    99.9409     3354.00000
    99.9540     3528.00000
    99.9672     3492.00000
    99.9803     3427.00000
    99.9934     3413.00000
