! Initial file:   D:\ZAKARY_OUAIL\MA_THESE\Deuxième_année_de_thèse\DRX\Manips_DRX\1st_NaTaO2F2_XRK900\NaTaO2F2-Lent_180°C.xrdml
! Initial format:  58
! WAVE (A):      1.54060     1.54060     1.00000
! REM : data have been multiplied by     1.0000
! X_data : 2 Theta (deg.)                                                                                                                                                                                                                                                  
! Y_data : Intensity (arb. units)                                                                                                                                                                                                                                          
!     X         Y
!--------------------------------------------------------------------------------
    10.0116     6865.00000
    10.0247     6688.00000
    10.0379     6802.00000
    10.0510     6880.00000
    10.0641     6633.00000
    10.0772     6866.00000
    10.0904     6620.00000
    10.1035     6606.00000
    10.1166     6574.00000
    10.1298     6544.00000
    10.1429     6674.00000
    10.1560     6629.00000
    10.1692     6615.00000
    10.1823     6563.00000
    10.1954     6476.00000
    10.2086     6581.00000
    10.2217     6493.00000
    10.2348     6555.00000
    10.2479     6707.00000
    10.2611     6628.00000
    10.2742     6567.00000
    10.2873     6615.00000
    10.3005     6441.00000
    10.3136     6569.00000
    10.3267     6532.00000
    10.3399     6517.00000
    10.3530     6375.00000
    10.3661     6477.00000
    10.3792     6493.00000
    10.3924     6399.00000
    10.4055     6514.00000
    10.4186     6588.00000
    10.4318     6459.00000
    10.4449     6385.00000
    10.4580     6435.00000
    10.4712     6531.00000
    10.4843     6480.00000
    10.4974     6511.00000
    10.5105     6396.00000
    10.5237     6384.00000
    10.5368     6448.00000
    10.5499     6434.00000
    10.5631     6492.00000
    10.5762     6380.00000
    10.5893     6460.00000
    10.6025     6392.00000
    10.6156     6451.00000
    10.6287     6141.00000
    10.6418     6478.00000
    10.6550     6472.00000
    10.6681     6492.00000
    10.6812     6510.00000
    10.6944     6237.00000
    10.7075     6450.00000
    10.7206     6439.00000
    10.7338     6586.00000
    10.7469     6586.00000
    10.7600     6555.00000
    10.7732     6515.00000
    10.7863     6552.00000
    10.7994     6584.00000
    10.8125     6625.00000
    10.8257     6774.00000
    10.8388     6761.00000
    10.8519     6729.00000
    10.8651     6629.00000
    10.8782     6816.00000
    10.8913     6934.00000
    10.9045     6945.00000
    10.9176     7078.00000
    10.9307     7059.00000
    10.9438     7357.00000
    10.9570     7584.00000
    10.9701     7945.00000
    10.9832     8642.00000
    10.9964     9587.00000
    11.0095    10526.00000
    11.0226    11703.00000
    11.0358    14074.00000
    11.0489    17850.00000
    11.0620    22990.00000
    11.0751    29432.00000
    11.0883    38549.00000
    11.1014    46337.00000
    11.1145    50964.00000
    11.1277    51041.00000
    11.1408    44905.00000
    11.1539    36987.00000
    11.1671    29574.00000
    11.1802    22764.00000
    11.1933    17369.00000
    11.2065    13433.00000
    11.2196    10814.00000
    11.2327     8880.00000
    11.2458     8064.00000
    11.2590     7390.00000
    11.2721     7207.00000
    11.2852     6948.00000
    11.2984     6803.00000
    11.3115     6600.00000
    11.3246     6569.00000
    11.3378     6454.00000
    11.3509     6425.00000
    11.3640     6282.00000
    11.3771     6309.00000
    11.3903     6466.00000
    11.4034     6246.00000
    11.4165     6408.00000
    11.4297     6232.00000
    11.4428     6234.00000
    11.4559     6110.00000
    11.4691     6344.00000
    11.4822     6280.00000
    11.4953     6226.00000
    11.5084     6136.00000
    11.5216     6138.00000
    11.5347     6115.00000
    11.5478     6153.00000
    11.5610     6126.00000
    11.5741     6236.00000
    11.5872     6183.00000
    11.6004     6115.00000
    11.6135     6080.00000
    11.6266     5982.00000
    11.6398     6213.00000
    11.6529     5977.00000
    11.6660     6131.00000
    11.6791     6091.00000
    11.6923     6126.00000
    11.7054     5881.00000
    11.7185     6065.00000
    11.7317     5946.00000
    11.7448     6074.00000
    11.7579     5950.00000
    11.7711     5963.00000
    11.7842     6142.00000
    11.7973     6124.00000
    11.8104     6066.00000
    11.8236     5950.00000
    11.8367     5961.00000
    11.8498     5988.00000
    11.8630     5864.00000
    11.8761     5836.00000
    11.8892     5904.00000
    11.9024     5914.00000
    11.9155     6022.00000
    11.9286     6014.00000
    11.9417     5975.00000
    11.9549     6047.00000
    11.9680     5937.00000
    11.9811     5883.00000
    11.9943     5913.00000
    12.0074     5918.00000
    12.0205     5875.00000
    12.0337     5934.00000
    12.0468     5912.00000
    12.0599     5847.00000
    12.0731     5839.00000
    12.0862     5866.00000
    12.0993     5963.00000
    12.1124     5760.00000
    12.1256     5986.00000
    12.1387     5784.00000
    12.1518     5851.00000
    12.1650     5853.00000
    12.1781     5922.00000
    12.1912     5922.00000
    12.2044     5851.00000
    12.2175     5737.00000
    12.2306     5894.00000
    12.2437     5763.00000
    12.2569     5849.00000
    12.2700     5807.00000
    12.2831     5756.00000
    12.2963     5824.00000
    12.3094     5800.00000
    12.3225     5666.00000
    12.3357     5874.00000
    12.3488     5898.00000
    12.3619     5682.00000
    12.3750     5753.00000
    12.3882     5720.00000
    12.4013     5772.00000
    12.4144     5653.00000
    12.4276     5902.00000
    12.4407     5941.00000
    12.4538     5724.00000
    12.4670     5751.00000
    12.4801     5745.00000
    12.4932     5670.00000
    12.5063     5679.00000
    12.5195     5632.00000
    12.5326     5606.00000
    12.5457     5632.00000
    12.5589     5827.00000
    12.5720     5653.00000
    12.5851     5807.00000
    12.5983     5612.00000
    12.6114     5639.00000
    12.6245     5656.00000
    12.6377     5711.00000
    12.6508     5598.00000
    12.6639     5642.00000
    12.6770     5691.00000
    12.6902     5671.00000
    12.7033     5699.00000
    12.7164     5566.00000
    12.7296     5777.00000
    12.7427     5631.00000
    12.7558     5798.00000
    12.7690     5719.00000
    12.7821     5544.00000
    12.7952     5529.00000
    12.8083     5668.00000
    12.8215     5527.00000
    12.8346     5652.00000
    12.8477     5601.00000
    12.8609     5656.00000
    12.8740     5567.00000
    12.8871     5552.00000
    12.9003     5491.00000
    12.9134     5594.00000
    12.9265     5636.00000
    12.9396     5623.00000
    12.9528     5581.00000
    12.9659     5594.00000
    12.9790     5689.00000
    12.9922     5467.00000
    13.0053     5504.00000
    13.0184     5642.00000
    13.0316     5574.00000
    13.0447     5637.00000
    13.0578     5653.00000
    13.0710     5793.00000
    13.0841     5494.00000
    13.0972     5612.00000
    13.1103     5562.00000
    13.1235     5534.00000
    13.1366     5514.00000
    13.1497     5467.00000
    13.1629     5494.00000
    13.1760     5504.00000
    13.1891     5446.00000
    13.2023     5431.00000
    13.2154     5520.00000
    13.2285     5558.00000
    13.2416     5410.00000
    13.2548     5392.00000
    13.2679     5475.00000
    13.2810     5488.00000
    13.2942     5419.00000
    13.3073     5487.00000
    13.3204     5330.00000
    13.3336     5467.00000
    13.3467     5481.00000
    13.3598     5437.00000
    13.3729     5445.00000
    13.3861     5539.00000
    13.3992     5308.00000
    13.4123     5473.00000
    13.4255     5389.00000
    13.4386     5321.00000
    13.4517     5468.00000
    13.4649     5366.00000
    13.4780     5465.00000
    13.4911     5497.00000
    13.5043     5369.00000
    13.5174     5267.00000
    13.5305     5444.00000
    13.5436     5407.00000
    13.5568     5364.00000
    13.5699     5317.00000
    13.5830     5487.00000
    13.5962     5260.00000
    13.6093     5391.00000
    13.6224     5335.00000
    13.6356     5407.00000
    13.6487     5335.00000
    13.6618     5352.00000
    13.6749     5306.00000
    13.6881     5402.00000
    13.7012     5312.00000
    13.7143     5167.00000
    13.7275     5277.00000
    13.7406     5249.00000
    13.7537     5319.00000
    13.7669     5192.00000
    13.7800     5188.00000
    13.7931     5408.00000
    13.8062     5238.00000
    13.8194     5251.00000
    13.8325     5315.00000
    13.8456     5200.00000
    13.8588     5209.00000
    13.8719     5146.00000
    13.8850     5157.00000
    13.8982     5123.00000
    13.9113     5228.00000
    13.9244     5296.00000
    13.9376     5276.00000
    13.9507     5275.00000
    13.9638     5291.00000
    13.9769     5086.00000
    13.9901     5192.00000
    14.0032     5259.00000
    14.0163     5351.00000
    14.0295     5267.00000
    14.0426     5240.00000
    14.0557     5201.00000
    14.0689     5239.00000
    14.0820     5239.00000
    14.0951     5252.00000
    14.1082     5284.00000
    14.1214     5216.00000
    14.1345     5206.00000
    14.1476     5300.00000
    14.1608     5242.00000
    14.1739     5187.00000
    14.1870     5213.00000
    14.2002     5256.00000
    14.2133     5220.00000
    14.2264     5230.00000
    14.2395     5173.00000
    14.2527     5190.00000
    14.2658     5234.00000
    14.2789     5120.00000
    14.2921     5233.00000
    14.3052     5071.00000
    14.3183     5190.00000
    14.3315     5115.00000
    14.3446     5235.00000
    14.3577     5197.00000
    14.3708     5194.00000
    14.3840     5091.00000
    14.3971     5192.00000
    14.4102     5195.00000
    14.4234     5128.00000
    14.4365     5138.00000
    14.4496     5054.00000
    14.4628     5072.00000
    14.4759     5185.00000
    14.4890     5108.00000
    14.5022     5079.00000
    14.5153     5089.00000
    14.5284     5259.00000
    14.5415     5089.00000
    14.5547     5070.00000
    14.5678     5049.00000
    14.5809     5037.00000
    14.5941     4836.00000
    14.6072     5010.00000
    14.6203     5161.00000
    14.6335     4981.00000
    14.6466     5011.00000
    14.6597     5127.00000
    14.6728     5226.00000
    14.6860     5050.00000
    14.6991     5091.00000
    14.7122     5062.00000
    14.7254     5128.00000
    14.7385     5002.00000
    14.7516     4910.00000
    14.7648     5063.00000
    14.7779     5075.00000
    14.7910     5024.00000
    14.8041     5018.00000
    14.8173     5130.00000
    14.8304     5027.00000
    14.8435     5047.00000
    14.8567     4953.00000
    14.8698     4931.00000
    14.8829     5101.00000
    14.8961     5133.00000
    14.9092     5028.00000
    14.9223     5022.00000
    14.9355     5085.00000
    14.9486     4989.00000
    14.9617     4969.00000
    14.9748     4978.00000
    14.9880     4977.00000
    15.0011     5011.00000
    15.0142     5083.00000
    15.0274     4855.00000
    15.0405     5118.00000
    15.0536     4892.00000
    15.0668     4915.00000
    15.0799     4876.00000
    15.0930     4953.00000
    15.1061     4896.00000
    15.1193     4825.00000
    15.1324     4912.00000
    15.1455     5017.00000
    15.1587     4933.00000
    15.1718     4915.00000
    15.1849     4978.00000
    15.1981     4845.00000
    15.2112     4925.00000
    15.2243     4900.00000
    15.2374     4959.00000
    15.2506     5039.00000
    15.2637     4896.00000
    15.2768     4907.00000
    15.2900     4703.00000
    15.3031     5000.00000
    15.3162     5027.00000
    15.3294     5022.00000
    15.3425     4991.00000
    15.3556     4903.00000
    15.3688     4977.00000
    15.3819     5066.00000
    15.3950     5002.00000
    15.4081     4883.00000
    15.4213     4861.00000
    15.4344     4970.00000
    15.4475     4793.00000
    15.4607     4883.00000
    15.4738     4894.00000
    15.4869     4946.00000
    15.5001     4919.00000
    15.5132     4922.00000
    15.5263     4838.00000
    15.5394     4874.00000
    15.5526     4814.00000
    15.5657     4970.00000
    15.5788     4946.00000
    15.5920     4945.00000
    15.6051     4994.00000
    15.6182     4784.00000
    15.6314     4966.00000
    15.6445     4865.00000
    15.6576     4930.00000
    15.6707     4832.00000
    15.6839     4891.00000
    15.6970     4874.00000
    15.7101     4731.00000
    15.7233     4853.00000
    15.7364     4761.00000
    15.7495     4830.00000
    15.7627     4902.00000
    15.7758     4812.00000
    15.7889     4780.00000
    15.8021     4885.00000
    15.8152     4814.00000
    15.8283     4878.00000
    15.8414     4751.00000
    15.8546     4841.00000
    15.8677     4776.00000
    15.8808     4854.00000
    15.8940     4770.00000
    15.9071     4800.00000
    15.9202     4880.00000
    15.9334     4878.00000
    15.9465     4858.00000
    15.9596     4854.00000
    15.9727     4894.00000
    15.9859     4694.00000
    15.9990     4767.00000
    16.0121     4897.00000
    16.0253     4762.00000
    16.0384     4782.00000
    16.0515     4844.00000
    16.0647     4740.00000
    16.0778     4799.00000
    16.0909     4906.00000
    16.1040     4787.00000
    16.1172     4884.00000
    16.1303     4704.00000
    16.1434     4844.00000
    16.1566     4930.00000
    16.1697     4958.00000
    16.1828     4926.00000
    16.1960     4898.00000
    16.2091     4838.00000
    16.2222     5015.00000
    16.2353     4762.00000
    16.2485     4971.00000
    16.2616     4778.00000
    16.2747     4858.00000
    16.2879     4914.00000
    16.3010     4936.00000
    16.3141     4926.00000
    16.3273     4832.00000
    16.3404     5064.00000
    16.3535     4797.00000
    16.3667     5009.00000
    16.3798     4921.00000
    16.3929     5015.00000
    16.4060     4956.00000
    16.4192     4843.00000
    16.4323     4913.00000
    16.4454     4851.00000
    16.4586     4776.00000
    16.4717     4964.00000
    16.4848     4879.00000
    16.4980     4901.00000
    16.5111     4879.00000
    16.5242     4965.00000
    16.5373     4868.00000
    16.5505     4864.00000
    16.5636     4837.00000
    16.5767     4708.00000
    16.5899     4777.00000
    16.6030     4743.00000
    16.6161     4774.00000
    16.6293     4654.00000
    16.6424     4735.00000
    16.6555     4681.00000
    16.6686     4657.00000
    16.6818     4735.00000
    16.6949     4799.00000
    16.7080     4681.00000
    16.7212     4620.00000
    16.7343     4691.00000
    16.7474     4653.00000
    16.7606     4556.00000
    16.7737     4567.00000
    16.7868     4660.00000
    16.8000     4686.00000
    16.8131     4826.00000
    16.8262     4560.00000
    16.8393     4723.00000
    16.8525     4746.00000
    16.8656     4740.00000
    16.8787     4555.00000
    16.8919     4508.00000
    16.9050     4570.00000
    16.9181     4742.00000
    16.9313     4610.00000
    16.9444     4592.00000
    16.9575     4691.00000
    16.9706     4641.00000
    16.9838     4664.00000
    16.9969     4620.00000
    17.0100     4690.00000
    17.0232     4730.00000
    17.0363     4719.00000
    17.0494     4589.00000
    17.0626     4632.00000
    17.0757     4779.00000
    17.0888     4626.00000
    17.1019     4479.00000
    17.1151     4582.00000
    17.1282     4562.00000
    17.1413     4758.00000
    17.1545     4806.00000
    17.1676     4618.00000
    17.1807     4566.00000
    17.1939     4752.00000
    17.2070     4647.00000
    17.2201     4718.00000
    17.2333     4736.00000
    17.2464     4730.00000
    17.2595     4899.00000
    17.2726     4850.00000
    17.2858     4697.00000
    17.2989     4814.00000
    17.3120     4684.00000
    17.3252     4677.00000
    17.3383     4606.00000
    17.3514     4613.00000
    17.3646     4592.00000
    17.3777     4525.00000
    17.3908     4448.00000
    17.4039     4659.00000
    17.4171     4581.00000
    17.4302     4423.00000
    17.4433     4438.00000
    17.4565     4567.00000
    17.4696     4576.00000
    17.4827     4649.00000
    17.4959     4502.00000
    17.5090     4378.00000
    17.5221     4619.00000
    17.5352     4553.00000
    17.5484     4555.00000
    17.5615     4534.00000
    17.5746     4394.00000
    17.5878     4522.00000
    17.6009     4678.00000
    17.6140     4443.00000
    17.6272     4626.00000
    17.6403     4584.00000
    17.6534     4477.00000
    17.6666     4603.00000
    17.6797     4598.00000
    17.6928     4542.00000
    17.7059     4492.00000
    17.7191     4660.00000
    17.7322     4686.00000
    17.7453     4743.00000
    17.7585     4835.00000
    17.7716     4769.00000
    17.7847     4635.00000
    17.7979     4510.00000
    17.8110     4685.00000
    17.8241     4616.00000
    17.8372     4484.00000
    17.8504     4496.00000
    17.8635     4466.00000
    17.8766     4438.00000
    17.8898     4271.00000
    17.9029     4550.00000
    17.9160     4344.00000
    17.9292     4573.00000
    17.9423     4467.00000
    17.9554     4515.00000
    17.9685     4287.00000
    17.9817     4323.00000
    17.9948     4429.00000
    18.0079     4485.00000
    18.0211     4442.00000
    18.0342     4405.00000
    18.0473     4358.00000
    18.0605     4489.00000
    18.0736     4437.00000
    18.0867     4501.00000
    18.0998     4463.00000
    18.1130     4384.00000
    18.1261     4310.00000
    18.1392     4411.00000
    18.1524     4306.00000
    18.1655     4536.00000
    18.1786     4324.00000
    18.1918     4367.00000
    18.2049     4483.00000
    18.2180     4445.00000
    18.2312     4336.00000
    18.2443     4262.00000
    18.2574     4306.00000
    18.2705     4424.00000
    18.2837     4451.00000
    18.2968     4372.00000
    18.3099     4369.00000
    18.3231     4268.00000
    18.3362     4278.00000
    18.3493     4264.00000
    18.3625     4296.00000
    18.3756     4270.00000
    18.3887     4253.00000
    18.4018     4353.00000
    18.4150     4151.00000
    18.4281     4288.00000
    18.4412     4399.00000
    18.4544     4287.00000
    18.4675     4337.00000
    18.4806     4370.00000
    18.4938     4365.00000
    18.5069     4263.00000
    18.5200     4504.00000
    18.5331     4352.00000
    18.5463     4269.00000
    18.5594     4317.00000
    18.5725     4398.00000
    18.5857     4331.00000
    18.5988     4357.00000
    18.6119     4388.00000
    18.6251     4579.00000
    18.6382     4441.00000
    18.6513     4503.00000
    18.6645     4440.00000
    18.6776     4348.00000
    18.6907     4367.00000
    18.7038     4284.00000
    18.7170     4316.00000
    18.7301     4269.00000
    18.7432     4300.00000
    18.7564     4207.00000
    18.7695     4163.00000
    18.7826     4245.00000
    18.7958     4356.00000
    18.8089     4267.00000
    18.8220     4295.00000
    18.8351     4305.00000
    18.8483     4248.00000
    18.8614     4280.00000
    18.8745     4176.00000
    18.8877     4285.00000
    18.9008     4274.00000
    18.9139     4261.00000
    18.9271     4149.00000
    18.9402     4186.00000
    18.9533     4261.00000
    18.9664     4365.00000
    18.9796     4357.00000
    18.9927     4402.00000
    19.0058     4445.00000
    19.0190     4547.00000
    19.0321     4611.00000
    19.0452     4582.00000
    19.0584     4714.00000
    19.0715     4610.00000
    19.0846     4598.00000
    19.0978     4701.00000
    19.1109     4645.00000
    19.1240     4598.00000
    19.1371     4698.00000
    19.1503     4574.00000
    19.1634     4666.00000
    19.1765     4728.00000
    19.1897     4737.00000
    19.2028     4503.00000
    19.2159     4672.00000
    19.2291     4657.00000
    19.2422     4504.00000
    19.2553     4570.00000
    19.2684     4620.00000
    19.2816     4610.00000
    19.2947     4610.00000
    19.3078     4835.00000
    19.3210     4668.00000
    19.3341     4717.00000
    19.3472     4795.00000
    19.3604     4759.00000
    19.3735     4783.00000
    19.3866     4883.00000
    19.3997     4993.00000
    19.4129     5032.00000
    19.4260     5220.00000
    19.4391     5241.00000
    19.4523     5393.00000
    19.4654     5566.00000
    19.4785     5728.00000
    19.4917     5931.00000
    19.5048     6097.00000
    19.5179     6497.00000
    19.5311     7073.00000
    19.5442     7950.00000
    19.5573     8927.00000
    19.5704    10897.00000
    19.5836    13769.00000
    19.5967    18345.00000
    19.6098    26528.00000
    19.6230    40417.00000
    19.6361    58867.00000
    19.6492    80963.00000
    19.6624   105131.00000
    19.6755   123122.00000
    19.6886   122381.00000
    19.7017   114347.00000
    19.7149   105478.00000
    19.7280    92824.00000
    19.7411    73167.00000
    19.7543    54460.00000
    19.7674    39139.00000
    19.7805    28152.00000
    19.7937    19642.00000
    19.8068    14339.00000
    19.8199    10629.00000
    19.8330     8435.00000
    19.8462     7384.00000
    19.8593     6701.00000
    19.8724     6215.00000
    19.8856     5875.00000
    19.8987     5563.00000
    19.9118     5353.00000
    19.9250     5073.00000
    19.9381     4898.00000
    19.9512     4793.00000
    19.9643     4749.00000
    19.9775     4600.00000
    19.9906     4585.00000
    20.0037     4630.00000
    20.0169     4645.00000
    20.0300     4602.00000
    20.0431     4550.00000
    20.0563     4523.00000
    20.0694     4357.00000
    20.0825     4380.00000
    20.0957     4528.00000
    20.1088     4408.00000
    20.1219     4554.00000
    20.1350     4678.00000
    20.1482     4828.00000
    20.1613     4773.00000
    20.1744     4603.00000
    20.1876     4772.00000
    20.2007     4720.00000
    20.2138     4708.00000
    20.2270     4510.00000
    20.2401     4608.00000
    20.2532     4575.00000
    20.2663     4435.00000
    20.2795     4389.00000
    20.2926     4438.00000
    20.3057     4274.00000
    20.3189     4219.00000
    20.3320     4346.00000
    20.3451     4298.00000
    20.3583     4191.00000
    20.3714     4152.00000
    20.3845     4237.00000
    20.3976     4311.00000
    20.4108     4255.00000
    20.4239     4234.00000
    20.4370     4321.00000
    20.4502     4223.00000
    20.4633     4268.00000
    20.4764     4202.00000
    20.4896     4356.00000
    20.5027     4153.00000
    20.5158     4237.00000
    20.5290     4154.00000
    20.5421     4158.00000
    20.5552     4148.00000
    20.5683     4135.00000
    20.5815     4127.00000
    20.5946     4052.00000
    20.6077     4161.00000
    20.6209     4184.00000
    20.6340     4043.00000
    20.6471     4103.00000
    20.6603     4148.00000
    20.6734     4092.00000
    20.6865     4115.00000
    20.6996     4051.00000
    20.7128     4056.00000
    20.7259     4054.00000
    20.7390     3929.00000
    20.7522     4077.00000
    20.7653     4032.00000
    20.7784     4049.00000
    20.7916     4029.00000
    20.8047     3975.00000
    20.8178     4217.00000
    20.8309     4109.00000
    20.8441     4058.00000
    20.8572     3959.00000
    20.8703     4014.00000
    20.8835     3960.00000
    20.8966     4165.00000
    20.9097     4053.00000
    20.9229     4099.00000
    20.9360     4022.00000
    20.9491     3996.00000
    20.9623     4019.00000
    20.9754     4186.00000
    20.9885     4028.00000
    21.0016     4061.00000
    21.0148     4046.00000
    21.0279     3957.00000
    21.0410     4010.00000
    21.0542     4092.00000
    21.0673     4018.00000
    21.0804     4072.00000
    21.0936     4048.00000
    21.1067     4072.00000
    21.1198     3892.00000
    21.1329     4018.00000
    21.1461     3937.00000
    21.1592     3979.00000
    21.1723     3869.00000
    21.1855     4076.00000
    21.1986     4038.00000
    21.2117     3788.00000
    21.2249     3941.00000
    21.2380     3919.00000
    21.2511     3901.00000
    21.2642     3936.00000
    21.2774     3965.00000
    21.2905     4011.00000
    21.3036     3882.00000
    21.3168     3926.00000
    21.3299     3798.00000
    21.3430     3935.00000
    21.3562     3921.00000
    21.3693     3907.00000
    21.3824     3943.00000
    21.3956     4036.00000
    21.4087     3957.00000
    21.4218     3828.00000
    21.4349     3985.00000
    21.4481     3986.00000
    21.4612     3925.00000
    21.4743     3976.00000
    21.4875     3950.00000
    21.5006     3902.00000
    21.5137     3952.00000
    21.5269     3944.00000
    21.5400     3854.00000
    21.5531     3948.00000
    21.5662     3924.00000
    21.5794     3962.00000
    21.5925     3932.00000
    21.6056     3980.00000
    21.6188     4032.00000
    21.6319     4045.00000
    21.6450     4006.00000
    21.6582     3908.00000
    21.6713     4021.00000
    21.6844     3914.00000
    21.6975     3799.00000
    21.7107     4004.00000
    21.7238     3881.00000
    21.7369     3864.00000
    21.7501     4110.00000
    21.7632     4015.00000
    21.7763     4000.00000
    21.7895     4137.00000
    21.8026     4190.00000
    21.8157     4267.00000
    21.8288     4330.00000
    21.8420     4362.00000
    21.8551     4233.00000
    21.8682     4286.00000
    21.8814     4113.00000
    21.8945     4170.00000
    21.9076     4079.00000
    21.9208     4100.00000
    21.9339     4058.00000
    21.9470     3879.00000
    21.9602     4060.00000
    21.9733     3878.00000
    21.9864     3992.00000
    21.9995     3966.00000
    22.0127     4027.00000
    22.0258     3938.00000
    22.0389     4059.00000
    22.0521     3990.00000
    22.0652     4032.00000
    22.0783     3955.00000
    22.0915     3965.00000
    22.1046     4035.00000
    22.1177     3960.00000
    22.1308     4080.00000
    22.1440     3995.00000
    22.1571     4047.00000
    22.1702     4039.00000
    22.1834     4068.00000
    22.1965     4109.00000
    22.2096     4134.00000
    22.2228     4154.00000
    22.2359     4390.00000
    22.2490     4498.00000
    22.2621     4980.00000
    22.2753     5375.00000
    22.2884     6101.00000
    22.3015     7418.00000
    22.3147     9626.00000
    22.3278    12864.00000
    22.3409    17200.00000
    22.3541    19534.00000
    22.3672    19417.00000
    22.3803    17898.00000
    22.3935    16568.00000
    22.4066    16024.00000
    22.4197    14394.00000
    22.4328    11326.00000
    22.4460     8834.00000
    22.4591     7257.00000
    22.4722     6241.00000
    22.4854     5295.00000
    22.4985     4633.00000
    22.5116     4210.00000
    22.5248     4275.00000
    22.5379     4148.00000
    22.5510     4144.00000
    22.5641     3925.00000
    22.5773     4032.00000
    22.5904     3975.00000
    22.6035     3909.00000
    22.6167     3845.00000
    22.6298     3877.00000
    22.6429     3802.00000
    22.6561     3887.00000
    22.6692     3872.00000
    22.6823     3771.00000
    22.6954     3920.00000
    22.7086     3845.00000
    22.7217     3744.00000
    22.7348     3856.00000
    22.7480     3920.00000
    22.7611     3976.00000
    22.7742     3878.00000
    22.7874     3931.00000
    22.8005     3874.00000
    22.8136     3879.00000
    22.8268     4045.00000
    22.8399     3877.00000
    22.8530     3820.00000
    22.8661     3849.00000
    22.8793     3998.00000
    22.8924     3663.00000
    22.9055     3744.00000
    22.9187     3813.00000
    22.9318     3874.00000
    22.9449     3698.00000
    22.9581     3759.00000
    22.9712     3721.00000
    22.9843     3843.00000
    22.9974     3731.00000
    23.0106     3793.00000
    23.0237     3731.00000
    23.0368     3760.00000
    23.0500     3707.00000
    23.0631     3644.00000
    23.0762     3702.00000
    23.0894     3727.00000
    23.1025     3826.00000
    23.1156     3691.00000
    23.1287     3784.00000
    23.1419     3651.00000
    23.1550     3714.00000
    23.1681     3672.00000
    23.1813     3849.00000
    23.1944     3683.00000
    23.2075     3683.00000
    23.2207     3809.00000
    23.2338     3733.00000
    23.2469     3724.00000
    23.2601     3737.00000
    23.2732     3769.00000
    23.2863     3652.00000
    23.2994     3761.00000
    23.3126     3693.00000
    23.3257     3674.00000
    23.3388     3872.00000
    23.3520     3752.00000
    23.3651     3691.00000
    23.3782     3785.00000
    23.3914     3743.00000
    23.4045     3807.00000
    23.4176     3663.00000
    23.4307     3736.00000
    23.4439     3964.00000
    23.4570     3784.00000
    23.4701     3741.00000
    23.4833     3770.00000
    23.4964     3709.00000
    23.5095     3909.00000
    23.5227     3764.00000
    23.5358     3866.00000
    23.5489     3895.00000
    23.5620     3846.00000
    23.5752     3932.00000
    23.5883     3962.00000
    23.6014     4057.00000
    23.6146     4032.00000
    23.6277     3908.00000
    23.6408     3897.00000
    23.6540     3831.00000
    23.6671     3995.00000
    23.6802     4083.00000
    23.6933     3919.00000
    23.7065     3957.00000
    23.7196     3990.00000
    23.7327     4001.00000
    23.7459     3839.00000
    23.7590     3926.00000
    23.7721     3906.00000
    23.7853     4124.00000
    23.7984     3954.00000
    23.8115     3961.00000
    23.8247     3839.00000
    23.8378     3948.00000
    23.8509     4003.00000
    23.8640     4045.00000
    23.8772     4189.00000
    23.8903     4122.00000
    23.9034     4271.00000
    23.9166     4320.00000
    23.9297     4462.00000
    23.9428     4363.00000
    23.9560     4413.00000
    23.9691     4490.00000
    23.9822     4596.00000
    23.9953     4587.00000
    24.0085     4597.00000
    24.0216     4609.00000
    24.0347     4693.00000
    24.0479     4971.00000
    24.0610     5027.00000
    24.0741     5369.00000
    24.0873     5750.00000
    24.1004     6453.00000
    24.1135     7289.00000
    24.1266     9414.00000
    24.1398    13020.00000
    24.1529    18334.00000
    24.1660    25744.00000
    24.1792    33488.00000
    24.1923    40993.00000
    24.2054    46324.00000
    24.2186    46077.00000
    24.2317    41053.00000
    24.2448    36845.00000
    24.2580    32837.00000
    24.2711    30838.00000
    24.2842    25217.00000
    24.2973    19967.00000
    24.3105    16275.00000
    24.3236    15578.00000
    24.3367    17000.00000
    24.3499    22111.00000
    24.3630    30489.00000
    24.3761    38302.00000
    24.3893    44305.00000
    24.4024    48809.00000
    24.4155    48709.00000
    24.4286    45620.00000
    24.4418    40979.00000
    24.4549    36219.00000
    24.4680    31095.00000
    24.4812    25218.00000
    24.4943    19142.00000
    24.5074    14437.00000
    24.5206    10803.00000
    24.5337     8167.00000
    24.5468     6506.00000
    24.5599     5565.00000
    24.5731     5008.00000
    24.5862     4723.00000
    24.5993     4560.00000
    24.6125     4429.00000
    24.6256     4387.00000
    24.6387     4293.00000
    24.6519     4125.00000
    24.6650     4066.00000
    24.6781     4066.00000
    24.6913     3923.00000
    24.7044     4001.00000
    24.7175     3903.00000
    24.7306     3871.00000
    24.7438     3943.00000
    24.7569     3923.00000
    24.7700     3844.00000
    24.7832     3870.00000
    24.7963     3770.00000
    24.8094     3689.00000
    24.8226     3921.00000
    24.8357     3760.00000
    24.8488     3698.00000
    24.8619     3873.00000
    24.8751     3795.00000
    24.8882     3745.00000
    24.9013     3716.00000
    24.9145     3691.00000
    24.9276     3752.00000
    24.9407     3697.00000
    24.9539     3775.00000
    24.9670     3898.00000
    24.9801     3797.00000
    24.9932     3972.00000
    25.0064     3935.00000
    25.0195     3970.00000
    25.0326     3883.00000
    25.0458     3803.00000
    25.0589     3823.00000
    25.0720     3710.00000
    25.0852     3730.00000
    25.0983     3659.00000
    25.1114     3697.00000
    25.1246     3793.00000
    25.1377     3633.00000
    25.1508     3617.00000
    25.1639     3698.00000
    25.1771     3699.00000
    25.1902     3622.00000
    25.2033     3639.00000
    25.2165     3658.00000
    25.2296     3591.00000
    25.2427     3704.00000
    25.2559     3771.00000
    25.2690     3671.00000
    25.2821     3579.00000
    25.2952     3618.00000
    25.3084     3631.00000
    25.3215     3493.00000
    25.3346     3494.00000
    25.3478     3621.00000
    25.3609     3637.00000
    25.3740     3628.00000
    25.3872     3582.00000
    25.4003     3650.00000
    25.4134     3691.00000
    25.4265     3624.00000
    25.4397     3618.00000
    25.4528     3491.00000
    25.4659     3607.00000
    25.4791     3538.00000
    25.4922     3604.00000
    25.5053     3617.00000
    25.5185     3564.00000
    25.5316     3631.00000
    25.5447     3568.00000
    25.5579     3564.00000
    25.5710     3598.00000
    25.5841     3454.00000
    25.5972     3509.00000
    25.6104     3582.00000
    25.6235     3543.00000
    25.6366     3432.00000
    25.6498     3466.00000
    25.6629     3536.00000
    25.6760     3602.00000
    25.6892     3452.00000
    25.7023     3552.00000
    25.7154     3471.00000
    25.7285     3558.00000
    25.7417     3542.00000
    25.7548     3518.00000
    25.7679     3445.00000
    25.7811     3636.00000
    25.7942     3468.00000
    25.8073     3506.00000
    25.8205     3492.00000
    25.8336     3521.00000
    25.8467     3587.00000
    25.8598     3550.00000
    25.8730     3459.00000
    25.8861     3476.00000
    25.8992     3511.00000
    25.9124     3512.00000
    25.9255     3528.00000
    25.9386     3584.00000
    25.9518     3536.00000
    25.9649     3583.00000
    25.9780     3605.00000
    25.9911     3652.00000
    26.0043     3481.00000
    26.0174     3392.00000
    26.0305     3607.00000
    26.0437     3687.00000
    26.0568     3658.00000
    26.0699     3855.00000
    26.0831     3884.00000
    26.0962     3878.00000
    26.1093     3995.00000
    26.1225     3964.00000
    26.1356     3987.00000
    26.1487     3930.00000
    26.1618     3874.00000
    26.1750     3886.00000
    26.1881     3677.00000
    26.2012     3689.00000
    26.2144     3758.00000
    26.2275     3591.00000
    26.2406     3613.00000
    26.2538     3615.00000
    26.2669     3673.00000
    26.2800     3458.00000
    26.2931     3506.00000
    26.3063     3579.00000
    26.3194     3348.00000
    26.3325     3565.00000
    26.3457     3481.00000
    26.3588     3584.00000
    26.3719     3527.00000
    26.3851     3678.00000
    26.3982     3591.00000
    26.4113     3575.00000
    26.4244     3489.00000
    26.4376     3502.00000
    26.4507     3410.00000
    26.4638     3487.00000
    26.4770     3471.00000
    26.4901     3562.00000
    26.5032     3601.00000
    26.5164     3536.00000
    26.5295     3440.00000
    26.5426     3521.00000
    26.5558     3486.00000
    26.5689     3411.00000
    26.5820     3334.00000
    26.5951     3479.00000
    26.6083     3441.00000
    26.6214     3563.00000
    26.6345     3394.00000
    26.6477     3599.00000
    26.6608     3499.00000
    26.6739     3518.00000
    26.6871     3456.00000
    26.7002     3479.00000
    26.7133     3545.00000
    26.7264     3579.00000
    26.7396     3409.00000
    26.7527     3394.00000
    26.7658     3558.00000
    26.7790     3566.00000
    26.7921     3478.00000
    26.8052     3591.00000
    26.8184     3578.00000
    26.8315     3667.00000
    26.8446     3568.00000
    26.8577     3655.00000
    26.8709     3735.00000
    26.8840     3568.00000
    26.8971     3657.00000
    26.9103     3670.00000
    26.9234     3536.00000
    26.9365     3741.00000
    26.9497     3679.00000
    26.9628     3736.00000
    26.9759     3679.00000
    26.9891     3697.00000
    27.0022     3578.00000
    27.0153     3658.00000
    27.0284     3646.00000
    27.0416     3619.00000
    27.0547     3714.00000
    27.0678     3781.00000
    27.0810     3634.00000
    27.0941     3661.00000
    27.1072     3628.00000
    27.1204     3634.00000
    27.1335     3680.00000
    27.1466     3624.00000
    27.1597     3704.00000
    27.1729     3630.00000
    27.1860     3655.00000
    27.1991     3635.00000
    27.2123     3615.00000
    27.2254     3618.00000
    27.2385     3646.00000
    27.2517     3715.00000
    27.2648     3788.00000
    27.2779     3725.00000
    27.2910     3715.00000
    27.3042     3682.00000
    27.3173     3604.00000
    27.3304     3676.00000
    27.3436     3679.00000
    27.3567     3841.00000
    27.3698     3853.00000
    27.3830     3836.00000
    27.3961     3794.00000
    27.4092     3817.00000
    27.4224     3934.00000
    27.4355     4025.00000
    27.4486     4242.00000
    27.4617     4238.00000
    27.4749     4433.00000
    27.4880     4429.00000
    27.5011     4619.00000
    27.5143     4775.00000
    27.5274     4917.00000
    27.5405     5039.00000
    27.5537     5358.00000
    27.5668     5557.00000
    27.5799     6181.00000
    27.5930     6645.00000
    27.6062     7314.00000
    27.6193     8328.00000
    27.6324     9492.00000
    27.6456    12128.00000
    27.6587    16104.00000
    27.6718    23442.00000
    27.6850    35292.00000
    27.6981    51595.00000
    27.7112    68747.00000
    27.7243    80611.00000
    27.7375    83943.00000
    27.7506    79058.00000
    27.7637    70936.00000
    27.7769    63541.00000
    27.7900    57152.00000
    27.8031    51362.00000
    27.8163    44322.00000
    27.8294    35130.00000
    27.8425    25846.00000
    27.8556    18098.00000
    27.8688    12741.00000
    27.8819     9516.00000
    27.8950     7662.00000
    27.9082     6663.00000
    27.9213     5951.00000
    27.9344     5456.00000
    27.9476     5112.00000
    27.9607     4832.00000
    27.9738     4590.00000
    27.9870     4398.00000
    28.0001     4201.00000
    28.0132     4125.00000
    28.0263     4181.00000
    28.0395     3962.00000
    28.0526     3879.00000
    28.0657     3867.00000
    28.0789     3725.00000
    28.0920     3768.00000
    28.1051     3753.00000
    28.1183     3799.00000
    28.1314     3691.00000
    28.1445     3701.00000
    28.1576     3724.00000
    28.1708     3606.00000
    28.1839     3739.00000
    28.1970     3669.00000
    28.2102     3702.00000
    28.2233     3752.00000
    28.2364     3694.00000
    28.2496     3700.00000
    28.2627     3894.00000
    28.2758     3920.00000
    28.2889     3969.00000
    28.3021     4018.00000
    28.3152     3986.00000
    28.3283     3913.00000
    28.3415     3884.00000
    28.3546     3762.00000
    28.3677     3878.00000
    28.3809     3750.00000
    28.3940     3719.00000
    28.4071     3698.00000
    28.4203     3593.00000
    28.4334     3625.00000
    28.4465     3646.00000
    28.4596     3589.00000
    28.4728     3720.00000
    28.4859     3685.00000
    28.4990     3513.00000
    28.5122     3604.00000
    28.5253     3633.00000
    28.5384     3756.00000
    28.5516     3574.00000
    28.5647     3544.00000
    28.5778     3521.00000
    28.5909     3549.00000
    28.6041     3592.00000
    28.6172     3513.00000
    28.6303     3637.00000
    28.6435     3549.00000
    28.6566     3471.00000
    28.6697     3627.00000
    28.6829     3555.00000
    28.6960     3554.00000
    28.7091     3447.00000
    28.7222     3421.00000
    28.7354     3555.00000
    28.7485     3548.00000
    28.7616     3390.00000
    28.7748     3570.00000
    28.7879     3517.00000
    28.8010     3503.00000
    28.8142     3511.00000
    28.8273     3590.00000
    28.8404     3505.00000
    28.8536     3536.00000
    28.8667     3560.00000
    28.8798     3575.00000
    28.8929     3550.00000
    28.9061     3516.00000
    28.9192     3652.00000
    28.9323     3677.00000
    28.9455     3612.00000
    28.9586     3674.00000
    28.9717     3597.00000
    28.9849     3667.00000
    28.9980     3633.00000
    29.0111     3687.00000
    29.0242     3828.00000
    29.0374     3893.00000
    29.0505     3939.00000
    29.0636     3974.00000
    29.0768     4027.00000
    29.0899     4091.00000
    29.1030     4163.00000
    29.1162     4440.00000
    29.1293     4601.00000
    29.1424     4791.00000
    29.1555     5065.00000
    29.1687     5502.00000
    29.1818     6657.00000
    29.1949     8351.00000
    29.2081    11814.00000
    29.2212    16876.00000
    29.2343    23665.00000
    29.2475    30185.00000
    29.2606    33685.00000
    29.2737    33349.00000
    29.2869    29197.00000
    29.3000    26203.00000
    29.3131    25055.00000
    29.3262    24331.00000
    29.3394    22760.00000
    29.3525    20542.00000
    29.3656    18057.00000
    29.3788    16950.00000
    29.3919    17536.00000
    29.4050    18465.00000
    29.4182    19637.00000
    29.4313    20153.00000
    29.4444    19313.00000
    29.4575    17683.00000
    29.4707    15640.00000
    29.4838    14170.00000
    29.4969    13257.00000
    29.5101    11736.00000
    29.5232    10354.00000
    29.5363     8516.00000
    29.5495     7088.00000
    29.5626     5782.00000
    29.5757     4870.00000
    29.5888     4390.00000
    29.6020     4065.00000
    29.6151     3806.00000
    29.6282     3760.00000
    29.6414     3739.00000
    29.6545     3527.00000
    29.6676     3585.00000
    29.6808     3631.00000
    29.6939     3567.00000
    29.7070     3436.00000
    29.7201     3451.00000
    29.7333     3340.00000
    29.7464     3440.00000
    29.7595     3385.00000
    29.7727     3378.00000
    29.7858     3428.00000
    29.7989     3403.00000
    29.8121     3461.00000
    29.8252     3493.00000
    29.8383     3353.00000
    29.8515     3285.00000
    29.8646     3248.00000
    29.8777     3320.00000
    29.8908     3298.00000
    29.9040     3424.00000
    29.9171     3398.00000
    29.9302     3362.00000
    29.9434     3450.00000
    29.9565     3529.00000
    29.9696     3432.00000
    29.9828     3463.00000
    29.9959     3451.00000
    30.0090     3349.00000
    30.0221     3313.00000
    30.0353     3355.00000
    30.0484     3283.00000
    30.0615     3264.00000
    30.0747     3319.00000
    30.0878     3316.00000
    30.1009     3266.00000
    30.1141     3314.00000
    30.1272     3294.00000
    30.1403     3239.00000
    30.1535     3427.00000
    30.1666     3245.00000
    30.1797     3348.00000
    30.1928     3343.00000
    30.2060     3399.00000
    30.2191     3294.00000
    30.2322     3201.00000
    30.2454     3249.00000
    30.2585     3210.00000
    30.2716     3318.00000
    30.2848     3219.00000
    30.2979     3341.00000
    30.3110     3274.00000
    30.3241     3351.00000
    30.3373     3316.00000
    30.3504     3201.00000
    30.3635     3311.00000
    30.3767     3260.00000
    30.3898     3294.00000
    30.4029     3350.00000
    30.4161     3303.00000
    30.4292     3357.00000
    30.4423     3322.00000
    30.4554     3251.00000
    30.4686     3284.00000
    30.4817     3265.00000
    30.4948     3269.00000
    30.5080     3320.00000
    30.5211     3199.00000
    30.5342     3148.00000
    30.5474     3245.00000
    30.5605     3261.00000
    30.5736     3210.00000
    30.5868     3136.00000
    30.5999     3235.00000
    30.6130     3178.00000
    30.6261     3227.00000
    30.6393     3269.00000
    30.6524     3064.00000
    30.6655     3195.00000
    30.6787     3256.00000
    30.6918     3153.00000
    30.7049     3201.00000
    30.7181     3276.00000
    30.7312     3233.00000
    30.7443     3232.00000
    30.7574     3238.00000
    30.7706     3169.00000
    30.7837     3183.00000
    30.7968     3159.00000
    30.8100     3088.00000
    30.8231     3181.00000
    30.8362     3075.00000
    30.8494     3105.00000
    30.8625     3208.00000
    30.8756     3218.00000
    30.8887     3157.00000
    30.9019     3145.00000
    30.9150     3208.00000
    30.9281     3147.00000
    30.9413     3178.00000
    30.9544     3090.00000
    30.9675     3193.00000
    30.9807     3220.00000
    30.9938     3257.00000
    31.0069     3096.00000
    31.0200     3174.00000
    31.0332     3130.00000
    31.0463     3251.00000
    31.0594     3279.00000
    31.0726     3185.00000
    31.0857     3114.00000
    31.0988     3164.00000
    31.1120     3174.00000
    31.1251     3088.00000
    31.1382     3083.00000
    31.1514     3097.00000
    31.1645     3146.00000
    31.1776     3039.00000
    31.1907     3180.00000
    31.2039     3219.00000
    31.2170     3086.00000
    31.2301     3217.00000
    31.2433     3075.00000
    31.2564     3152.00000
    31.2695     3193.00000
    31.2827     3114.00000
    31.2958     3152.00000
    31.3089     3033.00000
    31.3220     3203.00000
    31.3352     3160.00000
    31.3483     3124.00000
    31.3614     3087.00000
    31.3746     3100.00000
    31.3877     3093.00000
    31.4008     3145.00000
    31.4140     3175.00000
    31.4271     3042.00000
    31.4402     3063.00000
    31.4533     3145.00000
    31.4665     3192.00000
    31.4796     2994.00000
    31.4927     3084.00000
    31.5059     3106.00000
    31.5190     3080.00000
    31.5321     3137.00000
    31.5453     3100.00000
    31.5584     3094.00000
    31.5715     3117.00000
    31.5847     3180.00000
    31.5978     3222.00000
    31.6109     3078.00000
    31.6240     3166.00000
    31.6372     3190.00000
    31.6503     3141.00000
    31.6634     3061.00000
    31.6766     3066.00000
    31.6897     3139.00000
    31.7028     3198.00000
    31.7160     3082.00000
    31.7291     3103.00000
    31.7422     3159.00000
    31.7553     3224.00000
    31.7685     3197.00000
    31.7816     3075.00000
    31.7947     3214.00000
    31.8079     3149.00000
    31.8210     3160.00000
    31.8341     3172.00000
    31.8473     3208.00000
    31.8604     3154.00000
    31.8735     3158.00000
    31.8866     3156.00000
    31.8998     3058.00000
    31.9129     3082.00000
    31.9260     3143.00000
    31.9392     2927.00000
    31.9523     3038.00000
    31.9654     3198.00000
    31.9786     3135.00000
    31.9917     3155.00000
    32.0048     3073.00000
    32.0180     3088.00000
    32.0311     3187.00000
    32.0442     3100.00000
    32.0573     3070.00000
    32.0705     3106.00000
    32.0836     3105.00000
    32.0967     3095.00000
    32.1099     3186.00000
    32.1230     3115.00000
    32.1361     3071.00000
    32.1493     3065.00000
    32.1624     3105.00000
    32.1755     3217.00000
    32.1886     3211.00000
    32.2018     3224.00000
    32.2149     3146.00000
    32.2280     3323.00000
    32.2412     3244.00000
    32.2543     3242.00000
    32.2674     3192.00000
    32.2806     3114.00000
    32.2937     3252.00000
    32.3068     3210.00000
    32.3199     3213.00000
    32.3331     3193.00000
    32.3462     3308.00000
    32.3593     3144.00000
    32.3725     3122.00000
    32.3856     3205.00000
    32.3987     3251.00000
    32.4119     3183.00000
    32.4250     3154.00000
    32.4381     3279.00000
    32.4512     3271.00000
    32.4644     3389.00000
    32.4775     3249.00000
    32.4906     3335.00000
    32.5038     3467.00000
    32.5169     3472.00000
    32.5300     3479.00000
    32.5432     3529.00000
    32.5563     3594.00000
    32.5694     3607.00000
    32.5826     3835.00000
    32.5957     3941.00000
    32.6088     3962.00000
    32.6219     4088.00000
    32.6351     4621.00000
    32.6482     5275.00000
    32.6613     6664.00000
    32.6745     9605.00000
    32.6876    14469.00000
    32.7007    19142.00000
    32.7139    22040.00000
    32.7270    20542.00000
    32.7401    17184.00000
    32.7532    14473.00000
    32.7664    13130.00000
    32.7795    13066.00000
    32.7926    13653.00000
    32.8058    12909.00000
    32.8189    10850.00000
    32.8320     8815.00000
    32.8452     6812.00000
    32.8583     5544.00000
    32.8714     4788.00000
    32.8845     4210.00000
    32.8977     3996.00000
    32.9108     3827.00000
    32.9239     3737.00000
    32.9371     3697.00000
    32.9502     3652.00000
    32.9633     3577.00000
    32.9765     3741.00000
    32.9896     3706.00000
    33.0027     3744.00000
    33.0159     3699.00000
    33.0290     3693.00000
    33.0421     3827.00000
    33.0552     3842.00000
    33.0684     4051.00000
    33.0815     4191.00000
    33.0946     4086.00000
    33.1078     4204.00000
    33.1209     4442.00000
    33.1340     4549.00000
    33.1472     4823.00000
    33.1603     5233.00000
    33.1734     5829.00000
    33.1865     7305.00000
    33.1997     9402.00000
    33.2128    13505.00000
    33.2259    19987.00000
    33.2391    27426.00000
    33.2522    33576.00000
    33.2653    35369.00000
    33.2785    32162.00000
    33.2916    28077.00000
    33.3047    24422.00000
    33.3178    22453.00000
    33.3310    22123.00000
    33.3441    21588.00000
    33.3572    19864.00000
    33.3704    16703.00000
    33.3835    13516.00000
    33.3966    10230.00000
    33.4098     8030.00000
    33.4229     6272.00000
    33.4360     5308.00000
    33.4492     4915.00000
    33.4623     4556.00000
    33.4754     4493.00000
    33.4885     4485.00000
    33.5017     4515.00000
    33.5148     4360.00000
    33.5279     4455.00000
    33.5411     4564.00000
    33.5542     4775.00000
    33.5673     4895.00000
    33.5805     5090.00000
    33.5936     5443.00000
    33.6067     6031.00000
    33.6198     7005.00000
    33.6330     8862.00000
    33.6461    11451.00000
    33.6592    15758.00000
    33.6724    19945.00000
    33.6855    24695.00000
    33.6986    28517.00000
    33.7118    30075.00000
    33.7249    29241.00000
    33.7380    26569.00000
    33.7511    24471.00000
    33.7643    22591.00000
    33.7774    22601.00000
    33.7905    23939.00000
    33.8037    25474.00000
    33.8168    26986.00000
    33.8299    25072.00000
    33.8431    20603.00000
    33.8562    16038.00000
    33.8693    12933.00000
    33.8825    11794.00000
    33.8956    11361.00000
    33.9087    11365.00000
    33.9218    10404.00000
    33.9350     8948.00000
    33.9481     7198.00000
    33.9612     6143.00000
    33.9744     5284.00000
    33.9875     4375.00000
    34.0006     4054.00000
    34.0138     3838.00000
    34.0269     3581.00000
    34.0400     3619.00000
    34.0531     3548.00000
    34.0663     3432.00000
    34.0794     3317.00000
    34.0925     3298.00000
    34.1057     3392.00000
    34.1188     3428.00000
    34.1319     3266.00000
    34.1451     3266.00000
    34.1582     3360.00000
    34.1713     3259.00000
    34.1844     3295.00000
    34.1976     3192.00000
    34.2107     3121.00000
    34.2238     3226.00000
    34.2370     3153.00000
    34.2501     3235.00000
    34.2632     3120.00000
    34.2764     3127.00000
    34.2895     3204.00000
    34.3026     3156.00000
    34.3158     3126.00000
    34.3289     3185.00000
    34.3420     3159.00000
    34.3551     3140.00000
    34.3683     3171.00000
    34.3814     3153.00000
    34.3945     3182.00000
    34.4077     3249.00000
    34.4208     3295.00000
    34.4339     3281.00000
    34.4471     3226.00000
    34.4602     3297.00000
    34.4733     3392.00000
    34.4864     3437.00000
    34.4996     3487.00000
    34.5127     3448.00000
    34.5258     3466.00000
    34.5390     3502.00000
    34.5521     3648.00000
    34.5652     3781.00000
    34.5784     4100.00000
    34.5915     4652.00000
    34.6046     5621.00000
    34.6177     7229.00000
    34.6309     9684.00000
    34.6440    12344.00000
    34.6571    14649.00000
    34.6703    14049.00000
    34.6834    12341.00000
    34.6965    10529.00000
    34.7097     9277.00000
    34.7228     8984.00000
    34.7359     9106.00000
    34.7491     9312.00000
    34.7622     8678.00000
    34.7753     7535.00000
    34.7884     6015.00000
    34.8016     5048.00000
    34.8147     4298.00000
    34.8278     3846.00000
    34.8410     3682.00000
    34.8541     3536.00000
    34.8672     3440.00000
    34.8804     3306.00000
    34.8935     3274.00000
    34.9066     3249.00000
    34.9197     3312.00000
    34.9329     3400.00000
    34.9460     3419.00000
    34.9591     3467.00000
    34.9723     3726.00000
    34.9854     3767.00000
    34.9985     3804.00000
    35.0117     3534.00000
    35.0248     3410.00000
    35.0379     3312.00000
    35.0510     3364.00000
    35.0642     3282.00000
    35.0773     3350.00000
    35.0904     3242.00000
    35.1036     3244.00000
    35.1167     3028.00000
    35.1298     3051.00000
    35.1430     3025.00000
    35.1561     3005.00000
    35.1692     3047.00000
    35.1824     3051.00000
    35.1955     3000.00000
    35.2086     2971.00000
    35.2217     2988.00000
    35.2349     3069.00000
    35.2480     2985.00000
    35.2611     2944.00000
    35.2743     2988.00000
    35.2874     2873.00000
    35.3005     2917.00000
    35.3137     3106.00000
    35.3268     2987.00000
    35.3399     2969.00000
    35.3530     3033.00000
    35.3662     2828.00000
    35.3793     2920.00000
    35.3924     3017.00000
    35.4056     2950.00000
    35.4187     2940.00000
    35.4318     2996.00000
    35.4450     2867.00000
    35.4581     2967.00000
    35.4712     2971.00000
    35.4843     2939.00000
    35.4975     2924.00000
    35.5106     2935.00000
    35.5237     3012.00000
    35.5369     2917.00000
    35.5500     2957.00000
    35.5631     2953.00000
    35.5763     2969.00000
    35.5894     2932.00000
    35.6025     2814.00000
    35.6156     2805.00000
    35.6288     2935.00000
    35.6419     2894.00000
    35.6550     2926.00000
    35.6682     3038.00000
    35.6813     2994.00000
    35.6944     2993.00000
    35.7076     2903.00000
    35.7207     2997.00000
    35.7338     2894.00000
    35.7470     2926.00000
    35.7601     2901.00000
    35.7732     2926.00000
    35.7863     2867.00000
    35.7995     2999.00000
    35.8126     2837.00000
    35.8257     2848.00000
    35.8389     2838.00000
    35.8520     2872.00000
    35.8651     2829.00000
    35.8783     2912.00000
    35.8914     2999.00000
    35.9045     2879.00000
    35.9176     2972.00000
    35.9308     2894.00000
    35.9439     2880.00000
    35.9570     2945.00000
    35.9702     2966.00000
    35.9833     2992.00000
    35.9964     3043.00000
    36.0096     3068.00000
    36.0227     2959.00000
    36.0358     2935.00000
    36.0489     3143.00000
    36.0621     3070.00000
    36.0752     2868.00000
    36.0883     3078.00000
    36.1015     2974.00000
    36.1146     2973.00000
    36.1277     3049.00000
    36.1409     2993.00000
    36.1540     2930.00000
    36.1671     3144.00000
    36.1802     2910.00000
    36.1934     2954.00000
    36.2065     2909.00000
    36.2196     2946.00000
    36.2328     2948.00000
    36.2459     2968.00000
    36.2590     3036.00000
    36.2722     2910.00000
    36.2853     2955.00000
    36.2984     3004.00000
    36.3116     2958.00000
    36.3247     2887.00000
    36.3378     2994.00000
    36.3509     2878.00000
    36.3641     2895.00000
    36.3772     2862.00000
    36.3903     2958.00000
    36.4035     2924.00000
    36.4166     2916.00000
    36.4297     2971.00000
    36.4429     2984.00000
    36.4560     2949.00000
    36.4691     3063.00000
    36.4822     3008.00000
    36.4954     3006.00000
    36.5085     2994.00000
    36.5216     3057.00000
    36.5348     3119.00000
    36.5479     3090.00000
    36.5610     3243.00000
    36.5742     3227.00000
    36.5873     3359.00000
    36.6004     3460.00000
    36.6135     3989.00000
    36.6267     4656.00000
    36.6398     5941.00000
    36.6529     7462.00000
    36.6661     9183.00000
    36.6792    10037.00000
    36.6923     9445.00000
    36.7055     8231.00000
    36.7186     6613.00000
    36.7317     6024.00000
    36.7449     5997.00000
    36.7580     6305.00000
    36.7711     6589.00000
    36.7842     6348.00000
    36.7974     5667.00000
    36.8105     4782.00000
    36.8236     4020.00000
    36.8368     3616.00000
    36.8499     3528.00000
    36.8630     3185.00000
    36.8762     3219.00000
    36.8893     3112.00000
    36.9024     3154.00000
    36.9155     3098.00000
    36.9287     2920.00000
    36.9418     2988.00000
    36.9549     3072.00000
    36.9681     3054.00000
    36.9812     2964.00000
    36.9943     2972.00000
    37.0075     3040.00000
    37.0206     2879.00000
    37.0337     2903.00000
    37.0468     2961.00000
    37.0600     2935.00000
    37.0731     2958.00000
    37.0862     2930.00000
    37.0994     3111.00000
    37.1125     3140.00000
    37.1256     3065.00000
    37.1388     3001.00000
    37.1519     3128.00000
    37.1650     3126.00000
    37.1782     3165.00000
    37.1913     3240.00000
    37.2044     3190.00000
    37.2175     3151.00000
    37.2307     3429.00000
    37.2438     3403.00000
    37.2569     3501.00000
    37.2701     3907.00000
    37.2832     4534.00000
    37.2963     5513.00000
    37.3095     6714.00000
    37.3226     7913.00000
    37.3357     9221.00000
    37.3488     9750.00000
    37.3620    10073.00000
    37.3751     9532.00000
    37.3882     8563.00000
    37.4014     7751.00000
    37.4145     7266.00000
    37.4276     6825.00000
    37.4408     6781.00000
    37.4539     6724.00000
    37.4670     6251.00000
    37.4801     5739.00000
    37.4933     5114.00000
    37.5064     4394.00000
    37.5195     3748.00000
    37.5327     3491.00000
    37.5458     3339.00000
    37.5589     3144.00000
    37.5721     3030.00000
    37.5852     3240.00000
    37.5983     3092.00000
    37.6115     3379.00000
    37.6246     3492.00000
    37.6377     3637.00000
    37.6508     3654.00000
    37.6640     3625.00000
    37.6771     3559.00000
    37.6902     3393.00000
    37.7034     3299.00000
    37.7165     3420.00000
    37.7296     3399.00000
    37.7428     3325.00000
    37.7559     3241.00000
    37.7690     3136.00000
    37.7821     3047.00000
    37.7953     2922.00000
    37.8084     3006.00000
    37.8215     2988.00000
    37.8347     2907.00000
    37.8478     2798.00000
    37.8609     2849.00000
    37.8741     2766.00000
    37.8872     2858.00000
    37.9003     2765.00000
    37.9134     2845.00000
    37.9266     2835.00000
    37.9397     2763.00000
    37.9528     2749.00000
    37.9660     2798.00000
    37.9791     2791.00000
    37.9922     2803.00000
    38.0054     2658.00000
    38.0185     2728.00000
    38.0316     2816.00000
    38.0448     2785.00000
    38.0579     2762.00000
    38.0710     2799.00000
    38.0841     2864.00000
    38.0973     2833.00000
    38.1104     2784.00000
    38.1235     2777.00000
    38.1367     2795.00000
    38.1498     2788.00000
    38.1629     2813.00000
    38.1761     2810.00000
    38.1892     2891.00000
    38.2023     2804.00000
    38.2154     2699.00000
    38.2286     2777.00000
    38.2417     2784.00000
    38.2548     2797.00000
    38.2680     2646.00000
    38.2811     2774.00000
    38.2942     2765.00000
    38.3074     2755.00000
    38.3205     2714.00000
    38.3336     2814.00000
    38.3467     2625.00000
    38.3599     2747.00000
    38.3730     2744.00000
    38.3861     2728.00000
    38.3993     2772.00000
    38.4124     2816.00000
    38.4255     2761.00000
    38.4387     2746.00000
    38.4518     2668.00000
    38.4649     2753.00000
    38.4781     2728.00000
    38.4912     2721.00000
    38.5043     2684.00000
    38.5174     2792.00000
    38.5306     2804.00000
    38.5437     2822.00000
    38.5568     2715.00000
    38.5700     2675.00000
    38.5831     2825.00000
    38.5962     2791.00000
    38.6094     2714.00000
    38.6225     2728.00000
    38.6356     2779.00000
    38.6487     2811.00000
    38.6619     2795.00000
    38.6750     2798.00000
    38.6881     2808.00000
    38.7013     2735.00000
    38.7144     2760.00000
    38.7275     2753.00000
    38.7407     2738.00000
    38.7538     2845.00000
    38.7669     2741.00000
    38.7800     2802.00000
    38.7932     2754.00000
    38.8063     2754.00000
    38.8194     2795.00000
    38.8326     2662.00000
    38.8457     2736.00000
    38.8588     2868.00000
    38.8720     2789.00000
    38.8851     2835.00000
    38.8982     2725.00000
    38.9114     2831.00000
    38.9245     2786.00000
    38.9376     2858.00000
    38.9507     2689.00000
    38.9639     2755.00000
    38.9770     2800.00000
    38.9901     2726.00000
    39.0033     2794.00000
    39.0164     2712.00000
    39.0295     2692.00000
    39.0427     2757.00000
    39.0558     2672.00000
    39.0689     2705.00000
    39.0820     2791.00000
    39.0952     2721.00000
    39.1083     2675.00000
    39.1214     2743.00000
    39.1346     2747.00000
    39.1477     2785.00000
    39.1608     2825.00000
    39.1740     2690.00000
    39.1871     2701.00000
    39.2002     2726.00000
    39.2133     2718.00000
    39.2265     2649.00000
    39.2396     2756.00000
    39.2527     2756.00000
    39.2659     2677.00000
    39.2790     2779.00000
    39.2921     2680.00000
    39.3053     2822.00000
    39.3184     2690.00000
    39.3315     2671.00000
    39.3446     2759.00000
    39.3578     2764.00000
    39.3709     2757.00000
    39.3840     2772.00000
    39.3972     2753.00000
    39.4103     2780.00000
    39.4234     2874.00000
    39.4366     2669.00000
    39.4497     2806.00000
    39.4628     2800.00000
    39.4760     2801.00000
    39.4891     2842.00000
    39.5022     2786.00000
    39.5153     2910.00000
    39.5285     2827.00000
    39.5416     2889.00000
    39.5547     2878.00000
    39.5679     2845.00000
    39.5810     2906.00000
    39.5941     3008.00000
    39.6073     3081.00000
    39.6204     3377.00000
    39.6335     3930.00000
    39.6466     4299.00000
    39.6598     4687.00000
    39.6729     4924.00000
    39.6860     5044.00000
    39.6992     5017.00000
    39.7123     4757.00000
    39.7254     4323.00000
    39.7386     4117.00000
    39.7517     4031.00000
    39.7648     4040.00000
    39.7779     4026.00000
    39.7911     4106.00000
    39.8042     3969.00000
    39.8173     3805.00000
    39.8305     3572.00000
    39.8436     3404.00000
    39.8567     3215.00000
    39.8699     3155.00000
    39.8830     3304.00000
    39.8961     3282.00000
    39.9092     3423.00000
    39.9224     3499.00000
    39.9355     3837.00000
    39.9486     4461.00000
    39.9618     5443.00000
    39.9749     6597.00000
    39.9880     7542.00000
    40.0012     7679.00000
    40.0143     7150.00000
    40.0274     6323.00000
    40.0406     5686.00000
    40.0537     5348.00000
    40.0668     5249.00000
    40.0799     5455.00000
    40.0931     5655.00000
    40.1062     5457.00000
    40.1193     5171.00000
    40.1325     4760.00000
    40.1456     4216.00000
    40.1587     3937.00000
    40.1719     3523.00000
    40.1850     3519.00000
    40.1981     3370.00000
    40.2112     3396.00000
    40.2244     3400.00000
    40.2375     3599.00000
    40.2506     3625.00000
    40.2638     4096.00000
    40.2769     4715.00000
    40.2900     5908.00000
    40.3032     7513.00000
    40.3163     9001.00000
    40.3294     9988.00000
    40.3425     9633.00000
    40.3557     8428.00000
    40.3688     7182.00000
    40.3819     6106.00000
    40.3951     5704.00000
    40.4082     5835.00000
    40.4213     6380.00000
    40.4345     6673.00000
    40.4476     6387.00000
    40.4607     5727.00000
    40.4739     4660.00000
    40.4870     4070.00000
    40.5001     3609.00000
    40.5132     3500.00000
    40.5264     3238.00000
    40.5395     3036.00000
    40.5526     3061.00000
    40.5658     3015.00000
    40.5789     3052.00000
    40.5920     2902.00000
    40.6052     3023.00000
    40.6183     3016.00000
    40.6314     2830.00000
    40.6445     2904.00000
    40.6577     2926.00000
    40.6708     2910.00000
    40.6839     2977.00000
    40.6971     3039.00000
    40.7102     2978.00000
    40.7233     2981.00000
    40.7365     3050.00000
    40.7496     3092.00000
    40.7627     3062.00000
    40.7758     3158.00000
    40.7890     3176.00000
    40.8021     3167.00000
    40.8152     3342.00000
    40.8284     3310.00000
    40.8415     3518.00000
    40.8546     3657.00000
    40.8678     4078.00000
    40.8809     4362.00000
    40.8940     5269.00000
    40.9072     6216.00000
    40.9203     7421.00000
    40.9334     8985.00000
    40.9465    10333.00000
    40.9597    11262.00000
    40.9728    11297.00000
    40.9859    10337.00000
    40.9991     8792.00000
    41.0122     7765.00000
    41.0253     7488.00000
    41.0385     7776.00000
    41.0516     8465.00000
    41.0647     9613.00000
    41.0778    10700.00000
    41.0910    12170.00000
    41.1041    13242.00000
    41.1172    13794.00000
    41.1304    13267.00000
    41.1435    12027.00000
    41.1566    10409.00000
    41.1698     9228.00000
    41.1829     8958.00000
    41.1960     9877.00000
    41.2091    12101.00000
    41.2223    14553.00000
    41.2354    16156.00000
    41.2485    16091.00000
    41.2617    14478.00000
    41.2748    12073.00000
    41.2879     9615.00000
    41.3011     8101.00000
    41.3142     7302.00000
    41.3273     7299.00000
    41.3405     7752.00000
    41.3536     7898.00000
    41.3667     7555.00000
    41.3798     6600.00000
    41.3930     5616.00000
    41.4061     4579.00000
    41.4192     3907.00000
    41.4324     3475.00000
    41.4455     3281.00000
    41.4586     3106.00000
    41.4718     3072.00000
    41.4849     3017.00000
    41.4980     2941.00000
    41.5111     2989.00000
    41.5243     2981.00000
    41.5374     2871.00000
    41.5505     2821.00000
    41.5637     2789.00000
    41.5768     2741.00000
    41.5899     2833.00000
    41.6031     2886.00000
    41.6162     2806.00000
    41.6293     2789.00000
    41.6424     2749.00000
    41.6556     2785.00000
    41.6687     2832.00000
    41.6818     2740.00000
    41.6950     2636.00000
    41.7081     2780.00000
    41.7212     2654.00000
    41.7344     2704.00000
    41.7475     2804.00000
    41.7606     2743.00000
    41.7738     2721.00000
    41.7869     2726.00000
    41.8000     2692.00000
    41.8131     2786.00000
    41.8263     2687.00000
    41.8394     2634.00000
    41.8525     2682.00000
    41.8657     2713.00000
    41.8788     2639.00000
    41.8919     2705.00000
    41.9051     2717.00000
    41.9182     2743.00000
    41.9313     2726.00000
    41.9444     2752.00000
    41.9576     2637.00000
    41.9707     2669.00000
    41.9838     2666.00000
    41.9970     2764.00000
    42.0101     2663.00000
    42.0232     2737.00000
    42.0364     2682.00000
    42.0495     2746.00000
    42.0626     2786.00000
    42.0757     2759.00000
    42.0889     2651.00000
    42.1020     2693.00000
    42.1151     2606.00000
    42.1283     2707.00000
    42.1414     2625.00000
    42.1545     2772.00000
    42.1677     2808.00000
    42.1808     2711.00000
    42.1939     2644.00000
    42.2071     2673.00000
    42.2202     2641.00000
    42.2333     2597.00000
    42.2464     2707.00000
    42.2596     2700.00000
    42.2727     2731.00000
    42.2858     2714.00000
    42.2990     2630.00000
    42.3121     2599.00000
    42.3252     2723.00000
    42.3384     2512.00000
    42.3515     2704.00000
    42.3646     2844.00000
    42.3777     2744.00000
    42.3909     2657.00000
    42.4040     2689.00000
    42.4171     2634.00000
    42.4303     2599.00000
    42.4434     2626.00000
    42.4565     2639.00000
    42.4697     2729.00000
    42.4828     2705.00000
    42.4959     2591.00000
    42.5090     2652.00000
    42.5222     2700.00000
    42.5353     2753.00000
    42.5484     2671.00000
    42.5616     2649.00000
    42.5747     2642.00000
    42.5878     2604.00000
    42.6010     2651.00000
    42.6141     2599.00000
    42.6272     2640.00000
    42.6404     2720.00000
    42.6535     2648.00000
    42.6666     2732.00000
    42.6797     2640.00000
    42.6929     2679.00000
    42.7060     2631.00000
    42.7191     2771.00000
    42.7323     2763.00000
    42.7454     2659.00000
    42.7585     2742.00000
    42.7717     2676.00000
    42.7848     2682.00000
    42.7979     2744.00000
    42.8110     2583.00000
    42.8242     2658.00000
    42.8373     2813.00000
    42.8504     2681.00000
    42.8636     2679.00000
    42.8767     2710.00000
    42.8898     2689.00000
    42.9030     2633.00000
    42.9161     2712.00000
    42.9292     2814.00000
    42.9423     2666.00000
    42.9555     2616.00000
    42.9686     2597.00000
    42.9817     2705.00000
    42.9949     2701.00000
    43.0080     2751.00000
    43.0211     2625.00000
    43.0343     2699.00000
    43.0474     2655.00000
    43.0605     2607.00000
    43.0736     2633.00000
    43.0868     2672.00000
    43.0999     2638.00000
    43.1130     2641.00000
    43.1262     2621.00000
    43.1393     2711.00000
    43.1524     2668.00000
    43.1656     2730.00000
    43.1787     2665.00000
    43.1918     2741.00000
    43.2050     2654.00000
    43.2181     2689.00000
    43.2312     2772.00000
    43.2443     2700.00000
    43.2575     2673.00000
    43.2706     2683.00000
    43.2837     2716.00000
    43.2969     2640.00000
    43.3100     2752.00000
    43.3231     2779.00000
    43.3363     2964.00000
    43.3494     3063.00000
    43.3625     3151.00000
    43.3756     3368.00000
    43.3888     3397.00000
    43.4019     3454.00000
    43.4150     3306.00000
    43.4282     3275.00000
    43.4413     3111.00000
    43.4544     3069.00000
    43.4676     2965.00000
    43.4807     3129.00000
    43.4938     3089.00000
    43.5069     3182.00000
    43.5201     3021.00000
    43.5332     2993.00000
    43.5463     3065.00000
    43.5595     2826.00000
    43.5726     2777.00000
    43.5857     2790.00000
    43.5989     2731.00000
    43.6120     2734.00000
    43.6251     2702.00000
    43.6383     2601.00000
    43.6514     2643.00000
    43.6645     2648.00000
    43.6776     2598.00000
    43.6908     2663.00000
    43.7039     2697.00000
    43.7170     2577.00000
    43.7302     2709.00000
    43.7433     2636.00000
    43.7564     2657.00000
    43.7696     2717.00000
    43.7827     2643.00000
    43.7958     2703.00000
    43.8089     2685.00000
    43.8221     2702.00000
    43.8352     2630.00000
    43.8483     2599.00000
    43.8615     2612.00000
    43.8746     2626.00000
    43.8877     2678.00000
    43.9009     2636.00000
    43.9140     2617.00000
    43.9271     2609.00000
    43.9402     2628.00000
    43.9534     2745.00000
    43.9665     2661.00000
    43.9796     2733.00000
    43.9928     2775.00000
    44.0059     2625.00000
    44.0190     2720.00000
    44.0322     2704.00000
    44.0453     2723.00000
    44.0584     2706.00000
    44.0715     2794.00000
    44.0847     2780.00000
    44.0978     2818.00000
    44.1109     2784.00000
    44.1241     3038.00000
    44.1372     3163.00000
    44.1503     3676.00000
    44.1635     3905.00000
    44.1766     4023.00000
    44.1897     4079.00000
    44.2029     3963.00000
    44.2160     3792.00000
    44.2291     3384.00000
    44.2422     3442.00000
    44.2554     3216.00000
    44.2685     3304.00000
    44.2816     3389.00000
    44.2948     3543.00000
    44.3079     3380.00000
    44.3210     3453.00000
    44.3342     3195.00000
    44.3473     3145.00000
    44.3604     2968.00000
    44.3735     2839.00000
    44.3867     2959.00000
    44.3998     2933.00000
    44.4129     2930.00000
    44.4261     2872.00000
    44.4392     3088.00000
    44.4523     3173.00000
    44.4655     3266.00000
    44.4786     3747.00000
    44.4917     4197.00000
    44.5048     4653.00000
    44.5180     5088.00000
    44.5311     5527.00000
    44.5442     5693.00000
    44.5574     5495.00000
    44.5705     5131.00000
    44.5836     4455.00000
    44.5968     4137.00000
    44.6099     3982.00000
    44.6230     4022.00000
    44.6362     4189.00000
    44.6493     4209.00000
    44.6624     4212.00000
    44.6755     4015.00000
    44.6887     3725.00000
    44.7018     3385.00000
    44.7149     3159.00000
    44.7281     3063.00000
    44.7412     2970.00000
    44.7543     2804.00000
    44.7675     2792.00000
    44.7806     2857.00000
    44.7937     2681.00000
    44.8068     2790.00000
    44.8200     2731.00000
    44.8331     2742.00000
    44.8462     2740.00000
    44.8594     2695.00000
    44.8725     2704.00000
    44.8856     2732.00000
    44.8988     2678.00000
    44.9119     2753.00000
    44.9250     2712.00000
    44.9381     2628.00000
    44.9513     2662.00000
    44.9644     2611.00000
    44.9775     2734.00000
    44.9907     2656.00000
    45.0038     2611.00000
    45.0169     2610.00000
    45.0301     2641.00000
    45.0432     2595.00000
    45.0563     2696.00000
    45.0695     2629.00000
    45.0826     2597.00000
    45.0957     2599.00000
    45.1088     2594.00000
    45.1220     2634.00000
    45.1351     2659.00000
    45.1482     2687.00000
    45.1614     2623.00000
    45.1745     2684.00000
    45.1876     2668.00000
    45.2008     2614.00000
    45.2139     2689.00000
    45.2270     2700.00000
    45.2401     2666.00000
    45.2533     2668.00000
    45.2664     2597.00000
    45.2795     2677.00000
    45.2927     2698.00000
    45.3058     2664.00000
    45.3189     2741.00000
    45.3321     2714.00000
    45.3452     2691.00000
    45.3583     2801.00000
    45.3714     2714.00000
    45.3846     2707.00000
    45.3977     2778.00000
    45.4108     2788.00000
    45.4240     2760.00000
    45.4371     2800.00000
    45.4502     2884.00000
    45.4634     2775.00000
    45.4765     2852.00000
    45.4896     2763.00000
    45.5028     2869.00000
    45.5159     2906.00000
    45.5290     2967.00000
    45.5421     3062.00000
    45.5553     3209.00000
    45.5684     3390.00000
    45.5815     3603.00000
    45.5947     4034.00000
    45.6078     5156.00000
    45.6209     6898.00000
    45.6341     9280.00000
    45.6472    11588.00000
    45.6603    12340.00000
    45.6734    11142.00000
    45.6866     8962.00000
    45.6997     6952.00000
    45.7128     5733.00000
    45.7260     5197.00000
    45.7391     5361.00000
    45.7522     6098.00000
    45.7654     7199.00000
    45.7785     7590.00000
    45.7916     7013.00000
    45.8047     6093.00000
    45.8179     4968.00000
    45.8310     4218.00000
    45.8441     3582.00000
    45.8573     3249.00000
    45.8704     3077.00000
    45.8835     3039.00000
    45.8967     2967.00000
    45.9098     2817.00000
    45.9229     2882.00000
    45.9361     2768.00000
    45.9492     2737.00000
    45.9623     2658.00000
    45.9754     2691.00000
    45.9886     2792.00000
    46.0017     2748.00000
    46.0148     2756.00000
    46.0280     2751.00000
    46.0411     2715.00000
    46.0542     2698.00000
    46.0674     2800.00000
    46.0805     2769.00000
    46.0936     2850.00000
    46.1067     2747.00000
    46.1199     2816.00000
    46.1330     2907.00000
    46.1461     2804.00000
    46.1593     2920.00000
    46.1724     2956.00000
    46.1855     2750.00000
    46.1987     2924.00000
    46.2118     2869.00000
    46.2249     2893.00000
    46.2380     2991.00000
    46.2512     3150.00000
    46.2643     3363.00000
    46.2774     3861.00000
    46.2906     4523.00000
    46.3037     5591.00000
    46.3168     6945.00000
    46.3300     7496.00000
    46.3431     7284.00000
    46.3562     6227.00000
    46.3694     5022.00000
    46.3825     4576.00000
    46.3956     4042.00000
    46.4087     4088.00000
    46.4219     4314.00000
    46.4350     4775.00000
    46.4481     5323.00000
    46.4613     5034.00000
    46.4744     4813.00000
    46.4875     4166.00000
    46.5007     3508.00000
    46.5138     3293.00000
    46.5269     3129.00000
    46.5400     2817.00000
    46.5532     2957.00000
    46.5663     2942.00000
    46.5794     2730.00000
    46.5926     2676.00000
    46.6057     2765.00000
    46.6188     2776.00000
    46.6320     2676.00000
    46.6451     2752.00000
    46.6582     2795.00000
    46.6713     2795.00000
    46.6845     2725.00000
    46.6976     2808.00000
    46.7107     2720.00000
    46.7239     2773.00000
    46.7370     2770.00000
    46.7501     2798.00000
    46.7633     2768.00000
    46.7764     2676.00000
    46.7895     2742.00000
    46.8027     2694.00000
    46.8158     2774.00000
    46.8289     2756.00000
    46.8420     2818.00000
    46.8552     2832.00000
    46.8683     2812.00000
    46.8814     2953.00000
    46.8946     2913.00000
    46.9077     2865.00000
    46.9208     2929.00000
    46.9340     2870.00000
    46.9471     2904.00000
    46.9602     2954.00000
    46.9733     3065.00000
    46.9865     3033.00000
    46.9996     3219.00000
    47.0127     3454.00000
    47.0259     3526.00000
    47.0390     3732.00000
    47.0521     4380.00000
    47.0653     5025.00000
    47.0784     5921.00000
    47.0915     6968.00000
    47.1046     7800.00000
    47.1178     8452.00000
    47.1309     8675.00000
    47.1440     8488.00000
    47.1572     7290.00000
    47.1703     6001.00000
    47.1834     5288.00000
    47.1966     5037.00000
    47.2097     5121.00000
    47.2228     5411.00000
    47.2359     5716.00000
    47.2491     5920.00000
    47.2622     5718.00000
    47.2753     5230.00000
    47.2885     4609.00000
    47.3016     3968.00000
    47.3147     3632.00000
    47.3279     3509.00000
    47.3410     3304.00000
    47.3541     3233.00000
    47.3673     3129.00000
    47.3804     3013.00000
    47.3935     3002.00000
    47.4066     3028.00000
    47.4198     3064.00000
    47.4329     3120.00000
    47.4460     3052.00000
    47.4592     3097.00000
    47.4723     3251.00000
    47.4854     3239.00000
    47.4986     3213.00000
    47.5117     3092.00000
    47.5248     3242.00000
    47.5379     3255.00000
    47.5511     3376.00000
    47.5642     3408.00000
    47.5773     3499.00000
    47.5905     3470.00000
    47.6036     3569.00000
    47.6167     3618.00000
    47.6299     3793.00000
    47.6430     3912.00000
    47.6561     4059.00000
    47.6692     4393.00000
    47.6824     5017.00000
    47.6955     5482.00000
    47.7086     6421.00000
    47.7218     7864.00000
    47.7349    10061.00000
    47.7480    13370.00000
    47.7612    16418.00000
    47.7743    19411.00000
    47.7874    20534.00000
    47.8005    19322.00000
    47.8137    16503.00000
    47.8268    13427.00000
    47.8399    11344.00000
    47.8531    10212.00000
    47.8662     9908.00000
    47.8793    10672.00000
    47.8925    11773.00000
    47.9056    12194.00000
    47.9187    12251.00000
    47.9319    10823.00000
    47.9450     9268.00000
    47.9581     7511.00000
    47.9712     6277.00000
    47.9844     5299.00000
    47.9975     4657.00000
    48.0106     4203.00000
    48.0238     3920.00000
    48.0369     3590.00000
    48.0500     3526.00000
    48.0632     3431.00000
    48.0763     3506.00000
    48.0894     3285.00000
    48.1025     3284.00000
    48.1157     3234.00000
    48.1288     3278.00000
    48.1419     3176.00000
    48.1551     3314.00000
    48.1682     3270.00000
    48.1813     3233.00000
    48.1945     3272.00000
    48.2076     3288.00000
    48.2207     3340.00000
    48.2338     3283.00000
    48.2470     3464.00000
    48.2601     3471.00000
    48.2732     3707.00000
    48.2864     4106.00000
    48.2995     4692.00000
    48.3126     5618.00000
    48.3258     7187.00000
    48.3389     9253.00000
    48.3520    11516.00000
    48.3652    12707.00000
    48.3783    12959.00000
    48.3914    12973.00000
    48.4045    13518.00000
    48.4177    13199.00000
    48.4308    12434.00000
    48.4439    11286.00000
    48.4571    10509.00000
    48.4702     9987.00000
    48.4833     9628.00000
    48.4965     9234.00000
    48.5096     8786.00000
    48.5227     8389.00000
    48.5358     8340.00000
    48.5490     8097.00000
    48.5621     7573.00000
    48.5752     6679.00000
    48.5884     5770.00000
    48.6015     5128.00000
    48.6146     4766.00000
    48.6278     4199.00000
    48.6409     4077.00000
    48.6540     4134.00000
    48.6671     4328.00000
    48.6803     4831.00000
    48.6934     5439.00000
    48.7065     6655.00000
    48.7197     8290.00000
    48.7328    10561.00000
    48.7459    12736.00000
    48.7591    13322.00000
    48.7722    12888.00000
    48.7853    10859.00000
    48.7985     8955.00000
    48.8116     7484.00000
    48.8247     6320.00000
    48.8378     6353.00000
    48.8510     6532.00000
    48.8641     7524.00000
    48.8772     8096.00000
    48.8904     8397.00000
    48.9035     7852.00000
    48.9166     6819.00000
    48.9298     5655.00000
    48.9429     4677.00000
    48.9560     4069.00000
    48.9691     3780.00000
    48.9823     3529.00000
    48.9954     3244.00000
    49.0085     3340.00000
    49.0217     3218.00000
    49.0348     3053.00000
    49.0479     3230.00000
    49.0611     3009.00000
    49.0742     3016.00000
    49.0873     3084.00000
    49.1004     2865.00000
    49.1136     2778.00000
    49.1267     2972.00000
    49.1398     2894.00000
    49.1530     2865.00000
    49.1661     2825.00000
    49.1792     2802.00000
    49.1924     2748.00000
    49.2055     2760.00000
    49.2186     2799.00000
    49.2318     2859.00000
    49.2449     2807.00000
    49.2580     2792.00000
    49.2711     2831.00000
    49.2843     2824.00000
    49.2974     2804.00000
    49.3105     2843.00000
    49.3237     2913.00000
    49.3368     2948.00000
    49.3499     3080.00000
    49.3631     3166.00000
    49.3762     3247.00000
    49.3893     3611.00000
    49.4024     3580.00000
    49.4156     3583.00000
    49.4287     3452.00000
    49.4418     3332.00000
    49.4550     3245.00000
    49.4681     3096.00000
    49.4812     3040.00000
    49.4944     3076.00000
    49.5075     3214.00000
    49.5206     3224.00000
    49.5337     3391.00000
    49.5469     3484.00000
    49.5600     3398.00000
    49.5731     3504.00000
    49.5863     3345.00000
    49.5994     3375.00000
    49.6125     3378.00000
    49.6257     3287.00000
    49.6388     3381.00000
    49.6519     3296.00000
    49.6651     3315.00000
    49.6782     3210.00000
    49.6913     3367.00000
    49.7044     3442.00000
    49.7176     3352.00000
    49.7307     3470.00000
    49.7438     3415.00000
    49.7570     3526.00000
    49.7701     3503.00000
    49.7832     3552.00000
    49.7964     3530.00000
    49.8095     3523.00000
    49.8226     3597.00000
    49.8357     3671.00000
    49.8489     3909.00000
    49.8620     4118.00000
    49.8751     4743.00000
    49.8883     5616.00000
    49.9014     6651.00000
    49.9145     8427.00000
    49.9277    11144.00000
    49.9408    14576.00000
    49.9539    17751.00000
    49.9670    19462.00000
    49.9802    18617.00000
    49.9933    16762.00000
    50.0064    14135.00000
    50.0196    11722.00000
    50.0327    10028.00000
    50.0458     9676.00000
    50.0590    10337.00000
    50.0721    11511.00000
    50.0852    12401.00000
    50.0984    12677.00000
    50.1115    11837.00000
    50.1246    10562.00000
    50.1377     8982.00000
    50.1509     7384.00000
    50.1640     6380.00000
    50.1771     5652.00000
    50.1903     5173.00000
    50.2034     4874.00000
    50.2165     4420.00000
    50.2297     4130.00000
    50.2428     3876.00000
    50.2559     3724.00000
    50.2690     3628.00000
    50.2822     3542.00000
    50.2953     3471.00000
    50.3084     3517.00000
    50.3216     3422.00000
    50.3347     3507.00000
    50.3478     3527.00000
    50.3610     3558.00000
    50.3741     3739.00000
    50.3872     3849.00000
    50.4003     4102.00000
    50.4135     4562.00000
    50.4266     5122.00000
    50.4397     5960.00000
    50.4529     7007.00000
    50.4660     8453.00000
    50.4791     9865.00000
    50.4923    10958.00000
    50.5054    11356.00000
    50.5185    11257.00000
    50.5317    10146.00000
    50.5448     8626.00000
    50.5579     7188.00000
    50.5710     6469.00000
    50.5842     6529.00000
    50.5973     6346.00000
    50.6104     6663.00000
    50.6236     7262.00000
    50.6367     7341.00000
    50.6498     7082.00000
    50.6630     6661.00000
    50.6761     5709.00000
    50.6892     5005.00000
    50.7023     4275.00000
    50.7155     3838.00000
    50.7286     3672.00000
    50.7417     3336.00000
    50.7549     3424.00000
    50.7680     3192.00000
    50.7811     3183.00000
    50.7943     3089.00000
    50.8074     2953.00000
    50.8205     2934.00000
    50.8336     2871.00000
    50.8468     2996.00000
    50.8599     2865.00000
    50.8730     2947.00000
    50.8862     2857.00000
    50.8993     2812.00000
    50.9124     2849.00000
    50.9256     2933.00000
    50.9387     2803.00000
    50.9518     2829.00000
    50.9649     2858.00000
    50.9781     2789.00000
    50.9912     2835.00000
    51.0043     2812.00000
    51.0175     2885.00000
    51.0306     2867.00000
    51.0437     2818.00000
    51.0569     2850.00000
    51.0700     2754.00000
    51.0831     2781.00000
    51.0963     2876.00000
    51.1094     2933.00000
    51.1225     2913.00000
    51.1356     2826.00000
    51.1488     2958.00000
    51.1619     2858.00000
    51.1750     2981.00000
    51.1882     2943.00000
    51.2013     3047.00000
    51.2144     3001.00000
    51.2276     2930.00000
    51.2407     3017.00000
    51.2538     3109.00000
    51.2669     3145.00000
    51.2801     3176.00000
    51.2932     3384.00000
    51.3063     3505.00000
    51.3195     3859.00000
    51.3326     4519.00000
    51.3457     5478.00000
    51.3589     6728.00000
    51.3720     8157.00000
    51.3851     9243.00000
    51.3982     9154.00000
    51.4114     7982.00000
    51.4245     6847.00000
    51.4376     5691.00000
    51.4508     4905.00000
    51.4639     4396.00000
    51.4770     4552.00000
    51.4902     4797.00000
    51.5033     5497.00000
    51.5164     5881.00000
    51.5296     6082.00000
    51.5427     5841.00000
    51.5558     5332.00000
    51.5689     4746.00000
    51.5821     4120.00000
    51.5952     3930.00000
    51.6083     3949.00000
    51.6215     3816.00000
    51.6346     3736.00000
    51.6477     3653.00000
    51.6609     3321.00000
    51.6740     3064.00000
    51.6871     3109.00000
    51.7002     3070.00000
    51.7134     3048.00000
    51.7265     3076.00000
    51.7396     3130.00000
    51.7528     3242.00000
    51.7659     3125.00000
    51.7790     3149.00000
    51.7922     3030.00000
    51.8053     2980.00000
    51.8184     2961.00000
    51.8315     2855.00000
    51.8447     2966.00000
    51.8578     2864.00000
    51.8709     2833.00000
    51.8841     2788.00000
    51.8972     2749.00000
    51.9103     2791.00000
    51.9235     2704.00000
    51.9366     2854.00000
    51.9497     2738.00000
    51.9628     2819.00000
    51.9760     2745.00000
    51.9891     2801.00000
    52.0022     2842.00000
    52.0154     2824.00000
    52.0285     2681.00000
    52.0416     2725.00000
    52.0548     2740.00000
    52.0679     2759.00000
    52.0810     2820.00000
    52.0942     2800.00000
    52.1073     2730.00000
    52.1204     2774.00000
    52.1335     2750.00000
    52.1467     2837.00000
    52.1598     2769.00000
    52.1729     2826.00000
    52.1861     2791.00000
    52.1992     2891.00000
    52.2123     2740.00000
    52.2255     2794.00000
    52.2386     2892.00000
    52.2517     2927.00000
    52.2648     2899.00000
    52.2780     2865.00000
    52.2911     3079.00000
    52.3042     3003.00000
    52.3174     2946.00000
    52.3305     3048.00000
    52.3436     2998.00000
    52.3568     3023.00000
    52.3699     3149.00000
    52.3830     3141.00000
    52.3961     3186.00000
    52.4093     3359.00000
    52.4224     3456.00000
    52.4355     3916.00000
    52.4487     4319.00000
    52.4618     5003.00000
    52.4749     6180.00000
    52.4881     7541.00000
    52.5012     8466.00000
    52.5143     9914.00000
    52.5275    10431.00000
    52.5406    10703.00000
    52.5537    10659.00000
    52.5668     9812.00000
    52.5800     8404.00000
    52.5931     7031.00000
    52.6062     6107.00000
    52.6194     5850.00000
    52.6325     6012.00000
    52.6456     6252.00000
    52.6588     6581.00000
    52.6719     6677.00000
    52.6850     6836.00000
    52.6981     6659.00000
    52.7113     6138.00000
    52.7244     5306.00000
    52.7375     4643.00000
    52.7507     3850.00000
    52.7638     3606.00000
    52.7769     3467.00000
    52.7901     3328.00000
    52.8032     3223.00000
    52.8163     3304.00000
    52.8294     3322.00000
    52.8426     3556.00000
    52.8557     3607.00000
    52.8688     3973.00000
    52.8820     4650.00000
    52.8951     4869.00000
    52.9082     5284.00000
    52.9214     5511.00000
    52.9345     5806.00000
    52.9476     6018.00000
    52.9608     5880.00000
    52.9739     5956.00000
    52.9870     5669.00000
    53.0001     5336.00000
    53.0133     4793.00000
    53.0264     4643.00000
    53.0395     4403.00000
    53.0527     4378.00000
    53.0658     4295.00000
    53.0789     4344.00000
    53.0921     4223.00000
    53.1052     4303.00000
    53.1183     4143.00000
    53.1314     4096.00000
    53.1446     3730.00000
    53.1577     3442.00000
    53.1708     3207.00000
    53.1840     3107.00000
    53.1971     2890.00000
    53.2102     2812.00000
    53.2234     2833.00000
    53.2365     2776.00000
    53.2496     2751.00000
    53.2627     2754.00000
    53.2759     2770.00000
    53.2890     2713.00000
    53.3021     2747.00000
    53.3153     2753.00000
    53.3284     2709.00000
    53.3415     2744.00000
    53.3547     2747.00000
    53.3678     2785.00000
    53.3809     2833.00000
    53.3941     2759.00000
    53.4072     2803.00000
    53.4203     2828.00000
    53.4334     2822.00000
    53.4466     2900.00000
    53.4597     2968.00000
    53.4728     3168.00000
    53.4860     3404.00000
    53.4991     3726.00000
    53.5122     3875.00000
    53.5254     4227.00000
    53.5385     4314.00000
    53.5516     4154.00000
    53.5647     4209.00000
    53.5779     3857.00000
    53.5910     3553.00000
    53.6041     3456.00000
    53.6173     3254.00000
    53.6304     3351.00000
    53.6435     3453.00000
    53.6567     3396.00000
    53.6698     3533.00000
    53.6829     3560.00000
    53.6960     3542.00000
    53.7092     3484.00000
    53.7223     3182.00000
    53.7354     3123.00000
    53.7486     3025.00000
    53.7617     2883.00000
    53.7748     2808.00000
    53.7880     2824.00000
    53.8011     2777.00000
    53.8142     2714.00000
    53.8274     2683.00000
    53.8405     2695.00000
    53.8536     2819.00000
    53.8667     2802.00000
    53.8799     2746.00000
    53.8930     2576.00000
    53.9061     2652.00000
    53.9193     2603.00000
    53.9324     2655.00000
    53.9455     2610.00000
    53.9587     2609.00000
    53.9718     2714.00000
    53.9849     2614.00000
    53.9980     2532.00000
    54.0112     2503.00000
    54.0243     2669.00000
    54.0374     2611.00000
    54.0506     2670.00000
    54.0637     2733.00000
    54.0768     2701.00000
    54.0900     2654.00000
    54.1031     2664.00000
    54.1162     2710.00000
    54.1293     2716.00000
    54.1425     2562.00000
    54.1556     2639.00000
    54.1687     2718.00000
    54.1819     2556.00000
    54.1950     2661.00000
    54.2081     2647.00000
    54.2213     2644.00000
    54.2344     2767.00000
    54.2475     2744.00000
    54.2607     2786.00000
    54.2738     2871.00000
    54.2869     2861.00000
    54.3000     2926.00000
    54.3132     2943.00000
    54.3263     2988.00000
    54.3394     3055.00000
    54.3526     3011.00000
    54.3657     3015.00000
    54.3788     2974.00000
    54.3920     3013.00000
    54.4051     2937.00000
    54.4182     2918.00000
    54.4313     2964.00000
    54.4445     2864.00000
    54.4576     2843.00000
    54.4707     2956.00000
    54.4839     2764.00000
    54.4970     2799.00000
    54.5101     2905.00000
    54.5233     2879.00000
    54.5364     2892.00000
    54.5495     2817.00000
    54.5626     2713.00000
    54.5758     2763.00000
    54.5889     2767.00000
    54.6020     2656.00000
    54.6152     2677.00000
    54.6283     2694.00000
    54.6414     2626.00000
    54.6546     2754.00000
    54.6677     2666.00000
    54.6808     2722.00000
    54.6940     2660.00000
    54.7071     2680.00000
    54.7202     2671.00000
    54.7333     2668.00000
    54.7465     2653.00000
    54.7596     2625.00000
    54.7727     2714.00000
    54.7859     2697.00000
    54.7990     2627.00000
    54.8121     2568.00000
    54.8253     2716.00000
    54.8384     2527.00000
    54.8515     2575.00000
    54.8646     2673.00000
    54.8778     2663.00000
    54.8909     2690.00000
    54.9040     2684.00000
    54.9172     2627.00000
    54.9303     2662.00000
    54.9434     2647.00000
    54.9566     2778.00000
    54.9697     2729.00000
    54.9828     2746.00000
    54.9959     2663.00000
    55.0091     2679.00000
    55.0222     2750.00000
    55.0353     2646.00000
    55.0485     2854.00000
    55.0616     2687.00000
    55.0747     2797.00000
    55.0879     2762.00000
    55.1010     2792.00000
    55.1141     2773.00000
    55.1272     2672.00000
    55.1404     2812.00000
    55.1535     2781.00000
    55.1666     3061.00000
    55.1798     2887.00000
    55.1929     2997.00000
    55.2060     2870.00000
    55.2192     2982.00000
    55.2323     3122.00000
    55.2454     3064.00000
    55.2586     3211.00000
    55.2717     3195.00000
    55.2848     3264.00000
    55.2979     3434.00000
    55.3111     3546.00000
    55.3242     4002.00000
    55.3373     4433.00000
    55.3505     4865.00000
    55.3636     5755.00000
    55.3767     7141.00000
    55.3899     8728.00000
    55.4030    10485.00000
    55.4161    11629.00000
    55.4292    11542.00000
    55.4424    10343.00000
    55.4555     9025.00000
    55.4686     7535.00000
    55.4818     6417.00000
    55.4949     5684.00000
    55.5080     5535.00000
    55.5212     5728.00000
    55.5343     6081.00000
    55.5474     7014.00000
    55.5605     7429.00000
    55.5737     7452.00000
    55.5868     7209.00000
    55.5999     6440.00000
    55.6131     5626.00000
    55.6262     4792.00000
    55.6393     4359.00000
    55.6525     3848.00000
    55.6656     3647.00000
    55.6787     3543.00000
    55.6918     3528.00000
    55.7050     3504.00000
    55.7181     3612.00000
    55.7312     3616.00000
    55.7444     3653.00000
    55.7575     3496.00000
    55.7706     3376.00000
    55.7838     3413.00000
    55.7969     3115.00000
    55.8100     3073.00000
    55.8232     3011.00000
    55.8363     2952.00000
    55.8494     2952.00000
    55.8625     3128.00000
    55.8757     3010.00000
    55.8888     2994.00000
    55.9019     3133.00000
    55.9151     3111.00000
    55.9282     2972.00000
    55.9413     3069.00000
    55.9545     2969.00000
    55.9676     2892.00000
    55.9807     2883.00000
    55.9938     2924.00000
    56.0070     2918.00000
    56.0201     2974.00000
    56.0332     2973.00000
    56.0464     2975.00000
    56.0595     2981.00000
    56.0726     2893.00000
    56.0858     2924.00000
    56.0989     2962.00000
    56.1120     3144.00000
    56.1251     3092.00000
    56.1383     3113.00000
    56.1514     3104.00000
    56.1645     3197.00000
    56.1777     3350.00000
    56.1908     3498.00000
    56.2039     3734.00000
    56.2171     4215.00000
    56.2302     4956.00000
    56.2433     5825.00000
    56.2565     7341.00000
    56.2696     8995.00000
    56.2827    11297.00000
    56.2958    12780.00000
    56.3090    13876.00000
    56.3221    13512.00000
    56.3352    12646.00000
    56.3484    11068.00000
    56.3615     9624.00000
    56.3746     8259.00000
    56.3878     7768.00000
    56.4009     7927.00000
    56.4140     8127.00000
    56.4271     8571.00000
    56.4403     9213.00000
    56.4534     9408.00000
    56.4665     9279.00000
    56.4797     8911.00000
    56.4928     7882.00000
    56.5059     6904.00000
    56.5191     6053.00000
    56.5322     5370.00000
    56.5453     4724.00000
    56.5584     4622.00000
    56.5716     4388.00000
    56.5847     4093.00000
    56.5978     3859.00000
    56.6110     3688.00000
    56.6241     3430.00000
    56.6372     3393.00000
    56.6504     3262.00000
    56.6635     3064.00000
    56.6766     3031.00000
    56.6898     3054.00000
    56.7029     3009.00000
    56.7160     2919.00000
    56.7291     2942.00000
    56.7423     2935.00000
    56.7554     2882.00000
    56.7685     2992.00000
    56.7817     2932.00000
    56.7948     2950.00000
    56.8079     2988.00000
    56.8211     2942.00000
    56.8342     2979.00000
    56.8473     3070.00000
    56.8604     3144.00000
    56.8736     3080.00000
    56.8867     3106.00000
    56.8998     3234.00000
    56.9130     3172.00000
    56.9261     3252.00000
    56.9392     3318.00000
    56.9524     3581.00000
    56.9655     3585.00000
    56.9786     3960.00000
    56.9917     4509.00000
    57.0049     5120.00000
    57.0180     5881.00000
    57.0311     6542.00000
    57.0443     7200.00000
    57.0574     8043.00000
    57.0705     8718.00000
    57.0837     9237.00000
    57.0968     9422.00000
    57.1099     9553.00000
    57.1231     9768.00000
    57.1362     9574.00000
    57.1493     8873.00000
    57.1624     8119.00000
    57.1756     7436.00000
    57.1887     7128.00000
    57.2018     6816.00000
    57.2150     7080.00000
    57.2281     7308.00000
    57.2412     7661.00000
    57.2544     8121.00000
    57.2675     8609.00000
    57.2806     9119.00000
    57.2937     9543.00000
    57.3069     9147.00000
    57.3200     8559.00000
    57.3331     7568.00000
    57.3463     6526.00000
    57.3594     5616.00000
    57.3725     5034.00000
    57.3857     4554.00000
    57.3988     4274.00000
    57.4119     4353.00000
    57.4250     4583.00000
    57.4382     4620.00000
    57.4513     4928.00000
    57.4644     5094.00000
    57.4776     4739.00000
    57.4907     4360.00000
    57.5038     4115.00000
    57.5170     3773.00000
    57.5301     3525.00000
    57.5432     3431.00000
    57.5564     3240.00000
    57.5695     3212.00000
    57.5826     3113.00000
    57.5957     3024.00000
    57.6089     3086.00000
    57.6220     3034.00000
    57.6351     3104.00000
    57.6483     2965.00000
    57.6614     3095.00000
    57.6745     3058.00000
    57.6877     3072.00000
    57.7008     3041.00000
    57.7139     3015.00000
    57.7270     3177.00000
    57.7402     3224.00000
    57.7533     3343.00000
    57.7664     3313.00000
    57.7796     3630.00000
    57.7927     3907.00000
    57.8058     4199.00000
    57.8190     4794.00000
    57.8321     5476.00000
    57.8452     6511.00000
    57.8583     7604.00000
    57.8715     8794.00000
    57.8846     9056.00000
    57.8977     8385.00000
    57.9109     7538.00000
    57.9240     6223.00000
    57.9371     5620.00000
    57.9503     5073.00000
    57.9634     4612.00000
    57.9765     4799.00000
    57.9897     5169.00000
    58.0028     5742.00000
    58.0159     6451.00000
    58.0290     6915.00000
    58.0422     7026.00000
    58.0553     6744.00000
    58.0684     5868.00000
    58.0816     5442.00000
    58.0947     4885.00000
    58.1078     4487.00000
    58.1210     4353.00000
    58.1341     3880.00000
    58.1472     3882.00000
    58.1603     3765.00000
    58.1735     3681.00000
    58.1866     3611.00000
    58.1997     3548.00000
    58.2129     3379.00000
    58.2260     3322.00000
    58.2391     3409.00000
    58.2523     3411.00000
    58.2654     3337.00000
    58.2785     3292.00000
    58.2916     3348.00000
    58.3048     3301.00000
    58.3179     3208.00000
    58.3310     3074.00000
    58.3442     3122.00000
    58.3573     3202.00000
    58.3704     3042.00000
    58.3836     3090.00000
    58.3967     3395.00000
    58.4098     3359.00000
    58.4230     3400.00000
    58.4361     3753.00000
    58.4492     3905.00000
    58.4623     4106.00000
    58.4755     4488.00000
    58.4886     5014.00000
    58.5017     5635.00000
    58.5149     6262.00000
    58.5280     7214.00000
    58.5411     8019.00000
    58.5543     8615.00000
    58.5674     8634.00000
    58.5805     8255.00000
    58.5936     7554.00000
    58.6068     6709.00000
    58.6199     5922.00000
    58.6330     5485.00000
    58.6462     5374.00000
    58.6593     5413.00000
    58.6724     5808.00000
    58.6856     6500.00000
    58.6987     7240.00000
    58.7118     7871.00000
    58.7249     8870.00000
    58.7381     9994.00000
    58.7512    10539.00000
    58.7643    10675.00000
    58.7775    10420.00000
    58.7906     9205.00000
    58.8037     7750.00000
    58.8169     6292.00000
    58.8300     5337.00000
    58.8431     4859.00000
    58.8562     4700.00000
    58.8694     4790.00000
    58.8825     5092.00000
    58.8956     5626.00000
    58.9088     6227.00000
    58.9219     6460.00000
    58.9350     6787.00000
    58.9482     6697.00000
    58.9613     6280.00000
    58.9744     6054.00000
    58.9876     6027.00000
    59.0007     6655.00000
    59.0138     7196.00000
    59.0269     8122.00000
    59.0401     8999.00000
    59.0532     9553.00000
    59.0663     9520.00000
    59.0795     8798.00000
    59.0926     7632.00000
    59.1057     6627.00000
    59.1189     5880.00000
    59.1320     5153.00000
    59.1451     4919.00000
    59.1582     4945.00000
    59.1714     5072.00000
    59.1845     5510.00000
    59.1976     5837.00000
    59.2108     6176.00000
    59.2239     6200.00000
    59.2370     5977.00000
    59.2502     5450.00000
    59.2633     4851.00000
    59.2764     4207.00000
    59.2895     3769.00000
    59.3027     3636.00000
    59.3158     3312.00000
    59.3289     3111.00000
    59.3421     3201.00000
    59.3552     3157.00000
    59.3683     3084.00000
    59.3815     3065.00000
    59.3946     3058.00000
    59.4077     3121.00000
    59.4208     2967.00000
    59.4340     2986.00000
    59.4471     2988.00000
    59.4602     3120.00000
    59.4734     3040.00000
    59.4865     3033.00000
    59.4996     3080.00000
    59.5128     3087.00000
    59.5259     3307.00000
    59.5390     3392.00000
    59.5522     3584.00000
    59.5653     3955.00000
    59.5784     4433.00000
    59.5915     5033.00000
    59.6047     5670.00000
    59.6178     6408.00000
    59.6309     7150.00000
    59.6441     8014.00000
    59.6572     8582.00000
    59.6703     8690.00000
    59.6835     8177.00000
    59.6966     7739.00000
    59.7097     7156.00000
    59.7228     6685.00000
    59.7360     6276.00000
    59.7491     6251.00000
    59.7622     6647.00000
    59.7754     7231.00000
    59.7885     7878.00000
    59.8016     8529.00000
    59.8148     9016.00000
    59.8279     9437.00000
    59.8410     9667.00000
    59.8541    10359.00000
    59.8673    11305.00000
    59.8804    12107.00000
    59.8935    12344.00000
    59.9067    11758.00000
    59.9198    10639.00000
    59.9329     8763.00000
    59.9461     7473.00000
    59.9592     6460.00000
    59.9723     5906.00000
    59.9855     5566.00000
    59.9986     5486.00000
    60.0117     5749.00000
    60.0248     6142.00000
    60.0380     6560.00000
    60.0511     6965.00000
    60.0642     6804.00000
    60.0774     6364.00000
    60.0905     5845.00000
    60.1036     4910.00000
    60.1168     4264.00000
    60.1299     3780.00000
    60.1430     3580.00000
    60.1561     3256.00000
    60.1693     3132.00000
    60.1824     3126.00000
    60.1955     3024.00000
    60.2087     3051.00000
    60.2218     2986.00000
    60.2349     2988.00000
    60.2481     2890.00000
    60.2612     2880.00000
    60.2743     2818.00000
    60.2874     2882.00000
    60.3006     2905.00000
    60.3137     2862.00000
    60.3268     2909.00000
    60.3400     2951.00000
    60.3531     2860.00000
    60.3662     3030.00000
    60.3794     2894.00000
    60.3925     2973.00000
    60.4056     2942.00000
    60.4188     2970.00000
    60.4319     2935.00000
    60.4450     3018.00000
    60.4581     3091.00000
    60.4713     3047.00000
    60.4844     3103.00000
    60.4975     3199.00000
    60.5107     3348.00000
    60.5238     3290.00000
    60.5369     3430.00000
    60.5501     3537.00000
    60.5632     3691.00000
    60.5763     3816.00000
    60.5894     4269.00000
    60.6026     4849.00000
    60.6157     5478.00000
    60.6288     6621.00000
    60.6420     8009.00000
    60.6551     9420.00000
    60.6682    11269.00000
    60.6814    12042.00000
    60.6945    12059.00000
    60.7076    11806.00000
    60.7207    11447.00000
    60.7339    10984.00000
    60.7470    10493.00000
    60.7601     9716.00000
    60.7733     8981.00000
    60.7864     8224.00000
    60.7995     7803.00000
    60.8127     7890.00000
    60.8258     8192.00000
    60.8389     8423.00000
    60.8521     8633.00000
    60.8652     8722.00000
    60.8783     8611.00000
    60.8914     8650.00000
    60.9046     8466.00000
    60.9177     7918.00000
    60.9308     7444.00000
    60.9440     7082.00000
    60.9571     6588.00000
    60.9702     6012.00000
    60.9834     5451.00000
    60.9965     5039.00000
    61.0096     4881.00000
    61.0227     4856.00000
    61.0359     5108.00000
    61.0490     5110.00000
    61.0621     5228.00000
    61.0753     5528.00000
    61.0884     5607.00000
    61.1015     5772.00000
    61.1147     5908.00000
    61.1278     5561.00000
    61.1409     5269.00000
    61.1540     4843.00000
    61.1672     4367.00000
    61.1803     4057.00000
    61.1934     3864.00000
    61.2066     3734.00000
    61.2197     3631.00000
    61.2328     3697.00000
    61.2460     3753.00000
    61.2591     3701.00000
    61.2722     3555.00000
    61.2854     3560.00000
    61.2985     3655.00000
    61.3116     3502.00000
    61.3247     3245.00000
    61.3379     3021.00000
    61.3510     2885.00000
    61.3641     2825.00000
    61.3773     2816.00000
    61.3904     2735.00000
    61.4035     2687.00000
    61.4167     2782.00000
    61.4298     2781.00000
    61.4429     2703.00000
    61.4560     2604.00000
    61.4692     2608.00000
    61.4823     2684.00000
    61.4954     2604.00000
    61.5086     2678.00000
    61.5217     2541.00000
    61.5348     2674.00000
    61.5480     2629.00000
    61.5611     2583.00000
    61.5742     2456.00000
    61.5873     2518.00000
    61.6005     2541.00000
    61.6136     2625.00000
    61.6267     2496.00000
    61.6399     2612.00000
    61.6530     2610.00000
    61.6661     2573.00000
    61.6793     2636.00000
    61.6924     2602.00000
    61.7055     2546.00000
    61.7187     2530.00000
    61.7318     2629.00000
    61.7449     2566.00000
    61.7580     2499.00000
    61.7712     2580.00000
    61.7843     2599.00000
    61.7974     2652.00000
    61.8106     2545.00000
    61.8237     2594.00000
    61.8368     2524.00000
    61.8500     2595.00000
    61.8631     2525.00000
    61.8762     2396.00000
    61.8893     2524.00000
    61.9025     2566.00000
    61.9156     2561.00000
    61.9287     2535.00000
    61.9419     2445.00000
    61.9550     2581.00000
    61.9681     2587.00000
    61.9813     2590.00000
    61.9944     2517.00000
    62.0075     2579.00000
    62.0206     2627.00000
    62.0338     2534.00000
    62.0469     2417.00000
    62.0600     2417.00000
    62.0732     2605.00000
    62.0863     2441.00000
    62.0994     2461.00000
    62.1126     2555.00000
    62.1257     2454.00000
    62.1388     2545.00000
    62.1520     2516.00000
    62.1651     2456.00000
    62.1782     2441.00000
    62.1913     2472.00000
    62.2045     2473.00000
    62.2176     2562.00000
    62.2307     2518.00000
    62.2439     2446.00000
    62.2570     2361.00000
    62.2701     2461.00000
    62.2833     2497.00000
    62.2964     2502.00000
    62.3095     2631.00000
    62.3226     2559.00000
    62.3358     2583.00000
    62.3489     2535.00000
    62.3620     2551.00000
    62.3752     2618.00000
    62.3883     2641.00000
    62.4014     2606.00000
    62.4146     2515.00000
    62.4277     2603.00000
    62.4408     2562.00000
    62.4539     2466.00000
    62.4671     2599.00000
    62.4802     2504.00000
    62.4933     2510.00000
    62.5065     2445.00000
    62.5196     2510.00000
    62.5327     2536.00000
    62.5459     2472.00000
    62.5590     2405.00000
    62.5721     2562.00000
    62.5852     2501.00000
    62.5984     2447.00000
    62.6115     2602.00000
    62.6246     2508.00000
    62.6378     2515.00000
    62.6509     2486.00000
    62.6640     2519.00000
    62.6772     2491.00000
    62.6903     2437.00000
    62.7034     2477.00000
    62.7166     2401.00000
    62.7297     2450.00000
    62.7428     2521.00000
    62.7559     2558.00000
    62.7691     2474.00000
    62.7822     2434.00000
    62.7953     2544.00000
    62.8085     2583.00000
    62.8216     2589.00000
    62.8347     2515.00000
    62.8479     2571.00000
    62.8610     2457.00000
    62.8741     2435.00000
    62.8872     2410.00000
    62.9004     2438.00000
    62.9135     2427.00000
    62.9266     2437.00000
    62.9398     2464.00000
    62.9529     2458.00000
    62.9660     2551.00000
    62.9792     2498.00000
    62.9923     2438.00000
    63.0054     2473.00000
    63.0185     2529.00000
    63.0317     2437.00000
    63.0448     2425.00000
    63.0579     2527.00000
    63.0711     2479.00000
    63.0842     2444.00000
    63.0973     2514.00000
    63.1105     2542.00000
    63.1236     2429.00000
    63.1367     2520.00000
    63.1499     2499.00000
    63.1630     2579.00000
    63.1761     2463.00000
    63.1892     2515.00000
    63.2024     2429.00000
    63.2155     2403.00000
    63.2286     2650.00000
    63.2418     2503.00000
    63.2549     2562.00000
    63.2680     2486.00000
    63.2812     2497.00000
    63.2943     2571.00000
    63.3074     2460.00000
    63.3205     2566.00000
    63.3337     2567.00000
    63.3468     2584.00000
    63.3599     2479.00000
    63.3731     2439.00000
    63.3862     2609.00000
    63.3993     2679.00000
    63.4125     2627.00000
    63.4256     2694.00000
    63.4387     2790.00000
    63.4518     2815.00000
    63.4650     2802.00000
    63.4781     2832.00000
    63.4912     2917.00000
    63.5044     3082.00000
    63.5175     3058.00000
    63.5306     3218.00000
    63.5438     3312.00000
    63.5569     3461.00000
    63.5700     3838.00000
    63.5831     4070.00000
    63.5963     4008.00000
    63.6094     4068.00000
    63.6225     3730.00000
    63.6357     3573.00000
    63.6488     3357.00000
    63.6619     3169.00000
    63.6751     3006.00000
    63.6882     3072.00000
    63.7013     2933.00000
    63.7145     3065.00000
    63.7276     3163.00000
    63.7407     3175.00000
    63.7538     3189.00000
    63.7670     3359.00000
    63.7801     3190.00000
    63.7932     3123.00000
    63.8064     3179.00000
    63.8195     3016.00000
    63.8326     2831.00000
    63.8458     2782.00000
    63.8589     2705.00000
    63.8720     2762.00000
    63.8851     2649.00000
    63.8983     2752.00000
    63.9114     2665.00000
    63.9245     2797.00000
    63.9377     2717.00000
    63.9508     2875.00000
    63.9639     2928.00000
    63.9771     3133.00000
    63.9902     3357.00000
    64.0033     3460.00000
    64.0164     3754.00000
    64.0296     3958.00000
    64.0427     4267.00000
    64.0558     4238.00000
    64.0690     4238.00000
    64.0821     4181.00000
    64.0952     3891.00000
    64.1084     3867.00000
    64.1215     3867.00000
    64.1346     3740.00000
    64.1478     4155.00000
    64.1609     4113.00000
    64.1740     4324.00000
    64.1871     4652.00000
    64.2003     4424.00000
    64.2134     4419.00000
    64.2265     4379.00000
    64.2397     4054.00000
    64.2528     3754.00000
    64.2659     3590.00000
    64.2791     3458.00000
    64.2922     3191.00000
    64.3053     3261.00000
    64.3184     3247.00000
    64.3316     3114.00000
    64.3447     3314.00000
    64.3578     3149.00000
    64.3710     3303.00000
    64.3841     3212.00000
    64.3972     3203.00000
    64.4104     2911.00000
    64.4235     2852.00000
    64.4366     2770.00000
    64.4498     2610.00000
    64.4629     2568.00000
    64.4760     2589.00000
    64.4891     2620.00000
    64.5023     2543.00000
    64.5154     2450.00000
    64.5285     2484.00000
    64.5417     2451.00000
    64.5548     2425.00000
    64.5679     2510.00000
    64.5811     2474.00000
    64.5942     2512.00000
    64.6073     2454.00000
    64.6204     2459.00000
    64.6336     2405.00000
    64.6467     2366.00000
    64.6598     2439.00000
    64.6730     2496.00000
    64.6861     2451.00000
    64.6992     2385.00000
    64.7124     2519.00000
    64.7255     2382.00000
    64.7386     2415.00000
    64.7517     2438.00000
    64.7649     2476.00000
    64.7780     2439.00000
    64.7911     2544.00000
    64.8043     2526.00000
    64.8174     2533.00000
    64.8305     2651.00000
    64.8437     2482.00000
    64.8568     2643.00000
    64.8699     2605.00000
    64.8830     2679.00000
    64.8962     2649.00000
    64.9093     2746.00000
    64.9224     2692.00000
    64.9356     2701.00000
    64.9487     2717.00000
    64.9618     2626.00000
    64.9750     2694.00000
    64.9881     2664.00000
    65.0012     2604.00000
    65.0144     2659.00000
    65.0275     2737.00000
    65.0406     2727.00000
    65.0537     2719.00000
    65.0669     2797.00000
    65.0800     2722.00000
    65.0931     2699.00000
    65.1063     2761.00000
    65.1194     2721.00000
    65.1325     2616.00000
    65.1457     2589.00000
    65.1588     2556.00000
    65.1719     2633.00000
    65.1850     2636.00000
    65.1982     2461.00000
    65.2113     2519.00000
    65.2244     2556.00000
    65.2376     2470.00000
    65.2507     2648.00000
    65.2638     2422.00000
    65.2770     2465.00000
    65.2901     2550.00000
    65.3032     2423.00000
    65.3163     2447.00000
    65.3295     2385.00000
    65.3426     2302.00000
    65.3557     2457.00000
    65.3689     2373.00000
    65.3820     2427.00000
    65.3951     2417.00000
    65.4083     2460.00000
    65.4214     2434.00000
    65.4345     2433.00000
    65.4476     2341.00000
    65.4608     2307.00000
    65.4739     2444.00000
    65.4870     2389.00000
    65.5002     2430.00000
    65.5133     2328.00000
    65.5264     2360.00000
    65.5396     2445.00000
    65.5527     2499.00000
    65.5658     2458.00000
    65.5790     2453.00000
    65.5921     2369.00000
    65.6052     2418.00000
    65.6183     2424.00000
    65.6315     2527.00000
    65.6446     2369.00000
    65.6577     2419.00000
    65.6709     2327.00000
    65.6840     2450.00000
    65.6971     2385.00000
    65.7103     2484.00000
    65.7234     2408.00000
    65.7365     2368.00000
    65.7496     2407.00000
    65.7628     2401.00000
    65.7759     2424.00000
    65.7890     2384.00000
    65.8022     2400.00000
    65.8153     2399.00000
    65.8284     2283.00000
    65.8416     2482.00000
    65.8547     2396.00000
    65.8678     2434.00000
    65.8810     2401.00000
    65.8941     2380.00000
    65.9072     2408.00000
    65.9203     2429.00000
    65.9335     2337.00000
    65.9466     2388.00000
    65.9597     2396.00000
    65.9729     2463.00000
    65.9860     2346.00000
    65.9991     2441.00000
    66.0123     2421.00000
    66.0254     2388.00000
    66.0385     2374.00000
    66.0516     2325.00000
    66.0648     2395.00000
    66.0779     2333.00000
    66.0910     2410.00000
    66.1042     2420.00000
    66.1173     2380.00000
    66.1304     2330.00000
    66.1436     2367.00000
    66.1567     2442.00000
    66.1698     2345.00000
    66.1829     2382.00000
    66.1961     2420.00000
    66.2092     2367.00000
    66.2223     2401.00000
    66.2355     2436.00000
    66.2486     2391.00000
    66.2617     2390.00000
    66.2749     2358.00000
    66.2880     2407.00000
    66.3011     2409.00000
    66.3142     2400.00000
    66.3274     2389.00000
    66.3405     2454.00000
    66.3536     2387.00000
    66.3668     2354.00000
    66.3799     2424.00000
    66.3930     2317.00000
    66.4062     2480.00000
    66.4193     2504.00000
    66.4324     2561.00000
    66.4455     2518.00000
    66.4587     2487.00000
    66.4718     2562.00000
    66.4849     2521.00000
    66.4981     2524.00000
    66.5112     2394.00000
    66.5243     2460.00000
    66.5375     2399.00000
    66.5506     2448.00000
    66.5637     2391.00000
    66.5769     2460.00000
    66.5900     2408.00000
    66.6031     2419.00000
    66.6162     2423.00000
    66.6294     2459.00000
    66.6425     2456.00000
    66.6556     2477.00000
    66.6688     2563.00000
    66.6819     2533.00000
    66.6950     2603.00000
    66.7082     2545.00000
    66.7213     2681.00000
    66.7344     2504.00000
    66.7476     2471.00000
    66.7607     2470.00000
    66.7738     2435.00000
    66.7869     2404.00000
    66.8001     2420.00000
    66.8132     2370.00000
    66.8263     2484.00000
    66.8395     2395.00000
    66.8526     2515.00000
    66.8657     2433.00000
    66.8789     2453.00000
    66.8920     2498.00000
    66.9051     2417.00000
    66.9182     2460.00000
    66.9314     2502.00000
    66.9445     2420.00000
    66.9576     2413.00000
    66.9708     2456.00000
    66.9839     2333.00000
    66.9970     2360.00000
    67.0102     2410.00000
    67.0233     2346.00000
    67.0364     2371.00000
    67.0495     2460.00000
    67.0627     2389.00000
    67.0758     2298.00000
    67.0889     2408.00000
    67.1021     2367.00000
    67.1152     2375.00000
    67.1283     2317.00000
    67.1415     2370.00000
    67.1546     2322.00000
    67.1677     2289.00000
    67.1808     2381.00000
    67.1940     2330.00000
    67.2071     2313.00000
    67.2202     2323.00000
    67.2334     2428.00000
    67.2465     2408.00000
    67.2596     2297.00000
    67.2728     2410.00000
    67.2859     2415.00000
    67.2990     2382.00000
    67.3121     2402.00000
    67.3253     2437.00000
    67.3384     2287.00000
    67.3515     2395.00000
    67.3647     2351.00000
    67.3778     2459.00000
    67.3909     2393.00000
    67.4041     2356.00000
    67.4172     2362.00000
    67.4303     2353.00000
    67.4435     2360.00000
    67.4566     2391.00000
    67.4697     2478.00000
    67.4828     2384.00000
    67.4960     2332.00000
    67.5091     2399.00000
    67.5222     2423.00000
    67.5354     2365.00000
    67.5485     2464.00000
    67.5616     2462.00000
    67.5748     2396.00000
    67.5879     2349.00000
    67.6010     2442.00000
    67.6142     2402.00000
    67.6273     2379.00000
    67.6404     2395.00000
    67.6535     2438.00000
    67.6667     2368.00000
    67.6798     2458.00000
    67.6929     2455.00000
    67.7061     2513.00000
    67.7192     2475.00000
    67.7323     2367.00000
    67.7455     2340.00000
    67.7586     2404.00000
    67.7717     2294.00000
    67.7848     2475.00000
    67.7980     2398.00000
    67.8111     2412.00000
    67.8242     2402.00000
    67.8374     2430.00000
    67.8505     2463.00000
    67.8636     2417.00000
    67.8768     2480.00000
    67.8899     2516.00000
    67.9030     2476.00000
    67.9161     2501.00000
    67.9293     2598.00000
    67.9424     2571.00000
    67.9555     2667.00000
    67.9687     2878.00000
    67.9818     2999.00000
    67.9949     3216.00000
    68.0081     3336.00000
    68.0212     3573.00000
    68.0343     3627.00000
    68.0474     3622.00000
    68.0606     3559.00000
    68.0737     3260.00000
    68.0868     3072.00000
    68.1000     2954.00000
    68.1131     2773.00000
    68.1262     2724.00000
    68.1394     2747.00000
    68.1525     2741.00000
    68.1656     2746.00000
    68.1787     2996.00000
    68.1919     3148.00000
    68.2050     3366.00000
    68.2181     3385.00000
    68.2313     3550.00000
    68.2444     3574.00000
    68.2575     3462.00000
    68.2707     3172.00000
    68.2838     3135.00000
    68.2969     3039.00000
    68.3101     2845.00000
    68.3232     2834.00000
    68.3363     2833.00000
    68.3494     2756.00000
    68.3626     2781.00000
    68.3757     2809.00000
    68.3888     2721.00000
    68.4020     2625.00000
    68.4151     2709.00000
    68.4282     2763.00000
    68.4414     2789.00000
    68.4545     2848.00000
    68.4676     2911.00000
    68.4807     2829.00000
    68.4939     2809.00000
    68.5070     2916.00000
    68.5201     3126.00000
    68.5333     3323.00000
    68.5464     3609.00000
    68.5595     3984.00000
    68.5727     4562.00000
    68.5858     5042.00000
    68.5989     5298.00000
    68.6120     5199.00000
    68.6252     4792.00000
    68.6383     4165.00000
    68.6514     3682.00000
    68.6646     3426.00000
    68.6777     3045.00000
    68.6908     2915.00000
    68.7040     2886.00000
    68.7171     2802.00000
    68.7302     2854.00000
    68.7434     3158.00000
    68.7565     3300.00000
    68.7696     3591.00000
    68.7827     3746.00000
    68.7959     3762.00000
    68.8090     3844.00000
    68.8221     3469.00000
    68.8353     3426.00000
    68.8484     2958.00000
    68.8615     2794.00000
    68.8747     2795.00000
    68.8878     2577.00000
    68.9009     2603.00000
    68.9140     2570.00000
    68.9272     2552.00000
    68.9403     2630.00000
    68.9534     2546.00000
    68.9666     2583.00000
    68.9797     2487.00000
    68.9928     2480.00000
    69.0060     2550.00000
    69.0191     2396.00000
    69.0322     2464.00000
    69.0453     2566.00000
    69.0585     2513.00000
    69.0716     2555.00000
    69.0847     2506.00000
    69.0979     2515.00000
    69.1110     2543.00000
    69.1241     2636.00000
    69.1373     2683.00000
    69.1504     2732.00000
    69.1635     2827.00000
    69.1767     2909.00000
    69.1898     3093.00000
    69.2029     3214.00000
    69.2160     3653.00000
    69.2292     3900.00000
    69.2423     3918.00000
    69.2554     3794.00000
    69.2686     3644.00000
    69.2817     3310.00000
    69.2948     3085.00000
    69.3080     3139.00000
    69.3211     3052.00000
    69.3342     3165.00000
    69.3473     3097.00000
    69.3605     3256.00000
    69.3736     3471.00000
    69.3867     3735.00000
    69.3999     4005.00000
    69.4130     4159.00000
    69.4261     4251.00000
    69.4393     4219.00000
    69.4524     4193.00000
    69.4655     4151.00000
    69.4786     3842.00000
    69.4918     3651.00000
    69.5049     3460.00000
    69.5180     3345.00000
    69.5312     3186.00000
    69.5443     3205.00000
    69.5574     3137.00000
    69.5706     3162.00000
    69.5837     3198.00000
    69.5968     3221.00000
    69.6099     3361.00000
    69.6231     3225.00000
    69.6362     3289.00000
    69.6493     3256.00000
    69.6625     3288.00000
    69.6756     3292.00000
    69.6887     3395.00000
    69.7019     3363.00000
    69.7150     3395.00000
    69.7281     3616.00000
    69.7413     3736.00000
    69.7544     3795.00000
    69.7675     3875.00000
    69.7806     4107.00000
    69.7938     4412.00000
    69.8069     4802.00000
    69.8200     5097.00000
    69.8332     5700.00000
    69.8463     6242.00000
    69.8594     6795.00000
    69.8726     6852.00000
    69.8857     6740.00000
    69.8988     6267.00000
    69.9119     5759.00000
    69.9251     5233.00000
    69.9382     5065.00000
    69.9513     4750.00000
    69.9645     4754.00000
    69.9776     4577.00000
    69.9907     4729.00000
    70.0039     5069.00000
    70.0170     5389.00000
    70.0301     5516.00000
    70.0433     5652.00000
    70.0564     5763.00000
    70.0695     5601.00000
    70.0826     5460.00000
    70.0958     5021.00000
    70.1089     4663.00000
    70.1220     4379.00000
    70.1352     4089.00000
    70.1483     3864.00000
    70.1614     3915.00000
    70.1746     3765.00000
    70.1877     3853.00000
    70.2008     3975.00000
    70.2139     3955.00000
    70.2271     3827.00000
    70.2402     3683.00000
    70.2533     3488.00000
    70.2665     3438.00000
    70.2796     3224.00000
    70.2927     3241.00000
    70.3059     2993.00000
    70.3190     2971.00000
    70.3321     3018.00000
    70.3452     3066.00000
    70.3584     3195.00000
    70.3715     3281.00000
    70.3846     3371.00000
    70.3978     3717.00000
    70.4109     3951.00000
    70.4240     4341.00000
    70.4372     4623.00000
    70.4503     4932.00000
    70.4634     5120.00000
    70.4765     5115.00000
    70.4897     4763.00000
    70.5028     4484.00000
    70.5159     3988.00000
    70.5291     3909.00000
    70.5422     3690.00000
    70.5553     3596.00000
    70.5685     3474.00000
    70.5816     3422.00000
    70.5947     3470.00000
    70.6078     3414.00000
    70.6210     3620.00000
    70.6341     3695.00000
    70.6472     3775.00000
    70.6604     3971.00000
    70.6735     3851.00000
    70.6866     3841.00000
    70.6998     3591.00000
    70.7129     3526.00000
    70.7260     3458.00000
    70.7392     3234.00000
    70.7523     3171.00000
    70.7654     3189.00000
    70.7785     3220.00000
    70.7917     3245.00000
    70.8048     3451.00000
    70.8179     3510.00000
    70.8311     3641.00000
    70.8442     3735.00000
    70.8573     3961.00000
    70.8705     4105.00000
    70.8836     4241.00000
    70.8967     4322.00000
    70.9099     4315.00000
    70.9230     4304.00000
    70.9361     4216.00000
    70.9492     4192.00000
    70.9624     4040.00000
    70.9755     3915.00000
    70.9886     3753.00000
    71.0018     3671.00000
    71.0149     3511.00000
    71.0280     3462.00000
    71.0412     3428.00000
    71.0543     3409.00000
    71.0674     3529.00000
    71.0805     3719.00000
    71.0937     3720.00000
    71.1068     3815.00000
    71.1199     3971.00000
    71.1331     4184.00000
    71.1462     4591.00000
    71.1593     4960.00000
    71.1725     5624.00000
    71.1856     5949.00000
    71.1987     5767.00000
    71.2118     5199.00000
    71.2250     4341.00000
    71.2381     3917.00000
    71.2512     3561.00000
    71.2644     3379.00000
    71.2775     3069.00000
    71.2906     2991.00000
    71.3038     2918.00000
    71.3169     2997.00000
    71.3300     3041.00000
    71.3431     3187.00000
    71.3563     3390.00000
    71.3694     3583.00000
    71.3825     3932.00000
    71.3957     3978.00000
    71.4088     3714.00000
    71.4219     3550.00000
    71.4351     3295.00000
    71.4482     3207.00000
    71.4613     2966.00000
    71.4744     2841.00000
    71.4876     2825.00000
    71.5007     2769.00000
    71.5138     2723.00000
    71.5270     2831.00000
    71.5401     2832.00000
    71.5532     2821.00000
    71.5664     2922.00000
    71.5795     2975.00000
    71.5926     3099.00000
    71.6058     3288.00000
    71.6189     3739.00000
    71.6320     3856.00000
    71.6451     4105.00000
    71.6583     4243.00000
    71.6714     4070.00000
    71.6845     3873.00000
    71.6977     3630.00000
    71.7108     3388.00000
    71.7239     3334.00000
    71.7371     3279.00000
    71.7502     3270.00000
    71.7633     3433.00000
    71.7764     3417.00000
    71.7896     3622.00000
    71.8027     3597.00000
    71.8158     3845.00000
    71.8290     4031.00000
    71.8421     4207.00000
    71.8552     4144.00000
    71.8684     4352.00000
    71.8815     4257.00000
    71.8946     3967.00000
    71.9078     3782.00000
    71.9209     3653.00000
    71.9340     3383.00000
    71.9471     3122.00000
    71.9603     3112.00000
    71.9734     3025.00000
    71.9865     3014.00000
    71.9997     2990.00000
    72.0128     3140.00000
    72.0259     2898.00000
    72.0391     2956.00000
    72.0522     3029.00000
    72.0653     3030.00000
    72.0784     3032.00000
    72.0916     2965.00000
    72.1047     2935.00000
    72.1178     2930.00000
    72.1310     2903.00000
    72.1441     2769.00000
    72.1572     2731.00000
    72.1704     2625.00000
    72.1835     2594.00000
    72.1966     2691.00000
    72.2097     2557.00000
    72.2229     2505.00000
    72.2360     2521.00000
    72.2491     2492.00000
    72.2623     2560.00000
    72.2754     2528.00000
    72.2885     2427.00000
    72.3017     2460.00000
    72.3148     2449.00000
    72.3279     2449.00000
    72.3410     2522.00000
    72.3542     2467.00000
    72.3673     2559.00000
    72.3804     2591.00000
    72.3936     2639.00000
    72.4067     2506.00000
    72.4198     2512.00000
    72.4330     2562.00000
    72.4461     2609.00000
    72.4592     2571.00000
    72.4724     2675.00000
    72.4855     2779.00000
    72.4986     2850.00000
    72.5117     2919.00000
    72.5249     3092.00000
    72.5380     3256.00000
    72.5511     3481.00000
    72.5643     3745.00000
    72.5774     3911.00000
    72.5905     4225.00000
    72.6037     4244.00000
    72.6168     4189.00000
    72.6299     3977.00000
    72.6430     3829.00000
    72.6562     3410.00000
    72.6693     3214.00000
    72.6824     3115.00000
    72.6956     2984.00000
    72.7087     2866.00000
    72.7218     2922.00000
    72.7350     2934.00000
    72.7481     3019.00000
    72.7612     3042.00000
    72.7743     3097.00000
    72.7875     3290.00000
    72.8006     3348.00000
    72.8137     3422.00000
    72.8269     3445.00000
    72.8400     3297.00000
    72.8531     3105.00000
    72.8663     3017.00000
    72.8794     2880.00000
    72.8925     2813.00000
    72.9057     2755.00000
    72.9188     2660.00000
    72.9319     2649.00000
    72.9450     2665.00000
    72.9582     2592.00000
    72.9713     2662.00000
    72.9844     2788.00000
    72.9976     2840.00000
    73.0107     2823.00000
    73.0238     2879.00000
    73.0370     3143.00000
    73.0501     3503.00000
    73.0632     3598.00000
    73.0763     3748.00000
    73.0895     4137.00000
    73.1026     4373.00000
    73.1157     4317.00000
    73.1289     4342.00000
    73.1420     4120.00000
    73.1551     4074.00000
    73.1683     3801.00000
    73.1814     3619.00000
    73.1945     3344.00000
    73.2076     3211.00000
    73.2208     3162.00000
    73.2339     3013.00000
    73.2470     3092.00000
    73.2602     3127.00000
    73.2733     3200.00000
    73.2864     3460.00000
    73.2996     3440.00000
    73.3127     3543.00000
    73.3258     3499.00000
    73.3390     3625.00000
    73.3521     3590.00000
    73.3652     3690.00000
    73.3783     3731.00000
    73.3915     3770.00000
    73.4046     3827.00000
    73.4177     3793.00000
    73.4309     4040.00000
    73.4440     3939.00000
    73.4571     4123.00000
    73.4703     4080.00000
    73.4834     3895.00000
    73.4965     3664.00000
    73.5096     3642.00000
    73.5228     3455.00000
    73.5359     3421.00000
    73.5490     3421.00000
    73.5622     3479.00000
    73.5753     3399.00000
    73.5884     3499.00000
    73.6016     3531.00000
    73.6147     3454.00000
    73.6278     3339.00000
    73.6409     3481.00000
    73.6541     3425.00000
    73.6672     3227.00000
    73.6803     3264.00000
    73.6935     3394.00000
    73.7066     3244.00000
    73.7197     3103.00000
    73.7329     3030.00000
    73.7460     3107.00000
    73.7591     3012.00000
    73.7722     3038.00000
    73.7854     2973.00000
    73.7985     3161.00000
    73.8116     3088.00000
    73.8248     3099.00000
    73.8379     3147.00000
    73.8510     3395.00000
    73.8642     3442.00000
    73.8773     3665.00000
    73.8904     4008.00000
    73.9035     4496.00000
    73.9167     4949.00000
    73.9298     5193.00000
    73.9429     5392.00000
    73.9561     5413.00000
    73.9692     5260.00000
    73.9823     5219.00000
    73.9955     5370.00000
    74.0086     5368.00000
    74.0217     5456.00000
    74.0349     5286.00000
    74.0480     4658.00000
    74.0611     4395.00000
    74.0742     4015.00000
    74.0874     3702.00000
    74.1005     3704.00000
    74.1136     3759.00000
    74.1268     3876.00000
    74.1399     3897.00000
    74.1530     3999.00000
    74.1662     4134.00000
    74.1793     4084.00000
    74.1924     4043.00000
    74.2056     3879.00000
    74.2187     3808.00000
    74.2318     4012.00000
    74.2449     3735.00000
    74.2581     3612.00000
    74.2712     3354.00000
    74.2843     3131.00000
    74.2975     2963.00000
    74.3106     2810.00000
    74.3237     2737.00000
    74.3369     2708.00000
    74.3500     2554.00000
    74.3631     2637.00000
    74.3762     2443.00000
    74.3894     2414.00000
    74.4025     2433.00000
    74.4156     2461.00000
    74.4288     2456.00000
    74.4419     2517.00000
    74.4550     2465.00000
    74.4682     2377.00000
    74.4813     2355.00000
    74.4944     2440.00000
    74.5075     2467.00000
    74.5207     2365.00000
    74.5338     2414.00000
    74.5469     2386.00000
    74.5601     2333.00000
    74.5732     2464.00000
    74.5863     2423.00000
    74.5995     2396.00000
    74.6126     2376.00000
    74.6257     2371.00000
    74.6388     2375.00000
    74.6520     2469.00000
    74.6651     2397.00000
    74.6782     2436.00000
    74.6914     2353.00000
    74.7045     2367.00000
    74.7176     2384.00000
    74.7308     2406.00000
    74.7439     2368.00000
    74.7570     2458.00000
    74.7701     2448.00000
    74.7833     2413.00000
    74.7964     2476.00000
    74.8095     2387.00000
    74.8227     2362.00000
    74.8358     2369.00000
    74.8489     2358.00000
    74.8621     2376.00000
    74.8752     2379.00000
    74.8883     2322.00000
    74.9015     2479.00000
    74.9146     2329.00000
    74.9277     2437.00000
    74.9408     2263.00000
    74.9540     2369.00000
    74.9671     2451.00000
    74.9802     2425.00000
    74.9934     2391.00000
    75.0065     2394.00000
    75.0196     2315.00000
    75.0328     2379.00000
    75.0459     2354.00000
    75.0590     2427.00000
    75.0722     2309.00000
    75.0853     2355.00000
    75.0984     2431.00000
    75.1115     2301.00000
    75.1247     2412.00000
    75.1378     2375.00000
    75.1509     2386.00000
    75.1641     2359.00000
    75.1772     2394.00000
    75.1903     2327.00000
    75.2035     2422.00000
    75.2166     2285.00000
    75.2297     2451.00000
    75.2428     2416.00000
    75.2560     2347.00000
    75.2691     2415.00000
    75.2822     2419.00000
    75.2954     2413.00000
    75.3085     2404.00000
    75.3216     2475.00000
    75.3348     2472.00000
    75.3479     2332.00000
    75.3610     2365.00000
    75.3741     2392.00000
    75.3873     2441.00000
    75.4004     2435.00000
    75.4135     2464.00000
    75.4267     2378.00000
    75.4398     2466.00000
    75.4529     2419.00000
    75.4661     2452.00000
    75.4792     2417.00000
    75.4923     2494.00000
    75.5054     2426.00000
    75.5186     2585.00000
    75.5317     2523.00000
    75.5448     2455.00000
    75.5580     2503.00000
    75.5711     2499.00000
    75.5842     2411.00000
    75.5974     2561.00000
    75.6105     2525.00000
    75.6236     2458.00000
    75.6367     2512.00000
    75.6499     2598.00000
    75.6630     2563.00000
    75.6761     2525.00000
    75.6893     2459.00000
    75.7024     2463.00000
    75.7155     2542.00000
    75.7287     2501.00000
    75.7418     2526.00000
    75.7549     2459.00000
    75.7681     2506.00000
    75.7812     2474.00000
    75.7943     2480.00000
    75.8074     2450.00000
    75.8206     2408.00000
    75.8337     2530.00000
    75.8468     2420.00000
    75.8600     2573.00000
    75.8731     2439.00000
    75.8862     2587.00000
    75.8994     2489.00000
    75.9125     2622.00000
    75.9256     2587.00000
    75.9387     2497.00000
    75.9519     2595.00000
    75.9650     2676.00000
    75.9781     2708.00000
    75.9913     2748.00000
    76.0044     2766.00000
    76.0175     2850.00000
    76.0307     2751.00000
    76.0438     2919.00000
    76.0569     2856.00000
    76.0701     2795.00000
    76.0832     2911.00000
    76.0963     2984.00000
    76.1094     3040.00000
    76.1226     3086.00000
    76.1357     2934.00000
    76.1488     3051.00000
    76.1620     2977.00000
    76.1751     3154.00000
    76.1882     3127.00000
    76.2014     3383.00000
    76.2145     3507.00000
    76.2276     3672.00000
    76.2407     3924.00000
    76.2539     4201.00000
    76.2670     4516.00000
    76.2801     4611.00000
    76.2933     4845.00000
    76.3064     4944.00000
    76.3195     4871.00000
    76.3327     4519.00000
    76.3458     4349.00000
    76.3589     3977.00000
    76.3720     3744.00000
    76.3852     3524.00000
    76.3983     3237.00000
    76.4114     3251.00000
    76.4246     3175.00000
    76.4377     3078.00000
    76.4508     3202.00000
    76.4640     3200.00000
    76.4771     3390.00000
    76.4902     3395.00000
    76.5033     3454.00000
    76.5165     3500.00000
    76.5296     3632.00000
    76.5427     3541.00000
    76.5559     3408.00000
    76.5690     3372.00000
    76.5821     3234.00000
    76.5953     3184.00000
    76.6084     2991.00000
    76.6215     2875.00000
    76.6347     2647.00000
    76.6478     2569.00000
    76.6609     2637.00000
    76.6740     2554.00000
    76.6872     2616.00000
    76.7003     2558.00000
    76.7134     2619.00000
    76.7266     2631.00000
    76.7397     2692.00000
    76.7528     2679.00000
    76.7660     2619.00000
    76.7791     2693.00000
    76.7922     2676.00000
    76.8053     2695.00000
    76.8185     2813.00000
    76.8316     2896.00000
    76.8447     2974.00000
    76.8579     3101.00000
    76.8710     3248.00000
    76.8841     3491.00000
    76.8973     3599.00000
    76.9104     3791.00000
    76.9235     4116.00000
    76.9366     4178.00000
    76.9498     4228.00000
    76.9629     4411.00000
    76.9760     4418.00000
    76.9892     4388.00000
    77.0023     4265.00000
    77.0154     4151.00000
    77.0286     3824.00000
    77.0417     3711.00000
    77.0548     3406.00000
    77.0679     3253.00000
    77.0811     3117.00000
    77.0942     3166.00000
    77.1073     3001.00000
    77.1205     3104.00000
    77.1336     3180.00000
    77.1467     3268.00000
    77.1599     3356.00000
    77.1730     3517.00000
    77.1861     3439.00000
    77.1993     3455.00000
    77.2124     3346.00000
    77.2255     3343.00000
    77.2386     3201.00000
    77.2518     3205.00000
    77.2649     2994.00000
    77.2780     2990.00000
    77.2912     2830.00000
    77.3043     2720.00000
    77.3174     2609.00000
    77.3306     2568.00000
    77.3437     2540.00000
    77.3568     2641.00000
    77.3699     2550.00000
    77.3831     2539.00000
    77.3962     2541.00000
    77.4093     2569.00000
    77.4225     2486.00000
    77.4356     2570.00000
    77.4487     2567.00000
    77.4619     2596.00000
    77.4750     2600.00000
    77.4881     2766.00000
    77.5013     2761.00000
    77.5144     2799.00000
    77.5275     2993.00000
    77.5406     3092.00000
    77.5538     3147.00000
    77.5669     3247.00000
    77.5800     3145.00000
    77.5932     3189.00000
    77.6063     3004.00000
    77.6194     2870.00000
    77.6326     2779.00000
    77.6457     2685.00000
    77.6588     2728.00000
    77.6719     2578.00000
    77.6851     2565.00000
    77.6982     2580.00000
    77.7113     2515.00000
    77.7245     2605.00000
    77.7376     2568.00000
    77.7507     2653.00000
    77.7639     2680.00000
    77.7770     2857.00000
    77.7901     2803.00000
    77.8032     2860.00000
    77.8164     2786.00000
    77.8295     2830.00000
    77.8426     2597.00000
    77.8558     2654.00000
    77.8689     2610.00000
    77.8820     2502.00000
    77.8952     2568.00000
    77.9083     2502.00000
    77.9214     2544.00000
    77.9345     2589.00000
    77.9477     2723.00000
    77.9608     2568.00000
    77.9739     2643.00000
    77.9871     2842.00000
    78.0002     2847.00000
    78.0133     2879.00000
    78.0265     2988.00000
    78.0396     2906.00000
    78.0527     2899.00000
    78.0658     2860.00000
    78.0790     2661.00000
    78.0921     2706.00000
    78.1052     2743.00000
    78.1184     2613.00000
    78.1315     2594.00000
    78.1446     2571.00000
    78.1578     2579.00000
    78.1709     2557.00000
    78.1840     2560.00000
    78.1972     2697.00000
    78.2103     2767.00000
    78.2234     2777.00000
    78.2365     2750.00000
    78.2497     2902.00000
    78.2628     2998.00000
    78.2759     3071.00000
    78.2891     3254.00000
    78.3022     3232.00000
    78.3153     3286.00000
    78.3285     3383.00000
    78.3416     3304.00000
    78.3547     3292.00000
    78.3679     3378.00000
    78.3810     3450.00000
    78.3941     3505.00000
    78.4072     3383.00000
    78.4204     3433.00000
    78.4335     3480.00000
    78.4466     3472.00000
    78.4598     3511.00000
    78.4729     3360.00000
    78.4860     3074.00000
    78.4992     3132.00000
    78.5123     3120.00000
    78.5254     3147.00000
    78.5385     3146.00000
    78.5517     3244.00000
    78.5648     3167.00000
    78.5779     3182.00000
    78.5911     3325.00000
    78.6042     3346.00000
    78.6173     3380.00000
    78.6305     3567.00000
    78.6436     3699.00000
    78.6567     3699.00000
    78.6698     3840.00000
    78.6830     3974.00000
    78.6961     4069.00000
    78.7092     4332.00000
    78.7224     4426.00000
    78.7355     4467.00000
    78.7486     4346.00000
    78.7618     4036.00000
    78.7749     3888.00000
    78.7880     3903.00000
    78.8011     3693.00000
    78.8143     3723.00000
    78.8274     3747.00000
    78.8405     3792.00000
    78.8537     3854.00000
    78.8668     3894.00000
    78.8799     4069.00000
    78.8931     4073.00000
    78.9062     4036.00000
    78.9193     4069.00000
    78.9324     4199.00000
    78.9456     4293.00000
    78.9587     4137.00000
    78.9718     4096.00000
    78.9850     4059.00000
    78.9981     3818.00000
    79.0112     3660.00000
    79.0244     3325.00000
    79.0375     3314.00000
    79.0506     3300.00000
    79.0638     3177.00000
    79.0769     3140.00000
    79.0900     3332.00000
    79.1031     3089.00000
    79.1163     3177.00000
    79.1294     3128.00000
    79.1425     3212.00000
    79.1557     3162.00000
    79.1688     3141.00000
    79.1819     3061.00000
    79.1951     3088.00000
    79.2082     3028.00000
    79.2213     2878.00000
    79.2345     2871.00000
    79.2476     2928.00000
    79.2607     2851.00000
    79.2738     2952.00000
    79.2870     2984.00000
    79.3001     2988.00000
    79.3132     3072.00000
    79.3264     3133.00000
    79.3395     3382.00000
    79.3526     3563.00000
    79.3658     3730.00000
    79.3789     3944.00000
    79.3920     4182.00000
    79.4051     4050.00000
    79.4183     4209.00000
    79.4314     3922.00000
    79.4445     3638.00000
    79.4577     3558.00000
    79.4708     3266.00000
    79.4839     3248.00000
    79.4971     3146.00000
    79.5102     2994.00000
    79.5233     2975.00000
    79.5364     2962.00000
    79.5496     3124.00000
    79.5627     3069.00000
    79.5758     3102.00000
    79.5890     3236.00000
    79.6021     3437.00000
    79.6152     3559.00000
    79.6284     3624.00000
    79.6415     3703.00000
    79.6546     3475.00000
    79.6677     3626.00000
    79.6809     3446.00000
    79.6940     3131.00000
    79.7071     3045.00000
    79.7203     2996.00000
    79.7334     2950.00000
    79.7465     2880.00000
    79.7597     2748.00000
    79.7728     2762.00000
    79.7859     2760.00000
    79.7990     2730.00000
    79.8122     2810.00000
    79.8253     2702.00000
    79.8384     2803.00000
    79.8516     2838.00000
    79.8647     2817.00000
    79.8778     2939.00000
    79.8910     2833.00000
    79.9041     2915.00000
    79.9172     2853.00000
    79.9304     3026.00000
    79.9435     3033.00000
    79.9566     3006.00000
    79.9697     3136.00000
    79.9829     3130.00000
    79.9960     3253.00000
    80.0091     3342.00000
    80.0223     3565.00000
    80.0354     3631.00000
    80.0485     3823.00000
    80.0617     4029.00000
    80.0748     4206.00000
    80.0879     4522.00000
    80.1010     4695.00000
    80.1142     4683.00000
    80.1273     4695.00000
    80.1404     4870.00000
    80.1536     4534.00000
    80.1667     4650.00000
    80.1798     4557.00000
    80.1930     4264.00000
    80.2061     4256.00000
    80.2192     4333.00000
    80.2323     4313.00000
    80.2455     4689.00000
    80.2586     4662.00000
    80.2717     5098.00000
    80.2849     5359.00000
    80.2980     5592.00000
    80.3111     6144.00000
    80.3243     6501.00000
    80.3374     6808.00000
    80.3505     6731.00000
    80.3637     6756.00000
    80.3768     6644.00000
    80.3899     6476.00000
    80.4030     6319.00000
    80.4162     5919.00000
    80.4293     5419.00000
    80.4424     5045.00000
    80.4556     4651.00000
    80.4687     4405.00000
    80.4818     4388.00000
    80.4950     4266.00000
    80.5081     4448.00000
    80.5212     4526.00000
    80.5343     4678.00000
    80.5475     5135.00000
    80.5606     5289.00000
    80.5737     5535.00000
    80.5869     5653.00000
    80.6000     5557.00000
    80.6131     5337.00000
    80.6263     5000.00000
    80.6394     4753.00000
    80.6525     4421.00000
    80.6656     4265.00000
    80.6788     4004.00000
    80.6919     3794.00000
    80.7050     3597.00000
    80.7182     3503.00000
    80.7313     3510.00000
    80.7444     3473.00000
    80.7576     3456.00000
    80.7707     3633.00000
    80.7838     3804.00000
    80.7970     3851.00000
    80.8101     4095.00000
    80.8232     4164.00000
    80.8363     4095.00000
    80.8495     3990.00000
    80.8626     3754.00000
    80.8757     3549.00000
    80.8889     3572.00000
    80.9020     3382.00000
    80.9151     3304.00000
    80.9283     3274.00000
    80.9414     3089.00000
    80.9545     3281.00000
    80.9676     3298.00000
    80.9808     3421.00000
    80.9939     3313.00000
    81.0070     3527.00000
    81.0202     3518.00000
    81.0333     3596.00000
    81.0464     3537.00000
    81.0596     3679.00000
    81.0727     3673.00000
    81.0858     3643.00000
    81.0989     3719.00000
    81.1121     3612.00000
    81.1252     3562.00000
    81.1383     3393.00000
    81.1515     3410.00000
    81.1646     3487.00000
    81.1777     3344.00000
    81.1909     3205.00000
    81.2040     3123.00000
    81.2171     3106.00000
    81.2302     2985.00000
    81.2434     2950.00000
    81.2565     2930.00000
    81.2696     2898.00000
    81.2828     2911.00000
    81.2959     2866.00000
    81.3090     2930.00000
    81.3222     2908.00000
    81.3353     2871.00000
    81.3484     2887.00000
    81.3616     2929.00000
    81.3747     2863.00000
    81.3878     2784.00000
    81.4009     2876.00000
    81.4141     2950.00000
    81.4272     2747.00000
    81.4403     2611.00000
    81.4535     2710.00000
    81.4666     2612.00000
    81.4797     2546.00000
    81.4929     2643.00000
    81.5060     2531.00000
    81.5191     2613.00000
    81.5322     2507.00000
    81.5454     2520.00000
    81.5585     2511.00000
    81.5716     2450.00000
    81.5848     2574.00000
    81.5979     2425.00000
    81.6110     2508.00000
    81.6242     2462.00000
    81.6373     2535.00000
    81.6504     2540.00000
    81.6636     2576.00000
    81.6767     2568.00000
    81.6898     2517.00000
    81.7029     2492.00000
    81.7161     2550.00000
    81.7292     2579.00000
    81.7423     2618.00000
    81.7555     2548.00000
    81.7686     2557.00000
    81.7817     2528.00000
    81.7949     2589.00000
    81.8080     2701.00000
    81.8211     2621.00000
    81.8342     2739.00000
    81.8474     2729.00000
    81.8605     2742.00000
    81.8736     2779.00000
    81.8868     2850.00000
    81.8999     2983.00000
    81.9130     3059.00000
    81.9262     3071.00000
    81.9393     3386.00000
    81.9524     3482.00000
    81.9655     3663.00000
    81.9787     3664.00000
    81.9918     3686.00000
    82.0049     3787.00000
    82.0181     3923.00000
    82.0312     3867.00000
    82.0443     3861.00000
    82.0575     3771.00000
    82.0706     3592.00000
    82.0837     3568.00000
    82.0968     3413.00000
    82.1100     3381.00000
    82.1231     3376.00000
    82.1362     3342.00000
    82.1494     3460.00000
    82.1625     3424.00000
    82.1756     3352.00000
    82.1888     3412.00000
    82.2019     3413.00000
    82.2150     3431.00000
    82.2281     3338.00000
    82.2413     3329.00000
    82.2544     3209.00000
    82.2675     3325.00000
    82.2807     3250.00000
    82.2938     3257.00000
    82.3069     3075.00000
    82.3201     3052.00000
    82.3332     3025.00000
    82.3463     2932.00000
    82.3595     2941.00000
    82.3726     2904.00000
    82.3857     2901.00000
    82.3988     2811.00000
    82.4120     2855.00000
    82.4251     3016.00000
    82.4382     2792.00000
    82.4514     2900.00000
    82.4645     3045.00000
    82.4776     3024.00000
    82.4908     3164.00000
    82.5039     3400.00000
    82.5170     3690.00000
    82.5302     3877.00000
    82.5433     3715.00000
    82.5564     3555.00000
    82.5695     3371.00000
    82.5827     3208.00000
    82.5958     3109.00000
    82.6089     2940.00000
    82.6221     2785.00000
    82.6352     2770.00000
    82.6483     2605.00000
    82.6615     2752.00000
    82.6746     2655.00000
    82.6877     2672.00000
    82.7008     2691.00000
    82.7140     2710.00000
    82.7271     2787.00000
    82.7402     2882.00000
    82.7534     2874.00000
    82.7665     2953.00000
    82.7796     3092.00000
    82.7928     3082.00000
    82.8059     2907.00000
    82.8190     2897.00000
    82.8321     2739.00000
    82.8453     2696.00000
    82.8584     2572.00000
    82.8715     2620.00000
    82.8847     2541.00000
    82.8978     2555.00000
    82.9109     2523.00000
    82.9241     2443.00000
    82.9372     2493.00000
    82.9503     2466.00000
    82.9634     2570.00000
    82.9766     2479.00000
    82.9897     2403.00000
    83.0028     2430.00000
    83.0160     2640.00000
    83.0291     2522.00000
    83.0422     2441.00000
    83.0554     2435.00000
    83.0685     2417.00000
    83.0816     2384.00000
    83.0947     2462.00000
    83.1079     2452.00000
    83.1210     2395.00000
    83.1341     2537.00000
    83.1473     2451.00000
    83.1604     2534.00000
    83.1735     2406.00000
    83.1867     2508.00000
    83.1998     2545.00000
    83.2129     2483.00000
    83.2261     2682.00000
    83.2392     2596.00000
    83.2523     2666.00000
    83.2654     2611.00000
    83.2786     2669.00000
    83.2917     2685.00000
    83.3048     2616.00000
    83.3180     2622.00000
    83.3311     2687.00000
    83.3442     2707.00000
    83.3574     2638.00000
    83.3705     2728.00000
    83.3836     2657.00000
    83.3967     2716.00000
    83.4099     2744.00000
    83.4230     2634.00000
    83.4361     2709.00000
    83.4493     2679.00000
    83.4624     2745.00000
    83.4755     2737.00000
    83.4887     2741.00000
    83.5018     2719.00000
    83.5149     2823.00000
    83.5281     2915.00000
    83.5412     2907.00000
    83.5543     2990.00000
    83.5674     3116.00000
    83.5806     3339.00000
    83.5937     3472.00000
    83.6068     3441.00000
    83.6200     3365.00000
    83.6331     3294.00000
    83.6462     3259.00000
    83.6594     3196.00000
    83.6725     2898.00000
    83.6856     2919.00000
    83.6987     2733.00000
    83.7119     2633.00000
    83.7250     2587.00000
    83.7381     2623.00000
    83.7513     2614.00000
    83.7644     2564.00000
    83.7775     2501.00000
    83.7907     2652.00000
    83.8038     2692.00000
    83.8169     2693.00000
    83.8300     2801.00000
    83.8432     2860.00000
    83.8563     2761.00000
    83.8694     2798.00000
    83.8826     2833.00000
    83.8957     2811.00000
    83.9088     2659.00000
    83.9220     2665.00000
    83.9351     2602.00000
    83.9482     2521.00000
    83.9613     2564.00000
    83.9745     2438.00000
    83.9876     2494.00000
    84.0007     2371.00000
    84.0139     2390.00000
    84.0270     2461.00000
    84.0401     2307.00000
    84.0533     2498.00000
    84.0664     2381.00000
    84.0795     2446.00000
    84.0927     2413.00000
    84.1058     2416.00000
    84.1189     2372.00000
    84.1320     2388.00000
    84.1452     2423.00000
    84.1583     2450.00000
    84.1714     2432.00000
    84.1846     2479.00000
    84.1977     2497.00000
    84.2108     2404.00000
    84.2240     2359.00000
    84.2371     2411.00000
    84.2502     2444.00000
    84.2633     2418.00000
    84.2765     2474.00000
    84.2896     2454.00000
    84.3027     2476.00000
    84.3159     2400.00000
    84.3290     2458.00000
    84.3421     2485.00000
    84.3553     2451.00000
    84.3684     2459.00000
    84.3815     2468.00000
    84.3946     2523.00000
    84.4078     2548.00000
    84.4209     2646.00000
    84.4340     2575.00000
    84.4472     2572.00000
    84.4603     2530.00000
    84.4734     2532.00000
    84.4866     2527.00000
    84.4997     2434.00000
    84.5128     2537.00000
    84.5260     2472.00000
    84.5391     2432.00000
    84.5522     2466.00000
    84.5653     2534.00000
    84.5785     2330.00000
    84.5916     2428.00000
    84.6047     2349.00000
    84.6179     2453.00000
    84.6310     2390.00000
    84.6441     2500.00000
    84.6573     2473.00000
    84.6704     2483.00000
    84.6835     2488.00000
    84.6966     2403.00000
    84.7098     2463.00000
    84.7229     2452.00000
    84.7360     2544.00000
    84.7492     2517.00000
    84.7623     2367.00000
    84.7754     2466.00000
    84.7886     2446.00000
    84.8017     2514.00000
    84.8148     2526.00000
    84.8279     2548.00000
    84.8411     2546.00000
    84.8542     2465.00000
    84.8673     2453.00000
    84.8805     2390.00000
    84.8936     2435.00000
    84.9067     2479.00000
    84.9199     2421.00000
    84.9330     2353.00000
    84.9461     2434.00000
    84.9593     2420.00000
    84.9724     2433.00000
    84.9855     2442.00000
    84.9986     2413.00000
    85.0118     2432.00000
    85.0249     2394.00000
    85.0380     2540.00000
    85.0512     2471.00000
    85.0643     2506.00000
    85.0774     2551.00000
    85.0906     2506.00000
    85.1037     2484.00000
    85.1168     2505.00000
    85.1299     2575.00000
    85.1431     2614.00000
    85.1562     2678.00000
    85.1693     2547.00000
    85.1825     2752.00000
    85.1956     2792.00000
    85.2087     2772.00000
    85.2219     2854.00000
    85.2350     2917.00000
    85.2481     2891.00000
    85.2612     2906.00000
    85.2744     3016.00000
    85.2875     2956.00000
    85.3006     3016.00000
    85.3138     3065.00000
    85.3269     3181.00000
    85.3400     3110.00000
    85.3532     3143.00000
    85.3663     3101.00000
    85.3794     3104.00000
    85.3925     3000.00000
    85.4057     3027.00000
    85.4188     3084.00000
    85.4319     3119.00000
    85.4451     3321.00000
    85.4582     3241.00000
    85.4713     3439.00000
    85.4845     3618.00000
    85.4976     3738.00000
    85.5107     3921.00000
    85.5238     4037.00000
    85.5370     4156.00000
    85.5501     4150.00000
    85.5632     4274.00000
    85.5764     4245.00000
    85.5895     4308.00000
    85.6026     4264.00000
    85.6158     3984.00000
    85.6289     3877.00000
    85.6420     3745.00000
    85.6552     3607.00000
    85.6683     3474.00000
    85.6814     3489.00000
    85.6945     3345.00000
    85.7077     3371.00000
    85.7208     3346.00000
    85.7339     3290.00000
    85.7471     3407.00000
    85.7602     3317.00000
    85.7733     3390.00000
    85.7865     3492.00000
    85.7996     3514.00000
    85.8127     3278.00000
    85.8259     3322.00000
    85.8390     3246.00000
    85.8521     3280.00000
    85.8652     3193.00000
    85.8784     3196.00000
    85.8915     3049.00000
    85.9046     3041.00000
    85.9178     2857.00000
    85.9309     2825.00000
    85.9440     2789.00000
    85.9572     2733.00000
    85.9703     2726.00000
    85.9834     2610.00000
    85.9965     2663.00000
    86.0097     2711.00000
    86.0228     2693.00000
    86.0359     2648.00000
    86.0491     2624.00000
    86.0622     2457.00000
    86.0753     2475.00000
    86.0885     2622.00000
    86.1016     2444.00000
    86.1147     2469.00000
    86.1278     2543.00000
    86.1410     2472.00000
    86.1541     2415.00000
    86.1672     2516.00000
    86.1804     2531.00000
    86.1935     2513.00000
    86.2066     2499.00000
    86.2198     2566.00000
    86.2329     2596.00000
    86.2460     2513.00000
    86.2591     2526.00000
    86.2723     2649.00000
    86.2854     2793.00000
    86.2985     2829.00000
    86.3117     2838.00000
    86.3248     2913.00000
    86.3379     3028.00000
    86.3511     2992.00000
    86.3642     3031.00000
    86.3773     3106.00000
    86.3904     2990.00000
    86.4036     2882.00000
    86.4167     2850.00000
    86.4298     2778.00000
    86.4430     2696.00000
    86.4561     2685.00000
    86.4692     2620.00000
    86.4824     2630.00000
    86.4955     2559.00000
    86.5086     2649.00000
    86.5218     2523.00000
    86.5349     2590.00000
    86.5480     2640.00000
    86.5611     2605.00000
    86.5743     2668.00000
    86.5874     2731.00000
    86.6005     2767.00000
    86.6137     2843.00000
    86.6268     2728.00000
    86.6399     2751.00000
    86.6531     2739.00000
    86.6662     2734.00000
    86.6793     2642.00000
    86.6925     2693.00000
    86.7056     2633.00000
    86.7187     2693.00000
    86.7318     2726.00000
    86.7450     2753.00000
    86.7581     2721.00000
    86.7712     2850.00000
    86.7844     3013.00000
    86.7975     3103.00000
    86.8106     3161.00000
    86.8238     3264.00000
    86.8369     3296.00000
    86.8500     3336.00000
    86.8631     3264.00000
    86.8763     3176.00000
    86.8894     3069.00000
    86.9025     2913.00000
    86.9157     2829.00000
    86.9288     2788.00000
    86.9419     2804.00000
    86.9551     2713.00000
    86.9682     2731.00000
    86.9813     2664.00000
    86.9944     2700.00000
    87.0076     2593.00000
    87.0207     2713.00000
    87.0338     2787.00000
    87.0470     2720.00000
    87.0601     2797.00000
    87.0732     2777.00000
    87.0864     2858.00000
    87.0995     2920.00000
    87.1126     2954.00000
    87.1257     2972.00000
    87.1389     2945.00000
    87.1520     2934.00000
    87.1651     3042.00000
    87.1783     2928.00000
    87.1914     2923.00000
    87.2045     3020.00000
    87.2177     3022.00000
    87.2308     2960.00000
    87.2439     2882.00000
    87.2570     2892.00000
    87.2702     2882.00000
    87.2833     2811.00000
    87.2964     2776.00000
    87.3096     2821.00000
    87.3227     2862.00000
    87.3358     2829.00000
    87.3490     2935.00000
    87.3621     3011.00000
    87.3752     3079.00000
    87.3884     3139.00000
    87.4015     3240.00000
    87.4146     3363.00000
    87.4277     3410.00000
    87.4409     3321.00000
    87.4540     3179.00000
    87.4671     3186.00000
    87.4803     3188.00000
    87.4934     3095.00000
    87.5065     2860.00000
    87.5197     2960.00000
    87.5328     2803.00000
    87.5459     2745.00000
    87.5590     2824.00000
    87.5722     2781.00000
    87.5853     2754.00000
    87.5984     2717.00000
    87.6116     2833.00000
    87.6247     2878.00000
    87.6378     2821.00000
    87.6510     2950.00000
    87.6641     3022.00000
    87.6772     2985.00000
    87.6904     2955.00000
    87.7035     3173.00000
    87.7166     3120.00000
    87.7297     3081.00000
    87.7429     3109.00000
    87.7560     3132.00000
    87.7691     3204.00000
    87.7823     3393.00000
    87.7954     3420.00000
    87.8085     3531.00000
    87.8217     3641.00000
    87.8348     3677.00000
    87.8479     3557.00000
    87.8610     3486.00000
    87.8742     3266.00000
    87.8873     3046.00000
    87.9004     2966.00000
    87.9136     2981.00000
    87.9267     2905.00000
    87.9398     2890.00000
    87.9530     2791.00000
    87.9661     2787.00000
    87.9792     2877.00000
    87.9923     2925.00000
    88.0055     2843.00000
    88.0186     2892.00000
    88.0317     2855.00000
    88.0449     2943.00000
    88.0580     2905.00000
    88.0711     2973.00000
    88.0843     3032.00000
    88.0974     3019.00000
    88.1105     3116.00000
    88.1236     3111.00000
    88.1368     2949.00000
    88.1499     2840.00000
    88.1630     2888.00000
    88.1762     2831.00000
    88.1893     2790.00000
    88.2024     2825.00000
    88.2156     2780.00000
    88.2287     2799.00000
    88.2418     2759.00000
    88.2550     2966.00000
    88.2681     3107.00000
    88.2812     3138.00000
    88.2943     3388.00000
    88.3075     3557.00000
    88.3206     3634.00000
    88.3337     3753.00000
    88.3469     3932.00000
    88.3600     4024.00000
    88.3731     4131.00000
    88.3863     3911.00000
    88.3994     3858.00000
    88.4125     3753.00000
    88.4256     3543.00000
    88.4388     3325.00000
    88.4519     3135.00000
    88.4650     3083.00000
    88.4782     2930.00000
    88.4913     2840.00000
    88.5044     2741.00000
    88.5176     2795.00000
    88.5307     2777.00000
    88.5438     2735.00000
    88.5569     2835.00000
    88.5701     2901.00000
    88.5832     2918.00000
    88.5963     3046.00000
    88.6095     3060.00000
    88.6226     3192.00000
    88.6357     3119.00000
    88.6489     3307.00000
    88.6620     3121.00000
    88.6751     3230.00000
    88.6882     3038.00000
    88.7014     3019.00000
    88.7145     2830.00000
    88.7276     2830.00000
    88.7408     2836.00000
    88.7539     2636.00000
    88.7670     2759.00000
    88.7802     2668.00000
    88.7933     2459.00000
    88.8064     2569.00000
    88.8196     2540.00000
    88.8327     2599.00000
    88.8458     2668.00000
    88.8589     2563.00000
    88.8721     2605.00000
    88.8852     2557.00000
    88.8983     2572.00000
    88.9115     2676.00000
    88.9246     2605.00000
    88.9377     2689.00000
    88.9509     2716.00000
    88.9640     2673.00000
    88.9771     2954.00000
    88.9902     3052.00000
    89.0034     3112.00000
    89.0165     3142.00000
    89.0296     3239.00000
    89.0428     3382.00000
    89.0559     3240.00000
    89.0690     3296.00000
    89.0822     3193.00000
    89.0953     3030.00000
    89.1084     2884.00000
    89.1216     2841.00000
    89.1347     2781.00000
    89.1478     2703.00000
    89.1609     2728.00000
    89.1741     2568.00000
    89.1872     2564.00000
    89.2003     2624.00000
    89.2135     2668.00000
    89.2266     2657.00000
    89.2397     2721.00000
    89.2529     2737.00000
    89.2660     2831.00000
    89.2791     2900.00000
    89.2922     2874.00000
    89.3054     2813.00000
    89.3185     2901.00000
    89.3316     2969.00000
    89.3448     2955.00000
    89.3579     2839.00000
    89.3710     2722.00000
    89.3842     2840.00000
    89.3973     2646.00000
    89.4104     2604.00000
    89.4235     2600.00000
    89.4367     2629.00000
    89.4498     2599.00000
    89.4629     2638.00000
    89.4761     2645.00000
    89.4892     2625.00000
    89.5023     2609.00000
    89.5155     2649.00000
    89.5286     2625.00000
    89.5417     2718.00000
    89.5548     2814.00000
    89.5680     2718.00000
    89.5811     2761.00000
    89.5942     2803.00000
    89.6074     2746.00000
    89.6205     2858.00000
    89.6336     2866.00000
    89.6468     2897.00000
    89.6599     2797.00000
    89.6730     2775.00000
    89.6861     2801.00000
    89.6993     2821.00000
    89.7124     2749.00000
    89.7255     2806.00000
    89.7387     2704.00000
    89.7518     2906.00000
    89.7649     3073.00000
    89.7781     3167.00000
    89.7912     3339.00000
    89.8043     3459.00000
    89.8175     3620.00000
    89.8306     3523.00000
    89.8437     3323.00000
    89.8568     3216.00000
    89.8700     3078.00000
    89.8831     2998.00000
    89.8962     2984.00000
    89.9094     2986.00000
    89.9225     2904.00000
    89.9356     2824.00000
    89.9488     2824.00000
    89.9619     2807.00000
    89.9750     2892.00000
    89.9882     2858.00000
    90.0013     2963.00000
    90.0144     2956.00000
    90.0275     3024.00000
    90.0407     2963.00000
    90.0538     3280.00000
    90.0669     3368.00000
    90.0801     3273.00000
    90.0932     3383.00000
    90.1063     3559.00000
    90.1195     3544.00000
    90.1326     3548.00000
    90.1457     3584.00000
    90.1588     3464.00000
    90.1720     3428.00000
    90.1851     3512.00000
    90.1982     3447.00000
    90.2114     3213.00000
    90.2245     3198.00000
    90.2376     3288.00000
    90.2508     3187.00000
    90.2639     3171.00000
    90.2770     3035.00000
    90.2901     3031.00000
    90.3033     3101.00000
    90.3164     3079.00000
    90.3295     2901.00000
    90.3427     3015.00000
    90.3558     3069.00000
    90.3689     3041.00000
    90.3821     3050.00000
    90.3952     3102.00000
    90.4083     3095.00000
    90.4214     2965.00000
    90.4346     3045.00000
    90.4477     2884.00000
    90.4608     2914.00000
    90.4740     2999.00000
    90.4871     2996.00000
    90.5002     2948.00000
    90.5134     2979.00000
    90.5265     3041.00000
    90.5396     2849.00000
    90.5527     2848.00000
    90.5659     2925.00000
    90.5790     2979.00000
    90.5921     3086.00000
    90.6053     3149.00000
    90.6184     3284.00000
    90.6315     3441.00000
    90.6447     3405.00000
    90.6578     3475.00000
    90.6709     3501.00000
    90.6841     3447.00000
    90.6972     3300.00000
    90.7103     3209.00000
    90.7234     3113.00000
    90.7366     2893.00000
    90.7497     2946.00000
    90.7628     2790.00000
    90.7760     2831.00000
    90.7891     2762.00000
    90.8022     2694.00000
    90.8154     2697.00000
    90.8285     2725.00000
    90.8416     2702.00000
    90.8548     2735.00000
    90.8679     2664.00000
    90.8810     2858.00000
    90.8941     2882.00000
    90.9073     2905.00000
    90.9204     3047.00000
    90.9335     3118.00000
    90.9467     3119.00000
    90.9598     3126.00000
    90.9729     3035.00000
    90.9861     2981.00000
    90.9992     2938.00000
    91.0123     3097.00000
    91.0254     2912.00000
    91.0386     3127.00000
    91.0517     3169.00000
    91.0648     3185.00000
    91.0780     3097.00000
    91.0911     3169.00000
    91.1042     3141.00000
    91.1174     3115.00000
    91.1305     3168.00000
    91.1436     3166.00000
    91.1567     3123.00000
    91.1699     3150.00000
    91.1830     3209.00000
    91.1961     3306.00000
    91.2093     3351.00000
    91.2224     3467.00000
    91.2355     3492.00000
    91.2487     3606.00000
    91.2618     3616.00000
    91.2749     3640.00000
    91.2880     3636.00000
    91.3012     3726.00000
    91.3143     3783.00000
    91.3274     3622.00000
    91.3406     3602.00000
    91.3537     3492.00000
    91.3668     3314.00000
    91.3800     3256.00000
    91.3931     3171.00000
    91.4062     2967.00000
    91.4193     3041.00000
    91.4325     2968.00000
    91.4456     2901.00000
    91.4587     2841.00000
    91.4719     2964.00000
    91.4850     3003.00000
    91.4981     2975.00000
    91.5113     3118.00000
    91.5244     3200.00000
    91.5375     3267.00000
    91.5507     3300.00000
    91.5638     3366.00000
    91.5769     3413.00000
    91.5900     3542.00000
    91.6032     3621.00000
    91.6163     3846.00000
    91.6294     3871.00000
    91.6426     4124.00000
    91.6557     4145.00000
    91.6688     3885.00000
    91.6820     3816.00000
    91.6951     3725.00000
    91.7082     3568.00000
    91.7213     3414.00000
    91.7345     3325.00000
    91.7476     3249.00000
    91.7607     3332.00000
    91.7739     3125.00000
    91.7870     3050.00000
    91.8001     2985.00000
    91.8133     3051.00000
    91.8264     2936.00000
    91.8395     2910.00000
    91.8526     2905.00000
    91.8658     2930.00000
    91.8789     2908.00000
    91.8920     2798.00000
    91.9052     3077.00000
    91.9183     3084.00000
    91.9314     3129.00000
    91.9446     3329.00000
    91.9577     3229.00000
    91.9708     3325.00000
    91.9840     3234.00000
    91.9971     3160.00000
    92.0102     3013.00000
    92.0233     2990.00000
    92.0365     2994.00000
    92.0496     2926.00000
    92.0627     2960.00000
    92.0759     2920.00000
    92.0890     2777.00000
    92.1021     2674.00000
    92.1153     2845.00000
    92.1284     2650.00000
    92.1415     2624.00000
    92.1546     2636.00000
    92.1678     2628.00000
    92.1809     2653.00000
    92.1940     2586.00000
    92.2072     2658.00000
    92.2203     2620.00000
    92.2334     2554.00000
    92.2466     2638.00000
    92.2597     2708.00000
    92.2728     2693.00000
    92.2859     2749.00000
    92.2991     2679.00000
    92.3122     2826.00000
    92.3253     2798.00000
    92.3385     2837.00000
    92.3516     2995.00000
    92.3647     2956.00000
    92.3779     2915.00000
    92.3910     3004.00000
    92.4041     2843.00000
    92.4173     2949.00000
    92.4304     2934.00000
    92.4435     2729.00000
    92.4566     2935.00000
    92.4698     2926.00000
    92.4829     2897.00000
    92.4960     2924.00000
    92.5092     2917.00000
    92.5223     2857.00000
    92.5354     2882.00000
    92.5486     2915.00000
    92.5617     2944.00000
    92.5748     3004.00000
    92.5879     3055.00000
    92.6011     3065.00000
    92.6142     3101.00000
    92.6273     3162.00000
    92.6405     3178.00000
    92.6536     3268.00000
    92.6667     3453.00000
    92.6799     3511.00000
    92.6930     3806.00000
    92.7061     3891.00000
    92.7192     3934.00000
    92.7324     3879.00000
    92.7455     3691.00000
    92.7586     3600.00000
    92.7718     3481.00000
    92.7849     3236.00000
    92.7980     3212.00000
    92.8112     3065.00000
    92.8243     2913.00000
    92.8374     2925.00000
    92.8505     2879.00000
    92.8637     2828.00000
    92.8768     2833.00000
    92.8899     2733.00000
    92.9031     2732.00000
    92.9162     2740.00000
    92.9293     2717.00000
    92.9425     2908.00000
    92.9556     2822.00000
    92.9687     2880.00000
    92.9819     3034.00000
    92.9950     3118.00000
    93.0081     3006.00000
    93.0212     3083.00000
    93.0344     3105.00000
    93.0475     3061.00000
    93.0606     3036.00000
    93.0738     2842.00000
    93.0869     2787.00000
    93.1000     2685.00000
    93.1132     2754.00000
    93.1263     2629.00000
    93.1394     2641.00000
    93.1525     2487.00000
    93.1657     2425.00000
    93.1788     2487.00000
    93.1919     2505.00000
    93.2051     2554.00000
    93.2182     2419.00000
    93.2313     2506.00000
    93.2445     2463.00000
    93.2576     2368.00000
    93.2707     2443.00000
    93.2839     2535.00000
    93.2970     2396.00000
    93.3101     2334.00000
    93.3232     2429.00000
    93.3364     2395.00000
    93.3495     2435.00000
    93.3626     2415.00000
    93.3758     2354.00000
    93.3889     2372.00000
    93.4020     2389.00000
    93.4152     2355.00000
    93.4283     2513.00000
    93.4414     2421.00000
    93.4545     2377.00000
    93.4677     2318.00000
    93.4808     2398.00000
    93.4939     2393.00000
    93.5071     2337.00000
    93.5202     2424.00000
    93.5333     2443.00000
    93.5465     2322.00000
    93.5596     2351.00000
    93.5727     2426.00000
    93.5858     2392.00000
    93.5990     2420.00000
    93.6121     2380.00000
    93.6252     2385.00000
    93.6384     2400.00000
    93.6515     2373.00000
    93.6646     2401.00000
    93.6778     2418.00000
    93.6909     2319.00000
    93.7040     2436.00000
    93.7171     2409.00000
    93.7303     2483.00000
    93.7434     2494.00000
    93.7565     2501.00000
    93.7697     2488.00000
    93.7828     2492.00000
    93.7959     2611.00000
    93.8091     2596.00000
    93.8222     2749.00000
    93.8353     2766.00000
    93.8484     2838.00000
    93.8616     2835.00000
    93.8747     3043.00000
    93.8878     3136.00000
    93.9010     3236.00000
    93.9141     3192.00000
    93.9272     3071.00000
    93.9404     2979.00000
    93.9535     2798.00000
    93.9666     2801.00000
    93.9798     2892.00000
    93.9929     2889.00000
    94.0060     2725.00000
    94.0191     2809.00000
    94.0323     2800.00000
    94.0454     2716.00000
    94.0585     2856.00000
    94.0717     2883.00000
    94.0848     2913.00000
    94.0979     2871.00000
    94.1111     2973.00000
    94.1242     2862.00000
    94.1373     2854.00000
    94.1505     2994.00000
    94.1636     2947.00000
    94.1767     2887.00000
    94.1898     2938.00000
    94.2030     2985.00000
    94.2161     2901.00000
    94.2292     2877.00000
    94.2424     2760.00000
    94.2555     2733.00000
    94.2686     2616.00000
    94.2818     2712.00000
    94.2949     2596.00000
    94.3080     2607.00000
    94.3211     2643.00000
    94.3343     2701.00000
    94.3474     2667.00000
    94.3605     2615.00000
    94.3737     2661.00000
    94.3868     2611.00000
    94.3999     2629.00000
    94.4131     2662.00000
    94.4262     2674.00000
    94.4393     2679.00000
    94.4524     2647.00000
    94.4656     2543.00000
    94.4787     2621.00000
    94.4918     2736.00000
    94.5050     2660.00000
    94.5181     2650.00000
    94.5312     2744.00000
    94.5444     2756.00000
    94.5575     2873.00000
    94.5706     3026.00000
    94.5837     3195.00000
    94.5969     3185.00000
    94.6100     3339.00000
    94.6231     3474.00000
    94.6363     3509.00000
    94.6494     3665.00000
    94.6625     3458.00000
    94.6757     3561.00000
    94.6888     3324.00000
    94.7019     3310.00000
    94.7150     3242.00000
    94.7282     3105.00000
    94.7413     3045.00000
    94.7544     2821.00000
    94.7676     2814.00000
    94.7807     2788.00000
    94.7938     2590.00000
    94.8070     2791.00000
    94.8201     2621.00000
    94.8332     2767.00000
    94.8464     2679.00000
    94.8595     2676.00000
    94.8726     2738.00000
    94.8857     2795.00000
    94.8989     2738.00000
    94.9120     2790.00000
    94.9251     2945.00000
    94.9383     2964.00000
    94.9514     3004.00000
    94.9645     3023.00000
    94.9777     2975.00000
    94.9908     2986.00000
    95.0039     2911.00000
    95.0170     2904.00000
    95.0302     2726.00000
    95.0433     2654.00000
    95.0564     2634.00000
    95.0696     2602.00000
    95.0827     2554.00000
    95.0958     2516.00000
    95.1090     2551.00000
    95.1221     2455.00000
    95.1352     2352.00000
    95.1484     2476.00000
    95.1615     2451.00000
    95.1746     2457.00000
    95.1877     2408.00000
    95.2009     2385.00000
    95.2140     2397.00000
    95.2271     2505.00000
    95.2403     2420.00000
    95.2534     2396.00000
    95.2665     2410.00000
    95.2797     2461.00000
    95.2928     2437.00000
    95.3059     2264.00000
    95.3190     2359.00000
    95.3322     2363.00000
    95.3453     2412.00000
    95.3584     2458.00000
    95.3716     2365.00000
    95.3847     2473.00000
    95.3978     2440.00000
    95.4110     2455.00000
    95.4241     2423.00000
    95.4372     2439.00000
    95.4503     2411.00000
    95.4635     2389.00000
    95.4766     2335.00000
    95.4897     2392.00000
    95.5029     2390.00000
    95.5160     2332.00000
    95.5291     2315.00000
    95.5423     2329.00000
    95.5554     2363.00000
    95.5685     2331.00000
    95.5816     2305.00000
    95.5948     2411.00000
    95.6079     2352.00000
    95.6210     2373.00000
    95.6342     2316.00000
    95.6473     2320.00000
    95.6604     2282.00000
    95.6736     2390.00000
    95.6867     2384.00000
    95.6998     2347.00000
    95.7130     2294.00000
    95.7261     2426.00000
    95.7392     2479.00000
    95.7523     2361.00000
    95.7655     2327.00000
    95.7786     2334.00000
    95.7917     2417.00000
    95.8049     2365.00000
    95.8180     2435.00000
    95.8311     2304.00000
    95.8443     2436.00000
    95.8574     2378.00000
    95.8705     2413.00000
    95.8836     2406.00000
    95.8968     2318.00000
    95.9099     2350.00000
    95.9230     2387.00000
    95.9362     2333.00000
    95.9493     2339.00000
    95.9624     2471.00000
    95.9756     2413.00000
    95.9887     2353.00000
    96.0018     2443.00000
    96.0149     2469.00000
    96.0281     2403.00000
    96.0412     2402.00000
    96.0543     2486.00000
    96.0675     2326.00000
    96.0806     2485.00000
    96.0937     2477.00000
    96.1069     2512.00000
    96.1200     2523.00000
    96.1331     2525.00000
    96.1463     2574.00000
    96.1594     2520.00000
    96.1725     2492.00000
    96.1856     2456.00000
    96.1988     2535.00000
    96.2119     2511.00000
    96.2250     2436.00000
    96.2382     2484.00000
    96.2513     2413.00000
    96.2644     2415.00000
    96.2776     2455.00000
    96.2907     2443.00000
    96.3038     2506.00000
    96.3169     2376.00000
    96.3301     2373.00000
    96.3432     2310.00000
    96.3563     2441.00000
    96.3695     2508.00000
    96.3826     2394.00000
    96.3957     2422.00000
    96.4089     2500.00000
    96.4220     2502.00000
    96.4351     2505.00000
    96.4482     2489.00000
    96.4614     2600.00000
    96.4745     2592.00000
    96.4876     2580.00000
    96.5008     2573.00000
    96.5139     2584.00000
    96.5270     2549.00000
    96.5402     2607.00000
    96.5533     2616.00000
    96.5664     2689.00000
    96.5796     2726.00000
    96.5927     2752.00000
    96.6058     2931.00000
    96.6189     3051.00000
    96.6321     2995.00000
    96.6452     3107.00000
    96.6583     3338.00000
    96.6715     3369.00000
    96.6846     3624.00000
    96.6977     3692.00000
    96.7109     3782.00000
    96.7240     3708.00000
    96.7371     3587.00000
    96.7502     3572.00000
    96.7634     3556.00000
    96.7765     3318.00000
    96.7896     3067.00000
    96.8028     2950.00000
    96.8159     2991.00000
    96.8290     3058.00000
    96.8422     2862.00000
    96.8553     2869.00000
    96.8684     2941.00000
    96.8815     2947.00000
    96.8947     3067.00000
    96.9078     3195.00000
    96.9209     3282.00000
    96.9341     3404.00000
    96.9472     3380.00000
    96.9603     3576.00000
    96.9735     3673.00000
    96.9866     3574.00000
    96.9997     3505.00000
    97.0128     3526.00000
    97.0260     3572.00000
    97.0391     3392.00000
    97.0522     3230.00000
    97.0654     3180.00000
    97.0785     3144.00000
    97.0916     2964.00000
    97.1048     2906.00000
    97.1179     2898.00000
    97.1310     2753.00000
    97.1442     2668.00000
    97.1573     2626.00000
    97.1704     2653.00000
    97.1835     2669.00000
    97.1967     2760.00000
    97.2098     2743.00000
    97.2229     2723.00000
    97.2361     2745.00000
    97.2492     2750.00000
    97.2623     2824.00000
    97.2755     2858.00000
    97.2886     2863.00000
    97.3017     2808.00000
    97.3148     2819.00000
    97.3280     2821.00000
    97.3411     2810.00000
    97.3542     2763.00000
    97.3674     2753.00000
    97.3805     2721.00000
    97.3936     2768.00000
    97.4068     2790.00000
    97.4199     2701.00000
    97.4330     2792.00000
    97.4462     2801.00000
    97.4593     2918.00000
    97.4724     3037.00000
    97.4855     3086.00000
    97.4987     3075.00000
    97.5118     3219.00000
    97.5249     3251.00000
    97.5381     3239.00000
    97.5512     3351.00000
    97.5643     3338.00000
    97.5775     3383.00000
    97.5906     3431.00000
    97.6037     3372.00000
    97.6168     3432.00000
    97.6300     3306.00000
    97.6431     3218.00000
    97.6562     3137.00000
    97.6694     3027.00000
    97.6825     2896.00000
    97.6956     2826.00000
    97.7088     2735.00000
    97.7219     2753.00000
    97.7350     2700.00000
    97.7481     2774.00000
    97.7613     2675.00000
    97.7744     2680.00000
    97.7875     2763.00000
    97.8007     2816.00000
    97.8138     2709.00000
    97.8269     2836.00000
    97.8401     2855.00000
    97.8532     2916.00000
    97.8663     2964.00000
    97.8794     2977.00000
    97.8926     2936.00000
    97.9057     2931.00000
    97.9188     2931.00000
    97.9320     2957.00000
    97.9451     2857.00000
    97.9582     2877.00000
    97.9714     2714.00000
    97.9845     2653.00000
    97.9976     2745.00000
    98.0107     2700.00000
    98.0239     2572.00000
    98.0370     2592.00000
    98.0501     2509.00000
    98.0633     2617.00000
    98.0764     2481.00000
    98.0895     2494.00000
    98.1027     2466.00000
    98.1158     2410.00000
    98.1289     2530.00000
    98.1421     2486.00000
    98.1552     2430.00000
    98.1683     2534.00000
    98.1814     2452.00000
    98.1946     2471.00000
    98.2077     2557.00000
    98.2208     2381.00000
    98.2340     2368.00000
    98.2471     2370.00000
    98.2602     2559.00000
    98.2734     2350.00000
    98.2865     2535.00000
    98.2996     2567.00000
    98.3128     2566.00000
    98.3259     2563.00000
    98.3390     2471.00000
    98.3521     2530.00000
    98.3653     2580.00000
    98.3784     2505.00000
    98.3915     2454.00000
    98.4047     2565.00000
    98.4178     2572.00000
    98.4309     2698.00000
    98.4441     2749.00000
    98.4572     2854.00000
    98.4703     2839.00000
    98.4834     2931.00000
    98.4966     3013.00000
    98.5097     3147.00000
    98.5228     3202.00000
    98.5360     3342.00000
    98.5491     3423.00000
    98.5622     3681.00000
    98.5754     3811.00000
    98.5885     3793.00000
    98.6016     4068.00000
    98.6147     4186.00000
    98.6279     4100.00000
    98.6410     4100.00000
    98.6541     4006.00000
    98.6673     3767.00000
    98.6804     3853.00000
    98.6935     3711.00000
    98.7067     3502.00000
    98.7198     3322.00000
    98.7329     3197.00000
    98.7460     3167.00000
    98.7592     3078.00000
    98.7723     3058.00000
    98.7854     2991.00000
    98.7986     3008.00000
    98.8117     3042.00000
    98.8248     3193.00000
    98.8380     3307.00000
    98.8511     3473.00000
    98.8642     3449.00000
    98.8773     3557.00000
    98.8905     3773.00000
    98.9036     3871.00000
    98.9167     4071.00000
    98.9299     4111.00000
    98.9430     4270.00000
    98.9561     4411.00000
    98.9693     4406.00000
    98.9824     4323.00000
    98.9955     4467.00000
    99.0087     4036.00000
    99.0218     4097.00000
    99.0349     4142.00000
    99.0480     4203.00000
    99.0612     4226.00000
    99.0743     4120.00000
    99.0874     4238.00000
    99.1006     4203.00000
    99.1137     4131.00000
    99.1268     4236.00000
    99.1400     4000.00000
    99.1531     4047.00000
    99.1662     3946.00000
    99.1793     3970.00000
    99.1925     3708.00000
    99.2056     3711.00000
    99.2187     3719.00000
    99.2319     3651.00000
    99.2450     3886.00000
    99.2581     3725.00000
    99.2713     3940.00000
    99.2844     3965.00000
    99.2975     3999.00000
    99.3107     4150.00000
    99.3238     4053.00000
    99.3369     3994.00000
    99.3500     4077.00000
    99.3632     4016.00000
    99.3763     3980.00000
    99.3894     4058.00000
    99.4026     3999.00000
    99.4157     3975.00000
    99.4288     4015.00000
    99.4420     3891.00000
    99.4551     3890.00000
    99.4682     3830.00000
    99.4813     3627.00000
    99.4945     3525.00000
    99.5076     3399.00000
    99.5207     3338.00000
    99.5339     3181.00000
    99.5470     3175.00000
    99.5601     3096.00000
    99.5733     3154.00000
    99.5864     2965.00000
    99.5995     3064.00000
    99.6126     3009.00000
    99.6258     3024.00000
    99.6389     3124.00000
    99.6520     3063.00000
    99.6652     3036.00000
    99.6783     3041.00000
    99.6914     3033.00000
    99.7046     2969.00000
    99.7177     3009.00000
    99.7308     2905.00000
    99.7439     2922.00000
    99.7571     2967.00000
    99.7702     2863.00000
    99.7833     2942.00000
    99.7965     2941.00000
    99.8096     2853.00000
    99.8227     2865.00000
    99.8359     3047.00000
    99.8490     3035.00000
    99.8621     3106.00000
    99.8753     3230.00000
    99.8884     3341.00000
    99.9015     3356.00000
    99.9146     3492.00000
    99.9278     3175.00000
    99.9409     3221.00000
    99.9540     3079.00000
    99.9672     2857.00000
    99.9803     2900.00000
    99.9934     2770.00000
