! Initial file:   D:\ZAKARY_OUAIL\MA_THESE\Deuxième_année_de_thèse\DRX\Manips_DRX\1st_NaTaO2F2_XRK900\NaTaO2F2-Lent_220°C.xrdml
! Initial format:  58
! WAVE (A):      1.54060     1.54060     1.00000
! REM : data have been multiplied by     1.0000
! X_data : 2 Theta (deg.)                                                                                                                                                                                                                                                  
! Y_data : Intensity (arb. units)                                                                                                                                                                                                                                          
!     X         Y
!--------------------------------------------------------------------------------
    10.0116     6604.00000
    10.0247     6518.00000
    10.0379     6687.00000
    10.0510     6544.00000
    10.0641     6523.00000
    10.0772     6442.00000
    10.0904     6636.00000
    10.1035     6450.00000
    10.1166     6399.00000
    10.1298     6606.00000
    10.1429     6493.00000
    10.1560     6475.00000
    10.1692     6597.00000
    10.1823     6366.00000
    10.1954     6297.00000
    10.2086     6478.00000
    10.2217     6392.00000
    10.2348     6582.00000
    10.2479     6383.00000
    10.2611     6486.00000
    10.2742     6411.00000
    10.2873     6380.00000
    10.3005     6374.00000
    10.3136     6257.00000
    10.3267     6357.00000
    10.3399     6213.00000
    10.3530     6372.00000
    10.3661     6306.00000
    10.3792     6240.00000
    10.3924     6179.00000
    10.4055     6335.00000
    10.4186     6421.00000
    10.4318     6278.00000
    10.4449     6380.00000
    10.4580     6372.00000
    10.4712     6199.00000
    10.4843     6239.00000
    10.4974     6380.00000
    10.5105     6162.00000
    10.5237     6362.00000
    10.5368     6352.00000
    10.5499     6239.00000
    10.5631     6244.00000
    10.5762     6193.00000
    10.5893     6299.00000
    10.6025     6377.00000
    10.6156     6357.00000
    10.6287     6184.00000
    10.6418     6339.00000
    10.6550     6350.00000
    10.6681     6298.00000
    10.6812     6351.00000
    10.6944     6204.00000
    10.7075     6241.00000
    10.7206     6391.00000
    10.7338     6378.00000
    10.7469     6530.00000
    10.7600     6444.00000
    10.7732     6490.00000
    10.7863     6542.00000
    10.7994     6561.00000
    10.8125     6351.00000
    10.8257     6541.00000
    10.8388     6600.00000
    10.8519     6578.00000
    10.8651     6520.00000
    10.8782     6514.00000
    10.8913     6744.00000
    10.9045     6889.00000
    10.9176     6928.00000
    10.9307     6972.00000
    10.9438     7278.00000
    10.9570     7544.00000
    10.9701     7917.00000
    10.9832     8520.00000
    10.9964     9334.00000
    11.0095    10514.00000
    11.0226    12192.00000
    11.0358    14742.00000
    11.0489    19035.00000
    11.0620    24271.00000
    11.0751    31318.00000
    11.0883    42240.00000
    11.1014    48953.00000
    11.1145    51701.00000
    11.1277    49711.00000
    11.1408    42139.00000
    11.1539    34923.00000
    11.1671    28138.00000
    11.1802    21835.00000
    11.1933    16407.00000
    11.2065    12695.00000
    11.2196    10266.00000
    11.2327     8492.00000
    11.2458     7548.00000
    11.2590     7322.00000
    11.2721     6800.00000
    11.2852     6733.00000
    11.2984     6519.00000
    11.3115     6558.00000
    11.3246     6471.00000
    11.3378     6397.00000
    11.3509     6197.00000
    11.3640     6145.00000
    11.3771     6242.00000
    11.3903     6170.00000
    11.4034     6126.00000
    11.4165     6048.00000
    11.4297     6057.00000
    11.4428     6036.00000
    11.4559     6118.00000
    11.4691     6127.00000
    11.4822     6010.00000
    11.4953     6060.00000
    11.5084     6309.00000
    11.5216     5936.00000
    11.5347     6158.00000
    11.5478     5938.00000
    11.5610     6003.00000
    11.5741     5933.00000
    11.5872     5983.00000
    11.6004     6026.00000
    11.6135     6010.00000
    11.6266     5992.00000
    11.6398     5890.00000
    11.6529     5850.00000
    11.6660     5924.00000
    11.6791     5969.00000
    11.6923     6017.00000
    11.7054     5927.00000
    11.7185     5832.00000
    11.7317     6049.00000
    11.7448     5796.00000
    11.7579     5842.00000
    11.7711     5697.00000
    11.7842     5937.00000
    11.7973     5978.00000
    11.8104     5968.00000
    11.8236     5838.00000
    11.8367     5963.00000
    11.8498     5838.00000
    11.8630     5738.00000
    11.8761     5832.00000
    11.8892     5768.00000
    11.9024     5741.00000
    11.9155     5804.00000
    11.9286     5827.00000
    11.9417     5876.00000
    11.9549     5847.00000
    11.9680     5625.00000
    11.9811     5748.00000
    11.9943     5748.00000
    12.0074     5765.00000
    12.0205     5714.00000
    12.0337     5751.00000
    12.0468     5950.00000
    12.0599     5894.00000
    12.0731     5733.00000
    12.0862     5814.00000
    12.0993     5776.00000
    12.1124     5816.00000
    12.1256     5713.00000
    12.1387     5618.00000
    12.1518     5762.00000
    12.1650     5725.00000
    12.1781     5776.00000
    12.1912     5736.00000
    12.2044     5648.00000
    12.2175     5672.00000
    12.2306     5680.00000
    12.2437     5762.00000
    12.2569     5553.00000
    12.2700     5765.00000
    12.2831     5653.00000
    12.2963     5664.00000
    12.3094     5593.00000
    12.3225     5776.00000
    12.3357     5639.00000
    12.3488     5596.00000
    12.3619     5680.00000
    12.3750     5564.00000
    12.3882     5778.00000
    12.4013     5754.00000
    12.4144     5736.00000
    12.4276     5566.00000
    12.4407     5567.00000
    12.4538     5587.00000
    12.4670     5509.00000
    12.4801     5552.00000
    12.4932     5496.00000
    12.5063     5658.00000
    12.5195     5610.00000
    12.5326     5692.00000
    12.5457     5635.00000
    12.5589     5531.00000
    12.5720     5624.00000
    12.5851     5649.00000
    12.5983     5425.00000
    12.6114     5538.00000
    12.6245     5724.00000
    12.6377     5531.00000
    12.6508     5583.00000
    12.6639     5525.00000
    12.6770     5647.00000
    12.6902     5584.00000
    12.7033     5684.00000
    12.7164     5476.00000
    12.7296     5537.00000
    12.7427     5551.00000
    12.7558     5663.00000
    12.7690     5488.00000
    12.7821     5431.00000
    12.7952     5516.00000
    12.8083     5424.00000
    12.8215     5542.00000
    12.8346     5577.00000
    12.8477     5423.00000
    12.8609     5435.00000
    12.8740     5601.00000
    12.8871     5473.00000
    12.9003     5367.00000
    12.9134     5548.00000
    12.9265     5533.00000
    12.9396     5496.00000
    12.9528     5364.00000
    12.9659     5362.00000
    12.9790     5520.00000
    12.9922     5530.00000
    13.0053     5392.00000
    13.0184     5276.00000
    13.0316     5477.00000
    13.0447     5448.00000
    13.0578     5473.00000
    13.0710     5493.00000
    13.0841     5413.00000
    13.0972     5476.00000
    13.1103     5405.00000
    13.1235     5418.00000
    13.1366     5467.00000
    13.1497     5284.00000
    13.1629     5288.00000
    13.1760     5474.00000
    13.1891     5262.00000
    13.2023     5434.00000
    13.2154     5378.00000
    13.2285     5344.00000
    13.2416     5451.00000
    13.2548     5410.00000
    13.2679     5428.00000
    13.2810     5374.00000
    13.2942     5513.00000
    13.3073     5411.00000
    13.3204     5242.00000
    13.3336     5471.00000
    13.3467     5459.00000
    13.3598     5399.00000
    13.3729     5355.00000
    13.3861     5272.00000
    13.3992     5321.00000
    13.4123     5344.00000
    13.4255     5251.00000
    13.4386     5190.00000
    13.4517     5371.00000
    13.4649     5356.00000
    13.4780     5372.00000
    13.4911     5389.00000
    13.5043     5249.00000
    13.5174     5181.00000
    13.5305     5335.00000
    13.5436     5332.00000
    13.5568     5347.00000
    13.5699     5208.00000
    13.5830     5257.00000
    13.5962     5099.00000
    13.6093     5284.00000
    13.6224     5256.00000
    13.6356     5169.00000
    13.6487     5213.00000
    13.6618     5337.00000
    13.6749     5191.00000
    13.6881     5274.00000
    13.7012     5400.00000
    13.7143     5184.00000
    13.7275     5302.00000
    13.7406     5209.00000
    13.7537     5339.00000
    13.7669     5285.00000
    13.7800     5248.00000
    13.7931     5193.00000
    13.8062     5270.00000
    13.8194     5346.00000
    13.8325     5223.00000
    13.8456     5310.00000
    13.8588     5205.00000
    13.8719     5269.00000
    13.8850     5259.00000
    13.8982     5089.00000
    13.9113     5125.00000
    13.9244     5219.00000
    13.9376     5094.00000
    13.9507     5195.00000
    13.9638     5213.00000
    13.9769     5198.00000
    13.9901     5100.00000
    14.0032     5130.00000
    14.0163     5185.00000
    14.0295     5132.00000
    14.0426     5097.00000
    14.0557     5099.00000
    14.0689     5118.00000
    14.0820     5141.00000
    14.0951     5139.00000
    14.1082     5070.00000
    14.1214     4939.00000
    14.1345     5102.00000
    14.1476     5112.00000
    14.1608     5110.00000
    14.1739     5126.00000
    14.1870     5155.00000
    14.2002     5153.00000
    14.2133     5078.00000
    14.2264     4965.00000
    14.2395     5098.00000
    14.2527     5129.00000
    14.2658     4974.00000
    14.2789     4992.00000
    14.2921     5052.00000
    14.3052     5157.00000
    14.3183     5008.00000
    14.3315     4982.00000
    14.3446     5081.00000
    14.3577     4997.00000
    14.3708     5101.00000
    14.3840     5099.00000
    14.3971     4981.00000
    14.4102     5034.00000
    14.4234     5076.00000
    14.4365     4944.00000
    14.4496     4931.00000
    14.4628     4963.00000
    14.4759     5104.00000
    14.4890     5137.00000
    14.5022     5020.00000
    14.5153     5102.00000
    14.5284     4896.00000
    14.5415     4910.00000
    14.5547     5104.00000
    14.5678     5140.00000
    14.5809     5180.00000
    14.5941     4954.00000
    14.6072     4981.00000
    14.6203     5010.00000
    14.6335     5060.00000
    14.6466     4910.00000
    14.6597     4989.00000
    14.6728     5020.00000
    14.6860     5034.00000
    14.6991     5021.00000
    14.7122     5033.00000
    14.7254     5036.00000
    14.7385     5009.00000
    14.7516     4789.00000
    14.7648     4899.00000
    14.7779     5018.00000
    14.7910     5168.00000
    14.8041     5041.00000
    14.8173     4939.00000
    14.8304     4978.00000
    14.8435     4814.00000
    14.8567     4909.00000
    14.8698     4927.00000
    14.8829     4858.00000
    14.8961     4970.00000
    14.9092     4920.00000
    14.9223     5046.00000
    14.9355     4810.00000
    14.9486     4933.00000
    14.9617     4950.00000
    14.9748     4878.00000
    14.9880     4881.00000
    15.0011     4962.00000
    15.0142     4817.00000
    15.0274     4929.00000
    15.0405     4919.00000
    15.0536     4836.00000
    15.0668     4803.00000
    15.0799     5029.00000
    15.0930     4951.00000
    15.1061     4883.00000
    15.1193     4804.00000
    15.1324     4935.00000
    15.1455     4809.00000
    15.1587     4976.00000
    15.1718     4811.00000
    15.1849     4921.00000
    15.1981     4788.00000
    15.2112     4875.00000
    15.2243     4870.00000
    15.2374     4721.00000
    15.2506     4836.00000
    15.2637     4848.00000
    15.2768     4876.00000
    15.2900     4854.00000
    15.3031     4786.00000
    15.3162     4800.00000
    15.3294     4796.00000
    15.3425     4799.00000
    15.3556     4866.00000
    15.3688     4771.00000
    15.3819     4845.00000
    15.3950     4817.00000
    15.4081     4820.00000
    15.4213     4726.00000
    15.4344     4705.00000
    15.4475     4828.00000
    15.4607     4887.00000
    15.4738     4746.00000
    15.4869     4803.00000
    15.5001     4774.00000
    15.5132     4807.00000
    15.5263     4711.00000
    15.5394     4819.00000
    15.5526     4886.00000
    15.5657     4765.00000
    15.5788     4761.00000
    15.5920     4841.00000
    15.6051     4867.00000
    15.6182     4820.00000
    15.6314     4741.00000
    15.6445     4819.00000
    15.6576     4743.00000
    15.6707     4747.00000
    15.6839     4857.00000
    15.6970     4778.00000
    15.7101     4766.00000
    15.7233     4782.00000
    15.7364     4619.00000
    15.7495     4759.00000
    15.7627     4732.00000
    15.7758     4785.00000
    15.7889     4802.00000
    15.8021     4702.00000
    15.8152     4691.00000
    15.8283     4923.00000
    15.8414     4934.00000
    15.8546     4784.00000
    15.8677     4644.00000
    15.8808     4668.00000
    15.8940     4625.00000
    15.9071     4851.00000
    15.9202     4819.00000
    15.9334     4815.00000
    15.9465     4850.00000
    15.9596     4713.00000
    15.9727     4706.00000
    15.9859     4747.00000
    15.9990     4780.00000
    16.0121     4646.00000
    16.0253     4780.00000
    16.0384     4824.00000
    16.0515     4723.00000
    16.0647     4751.00000
    16.0778     4828.00000
    16.0909     4834.00000
    16.1040     4798.00000
    16.1172     4720.00000
    16.1303     4877.00000
    16.1434     4820.00000
    16.1566     4796.00000
    16.1697     4806.00000
    16.1828     4814.00000
    16.1960     4842.00000
    16.2091     4706.00000
    16.2222     4687.00000
    16.2353     4846.00000
    16.2485     4790.00000
    16.2616     4909.00000
    16.2747     4959.00000
    16.2879     4734.00000
    16.3010     4879.00000
    16.3141     4777.00000
    16.3273     4744.00000
    16.3404     4829.00000
    16.3535     4836.00000
    16.3667     4772.00000
    16.3798     4882.00000
    16.3929     4945.00000
    16.4060     4905.00000
    16.4192     4932.00000
    16.4323     4861.00000
    16.4454     4791.00000
    16.4586     4902.00000
    16.4717     4822.00000
    16.4848     4853.00000
    16.4980     4901.00000
    16.5111     4816.00000
    16.5242     4697.00000
    16.5373     4651.00000
    16.5505     4778.00000
    16.5636     4863.00000
    16.5767     4755.00000
    16.5899     4639.00000
    16.6030     4622.00000
    16.6161     4634.00000
    16.6293     4717.00000
    16.6424     4687.00000
    16.6555     4606.00000
    16.6686     4643.00000
    16.6818     4658.00000
    16.6949     4752.00000
    16.7080     4604.00000
    16.7212     4606.00000
    16.7343     4578.00000
    16.7474     4693.00000
    16.7606     4468.00000
    16.7737     4671.00000
    16.7868     4626.00000
    16.8000     4590.00000
    16.8131     4597.00000
    16.8262     4490.00000
    16.8393     4493.00000
    16.8525     4551.00000
    16.8656     4594.00000
    16.8787     4527.00000
    16.8919     4471.00000
    16.9050     4540.00000
    16.9181     4613.00000
    16.9313     4553.00000
    16.9444     4594.00000
    16.9575     4481.00000
    16.9706     4523.00000
    16.9838     4455.00000
    16.9969     4541.00000
    17.0100     4633.00000
    17.0232     4567.00000
    17.0363     4519.00000
    17.0494     4519.00000
    17.0626     4504.00000
    17.0757     4559.00000
    17.0888     4559.00000
    17.1019     4558.00000
    17.1151     4408.00000
    17.1282     4513.00000
    17.1413     4617.00000
    17.1545     4528.00000
    17.1676     4605.00000
    17.1807     4732.00000
    17.1939     4845.00000
    17.2070     4624.00000
    17.2201     4701.00000
    17.2333     4677.00000
    17.2464     4800.00000
    17.2595     4734.00000
    17.2726     4644.00000
    17.2858     4770.00000
    17.2989     4676.00000
    17.3120     4582.00000
    17.3252     4588.00000
    17.3383     4671.00000
    17.3514     4505.00000
    17.3646     4559.00000
    17.3777     4479.00000
    17.3908     4340.00000
    17.4039     4570.00000
    17.4171     4405.00000
    17.4302     4489.00000
    17.4433     4519.00000
    17.4565     4422.00000
    17.4696     4384.00000
    17.4827     4428.00000
    17.4959     4406.00000
    17.5090     4365.00000
    17.5221     4314.00000
    17.5352     4590.00000
    17.5484     4427.00000
    17.5615     4472.00000
    17.5746     4482.00000
    17.5878     4389.00000
    17.6009     4506.00000
    17.6140     4432.00000
    17.6272     4415.00000
    17.6403     4430.00000
    17.6534     4614.00000
    17.6666     4456.00000
    17.6797     4491.00000
    17.6928     4415.00000
    17.7059     4635.00000
    17.7191     4610.00000
    17.7322     4657.00000
    17.7453     4689.00000
    17.7585     4731.00000
    17.7716     4650.00000
    17.7847     4513.00000
    17.7979     4529.00000
    17.8110     4469.00000
    17.8241     4466.00000
    17.8372     4415.00000
    17.8504     4430.00000
    17.8635     4375.00000
    17.8766     4377.00000
    17.8898     4310.00000
    17.9029     4390.00000
    17.9160     4280.00000
    17.9292     4439.00000
    17.9423     4475.00000
    17.9554     4373.00000
    17.9685     4291.00000
    17.9817     4291.00000
    17.9948     4361.00000
    18.0079     4412.00000
    18.0211     4336.00000
    18.0342     4232.00000
    18.0473     4341.00000
    18.0605     4352.00000
    18.0736     4368.00000
    18.0867     4220.00000
    18.0998     4292.00000
    18.1130     4255.00000
    18.1261     4251.00000
    18.1392     4223.00000
    18.1524     4338.00000
    18.1655     4269.00000
    18.1786     4243.00000
    18.1918     4173.00000
    18.2049     4265.00000
    18.2180     4239.00000
    18.2312     4352.00000
    18.2443     4246.00000
    18.2574     4179.00000
    18.2705     4306.00000
    18.2837     4218.00000
    18.2968     4294.00000
    18.3099     4282.00000
    18.3231     4114.00000
    18.3362     4331.00000
    18.3493     4310.00000
    18.3625     4280.00000
    18.3756     4205.00000
    18.3887     4323.00000
    18.4018     4237.00000
    18.4150     4128.00000
    18.4281     4403.00000
    18.4412     4174.00000
    18.4544     4243.00000
    18.4675     4234.00000
    18.4806     4186.00000
    18.4938     4065.00000
    18.5069     4272.00000
    18.5200     4278.00000
    18.5331     4313.00000
    18.5463     4266.00000
    18.5594     4262.00000
    18.5725     4319.00000
    18.5857     4365.00000
    18.5988     4287.00000
    18.6119     4359.00000
    18.6251     4338.00000
    18.6382     4407.00000
    18.6513     4356.00000
    18.6645     4261.00000
    18.6776     4483.00000
    18.6907     4414.00000
    18.7038     4260.00000
    18.7170     4382.00000
    18.7301     4260.00000
    18.7432     4228.00000
    18.7564     4286.00000
    18.7695     4325.00000
    18.7826     4249.00000
    18.7958     4334.00000
    18.8089     4259.00000
    18.8220     4241.00000
    18.8351     4206.00000
    18.8483     4162.00000
    18.8614     4113.00000
    18.8745     4156.00000
    18.8877     4236.00000
    18.9008     4209.00000
    18.9139     4126.00000
    18.9271     4210.00000
    18.9402     4290.00000
    18.9533     4142.00000
    18.9664     4398.00000
    18.9796     4354.00000
    18.9927     4432.00000
    19.0058     4469.00000
    19.0190     4379.00000
    19.0321     4468.00000
    19.0452     4631.00000
    19.0584     4468.00000
    19.0715     4481.00000
    19.0846     4530.00000
    19.0978     4563.00000
    19.1109     4613.00000
    19.1240     4632.00000
    19.1371     4498.00000
    19.1503     4568.00000
    19.1634     4702.00000
    19.1765     4613.00000
    19.1897     4618.00000
    19.2028     4597.00000
    19.2159     4489.00000
    19.2291     4539.00000
    19.2422     4550.00000
    19.2553     4472.00000
    19.2684     4563.00000
    19.2816     4549.00000
    19.2947     4710.00000
    19.3078     4653.00000
    19.3210     4677.00000
    19.3341     4638.00000
    19.3472     4728.00000
    19.3604     4776.00000
    19.3735     4889.00000
    19.3866     5064.00000
    19.3997     4976.00000
    19.4129     5258.00000
    19.4260     5222.00000
    19.4391     5437.00000
    19.4523     5668.00000
    19.4654     5620.00000
    19.4785     6032.00000
    19.4917     6229.00000
    19.5048     6506.00000
    19.5179     7149.00000
    19.5311     8205.00000
    19.5442     9857.00000
    19.5573    11770.00000
    19.5704    15241.00000
    19.5836    20828.00000
    19.5967    30223.00000
    19.6098    45687.00000
    19.6230    67640.00000
    19.6361    92924.00000
    19.6492   115676.00000
    19.6624   126563.00000
    19.6755   121917.00000
    19.6886   112943.00000
    19.7017   104401.00000
    19.7149    89424.00000
    19.7280    67667.00000
    19.7411    49756.00000
    19.7543    36348.00000
    19.7674    25844.00000
    19.7805    18012.00000
    19.7937    13391.00000
    19.8068    10267.00000
    19.8199     8167.00000
    19.8330     6972.00000
    19.8462     6587.00000
    19.8593     5914.00000
    19.8724     5762.00000
    19.8856     5463.00000
    19.8987     5169.00000
    19.9118     4966.00000
    19.9250     4866.00000
    19.9381     4827.00000
    19.9512     4769.00000
    19.9643     4700.00000
    19.9775     4564.00000
    19.9906     4599.00000
    20.0037     4587.00000
    20.0169     4375.00000
    20.0300     4519.00000
    20.0431     4451.00000
    20.0563     4333.00000
    20.0694     4471.00000
    20.0825     4528.00000
    20.0957     4700.00000
    20.1088     4493.00000
    20.1219     4488.00000
    20.1350     4691.00000
    20.1482     4644.00000
    20.1613     4695.00000
    20.1744     4548.00000
    20.1876     4820.00000
    20.2007     4779.00000
    20.2138     4542.00000
    20.2270     4389.00000
    20.2401     4448.00000
    20.2532     4496.00000
    20.2663     4384.00000
    20.2795     4217.00000
    20.2926     4383.00000
    20.3057     4245.00000
    20.3189     4274.00000
    20.3320     4193.00000
    20.3451     4178.00000
    20.3583     4255.00000
    20.3714     4203.00000
    20.3845     4143.00000
    20.3976     4283.00000
    20.4108     4093.00000
    20.4239     4164.00000
    20.4370     4106.00000
    20.4502     4222.00000
    20.4633     4015.00000
    20.4764     4245.00000
    20.4896     4065.00000
    20.5027     4090.00000
    20.5158     4157.00000
    20.5290     4145.00000
    20.5421     4170.00000
    20.5552     4007.00000
    20.5683     3998.00000
    20.5815     4156.00000
    20.5946     4007.00000
    20.6077     4127.00000
    20.6209     3966.00000
    20.6340     4157.00000
    20.6471     3945.00000
    20.6603     4243.00000
    20.6734     3998.00000
    20.6865     4006.00000
    20.6996     4078.00000
    20.7128     4005.00000
    20.7259     4153.00000
    20.7390     3975.00000
    20.7522     4012.00000
    20.7653     4004.00000
    20.7784     4068.00000
    20.7916     4019.00000
    20.8047     4024.00000
    20.8178     4023.00000
    20.8309     4089.00000
    20.8441     4038.00000
    20.8572     4037.00000
    20.8703     4068.00000
    20.8835     3914.00000
    20.8966     4017.00000
    20.9097     4075.00000
    20.9229     4074.00000
    20.9360     3962.00000
    20.9491     3940.00000
    20.9623     4119.00000
    20.9754     3965.00000
    20.9885     3995.00000
    21.0016     4232.00000
    21.0148     3993.00000
    21.0279     4079.00000
    21.0410     3970.00000
    21.0542     3932.00000
    21.0673     3896.00000
    21.0804     4014.00000
    21.0936     3891.00000
    21.1067     3935.00000
    21.1198     3920.00000
    21.1329     3909.00000
    21.1461     3895.00000
    21.1592     3983.00000
    21.1723     3874.00000
    21.1855     3926.00000
    21.1986     3981.00000
    21.2117     3846.00000
    21.2249     3846.00000
    21.2380     3943.00000
    21.2511     3790.00000
    21.2642     3941.00000
    21.2774     3950.00000
    21.2905     3999.00000
    21.3036     3955.00000
    21.3168     3901.00000
    21.3299     3944.00000
    21.3430     3870.00000
    21.3562     3987.00000
    21.3693     3932.00000
    21.3824     3953.00000
    21.3956     3836.00000
    21.4087     3856.00000
    21.4218     3943.00000
    21.4349     3922.00000
    21.4481     3895.00000
    21.4612     3853.00000
    21.4743     3956.00000
    21.4875     3939.00000
    21.5006     3873.00000
    21.5137     3840.00000
    21.5269     3822.00000
    21.5400     3865.00000
    21.5531     3938.00000
    21.5662     3894.00000
    21.5794     3753.00000
    21.5925     3792.00000
    21.6056     3966.00000
    21.6188     3851.00000
    21.6319     3832.00000
    21.6450     3821.00000
    21.6582     3896.00000
    21.6713     3872.00000
    21.6844     3848.00000
    21.6975     3906.00000
    21.7107     3862.00000
    21.7238     3923.00000
    21.7369     3928.00000
    21.7501     3833.00000
    21.7632     3853.00000
    21.7763     4108.00000
    21.7895     4179.00000
    21.8026     4193.00000
    21.8157     4243.00000
    21.8288     4150.00000
    21.8420     4246.00000
    21.8551     4216.00000
    21.8682     4222.00000
    21.8814     3985.00000
    21.8945     4028.00000
    21.9076     4054.00000
    21.9208     4074.00000
    21.9339     3884.00000
    21.9470     3902.00000
    21.9602     3823.00000
    21.9733     3887.00000
    21.9864     3909.00000
    21.9995     4135.00000
    22.0127     4050.00000
    22.0258     3935.00000
    22.0389     3926.00000
    22.0521     4027.00000
    22.0652     3844.00000
    22.0783     3852.00000
    22.0915     3809.00000
    22.1046     3972.00000
    22.1177     3953.00000
    22.1308     4025.00000
    22.1440     3926.00000
    22.1571     3908.00000
    22.1702     3983.00000
    22.1834     4078.00000
    22.1965     4174.00000
    22.2096     4075.00000
    22.2228     4291.00000
    22.2359     4512.00000
    22.2490     4886.00000
    22.2621     5390.00000
    22.2753     6018.00000
    22.2884     7280.00000
    22.3015     9358.00000
    22.3147    12597.00000
    22.3278    16479.00000
    22.3409    19370.00000
    22.3541    19124.00000
    22.3672    18173.00000
    22.3803    17135.00000
    22.3935    16321.00000
    22.4066    14484.00000
    22.4197    11679.00000
    22.4328     9323.00000
    22.4460     7586.00000
    22.4591     6596.00000
    22.4722     5425.00000
    22.4854     4801.00000
    22.4985     4325.00000
    22.5116     4140.00000
    22.5248     4015.00000
    22.5379     3912.00000
    22.5510     3958.00000
    22.5641     3964.00000
    22.5773     3928.00000
    22.5904     3957.00000
    22.6035     3917.00000
    22.6167     3860.00000
    22.6298     3781.00000
    22.6429     3861.00000
    22.6561     3799.00000
    22.6692     3798.00000
    22.6823     3924.00000
    22.6954     3784.00000
    22.7086     3829.00000
    22.7217     3860.00000
    22.7348     3869.00000
    22.7480     3754.00000
    22.7611     3861.00000
    22.7742     3832.00000
    22.7874     3898.00000
    22.8005     3939.00000
    22.8136     3844.00000
    22.8268     3857.00000
    22.8399     3819.00000
    22.8530     3840.00000
    22.8661     3950.00000
    22.8793     3751.00000
    22.8924     3905.00000
    22.9055     3660.00000
    22.9187     3769.00000
    22.9318     3744.00000
    22.9449     3759.00000
    22.9581     3808.00000
    22.9712     3839.00000
    22.9843     3833.00000
    22.9974     3640.00000
    23.0106     3796.00000
    23.0237     3662.00000
    23.0368     3737.00000
    23.0500     3700.00000
    23.0631     3685.00000
    23.0762     3675.00000
    23.0894     3706.00000
    23.1025     3764.00000
    23.1156     3813.00000
    23.1287     3710.00000
    23.1419     3747.00000
    23.1550     3695.00000
    23.1681     3616.00000
    23.1813     3677.00000
    23.1944     3708.00000
    23.2075     3615.00000
    23.2207     3727.00000
    23.2338     3686.00000
    23.2469     3633.00000
    23.2601     3726.00000
    23.2732     3738.00000
    23.2863     3618.00000
    23.2994     3654.00000
    23.3126     3748.00000
    23.3257     3740.00000
    23.3388     3746.00000
    23.3520     3684.00000
    23.3651     3833.00000
    23.3782     3785.00000
    23.3914     3934.00000
    23.4045     3804.00000
    23.4176     3839.00000
    23.4307     3786.00000
    23.4439     3710.00000
    23.4570     3744.00000
    23.4701     3792.00000
    23.4833     3782.00000
    23.4964     3891.00000
    23.5095     3949.00000
    23.5227     3897.00000
    23.5358     3934.00000
    23.5489     3929.00000
    23.5620     3851.00000
    23.5752     3868.00000
    23.5883     3905.00000
    23.6014     3893.00000
    23.6146     3933.00000
    23.6277     3922.00000
    23.6408     3764.00000
    23.6540     4048.00000
    23.6671     3981.00000
    23.6802     3989.00000
    23.6933     3920.00000
    23.7065     3864.00000
    23.7196     3987.00000
    23.7327     3905.00000
    23.7459     3940.00000
    23.7590     3924.00000
    23.7721     3979.00000
    23.7853     3985.00000
    23.7984     3980.00000
    23.8115     4013.00000
    23.8247     3998.00000
    23.8378     4058.00000
    23.8509     4110.00000
    23.8640     4131.00000
    23.8772     4145.00000
    23.8903     4175.00000
    23.9034     4179.00000
    23.9166     4391.00000
    23.9297     4328.00000
    23.9428     4499.00000
    23.9560     4344.00000
    23.9691     4433.00000
    23.9822     4539.00000
    23.9953     4567.00000
    24.0085     4425.00000
    24.0216     4671.00000
    24.0347     4856.00000
    24.0479     4835.00000
    24.0610     5174.00000
    24.0741     5485.00000
    24.0873     5868.00000
    24.1004     6736.00000
    24.1135     8277.00000
    24.1266    10661.00000
    24.1398    15332.00000
    24.1529    21920.00000
    24.1660    30463.00000
    24.1792    38454.00000
    24.1923    44217.00000
    24.2054    47317.00000
    24.2186    43996.00000
    24.2317    38883.00000
    24.2448    35137.00000
    24.2580    32802.00000
    24.2711    28730.00000
    24.2842    23459.00000
    24.2973    19479.00000
    24.3105    18383.00000
    24.3236    20353.00000
    24.3367    26350.00000
    24.3499    34316.00000
    24.3630    40494.00000
    24.3761    45649.00000
    24.3893    48376.00000
    24.4024    47610.00000
    24.4155    43617.00000
    24.4286    39750.00000
    24.4418    35766.00000
    24.4549    30336.00000
    24.4680    23104.00000
    24.4812    17372.00000
    24.4943    13914.00000
    24.5074    10706.00000
    24.5206     7993.00000
    24.5337     6349.00000
    24.5468     5371.00000
    24.5599     4998.00000
    24.5731     4610.00000
    24.5862     4514.00000
    24.5993     4403.00000
    24.6125     4263.00000
    24.6256     4116.00000
    24.6387     4197.00000
    24.6519     4057.00000
    24.6650     4051.00000
    24.6781     3959.00000
    24.6913     3897.00000
    24.7044     3906.00000
    24.7175     3677.00000
    24.7306     3763.00000
    24.7438     3798.00000
    24.7569     3776.00000
    24.7700     3813.00000
    24.7832     3631.00000
    24.7963     3715.00000
    24.8094     3822.00000
    24.8226     3789.00000
    24.8357     3725.00000
    24.8488     3781.00000
    24.8619     3882.00000
    24.8751     3782.00000
    24.8882     3872.00000
    24.9013     3671.00000
    24.9145     3718.00000
    24.9276     3835.00000
    24.9407     3736.00000
    24.9539     3810.00000
    24.9670     3901.00000
    24.9801     3957.00000
    24.9932     4060.00000
    25.0064     3819.00000
    25.0195     3869.00000
    25.0326     3743.00000
    25.0458     3718.00000
    25.0589     3820.00000
    25.0720     3839.00000
    25.0852     3719.00000
    25.0983     3723.00000
    25.1114     3586.00000
    25.1246     3673.00000
    25.1377     3660.00000
    25.1508     3666.00000
    25.1639     3593.00000
    25.1771     3605.00000
    25.1902     3641.00000
    25.2033     3637.00000
    25.2165     3636.00000
    25.2296     3660.00000
    25.2427     3588.00000
    25.2559     3633.00000
    25.2690     3659.00000
    25.2821     3656.00000
    25.2952     3751.00000
    25.3084     3631.00000
    25.3215     3520.00000
    25.3346     3563.00000
    25.3478     3645.00000
    25.3609     3617.00000
    25.3740     3591.00000
    25.3872     3757.00000
    25.4003     3627.00000
    25.4134     3609.00000
    25.4265     3660.00000
    25.4397     3610.00000
    25.4528     3584.00000
    25.4659     3541.00000
    25.4791     3647.00000
    25.4922     3504.00000
    25.5053     3573.00000
    25.5185     3485.00000
    25.5316     3554.00000
    25.5447     3559.00000
    25.5579     3526.00000
    25.5710     3626.00000
    25.5841     3711.00000
    25.5972     3418.00000
    25.6104     3653.00000
    25.6235     3546.00000
    25.6366     3647.00000
    25.6498     3494.00000
    25.6629     3433.00000
    25.6760     3589.00000
    25.6892     3393.00000
    25.7023     3535.00000
    25.7154     3410.00000
    25.7285     3590.00000
    25.7417     3405.00000
    25.7548     3482.00000
    25.7679     3444.00000
    25.7811     3527.00000
    25.7942     3569.00000
    25.8073     3555.00000
    25.8205     3568.00000
    25.8336     3579.00000
    25.8467     3604.00000
    25.8598     3555.00000
    25.8730     3469.00000
    25.8861     3455.00000
    25.8992     3501.00000
    25.9124     3593.00000
    25.9255     3501.00000
    25.9386     3540.00000
    25.9518     3410.00000
    25.9649     3461.00000
    25.9780     3488.00000
    25.9911     3493.00000
    26.0043     3631.00000
    26.0174     3542.00000
    26.0305     3455.00000
    26.0437     3541.00000
    26.0568     3515.00000
    26.0699     3708.00000
    26.0831     3668.00000
    26.0962     3741.00000
    26.1093     3753.00000
    26.1225     3943.00000
    26.1356     3833.00000
    26.1487     4001.00000
    26.1618     3794.00000
    26.1750     3898.00000
    26.1881     3874.00000
    26.2012     3622.00000
    26.2144     3619.00000
    26.2275     3699.00000
    26.2406     3671.00000
    26.2538     3630.00000
    26.2669     3513.00000
    26.2800     3588.00000
    26.2931     3446.00000
    26.3063     3480.00000
    26.3194     3542.00000
    26.3325     3693.00000
    26.3457     3556.00000
    26.3588     3608.00000
    26.3719     3474.00000
    26.3851     3516.00000
    26.3982     3505.00000
    26.4113     3531.00000
    26.4244     3469.00000
    26.4376     3517.00000
    26.4507     3424.00000
    26.4638     3426.00000
    26.4770     3418.00000
    26.4901     3474.00000
    26.5032     3538.00000
    26.5164     3513.00000
    26.5295     3511.00000
    26.5426     3501.00000
    26.5558     3489.00000
    26.5689     3403.00000
    26.5820     3492.00000
    26.5951     3425.00000
    26.6083     3391.00000
    26.6214     3381.00000
    26.6345     3438.00000
    26.6477     3461.00000
    26.6608     3439.00000
    26.6739     3501.00000
    26.6871     3487.00000
    26.7002     3440.00000
    26.7133     3425.00000
    26.7264     3540.00000
    26.7396     3585.00000
    26.7527     3493.00000
    26.7658     3639.00000
    26.7790     3639.00000
    26.7921     3706.00000
    26.8052     3637.00000
    26.8184     3691.00000
    26.8315     3621.00000
    26.8446     3736.00000
    26.8577     3731.00000
    26.8709     3739.00000
    26.8840     3637.00000
    26.8971     3634.00000
    26.9103     3623.00000
    26.9234     3680.00000
    26.9365     3597.00000
    26.9497     3806.00000
    26.9628     3667.00000
    26.9759     3651.00000
    26.9891     3659.00000
    27.0022     3630.00000
    27.0153     3701.00000
    27.0284     3582.00000
    27.0416     3656.00000
    27.0547     3560.00000
    27.0678     3692.00000
    27.0810     3710.00000
    27.0941     3728.00000
    27.1072     3681.00000
    27.1204     3745.00000
    27.1335     3697.00000
    27.1466     3743.00000
    27.1597     3643.00000
    27.1729     3586.00000
    27.1860     3652.00000
    27.1991     3722.00000
    27.2123     3574.00000
    27.2254     3568.00000
    27.2385     3659.00000
    27.2517     3639.00000
    27.2648     3713.00000
    27.2779     3716.00000
    27.2910     3609.00000
    27.3042     3736.00000
    27.3173     3737.00000
    27.3304     3787.00000
    27.3436     3683.00000
    27.3567     3714.00000
    27.3698     3885.00000
    27.3830     3920.00000
    27.3961     3896.00000
    27.4092     3959.00000
    27.4224     3926.00000
    27.4355     4252.00000
    27.4486     4261.00000
    27.4617     4337.00000
    27.4749     4621.00000
    27.4880     4786.00000
    27.5011     4926.00000
    27.5143     5059.00000
    27.5274     5310.00000
    27.5405     5524.00000
    27.5537     6080.00000
    27.5668     6407.00000
    27.5799     7123.00000
    27.5930     7989.00000
    27.6062     9111.00000
    27.6193    11068.00000
    27.6324    14431.00000
    27.6456    20697.00000
    27.6587    30425.00000
    27.6718    46190.00000
    27.6850    64972.00000
    27.6981    80631.00000
    27.7112    86060.00000
    27.7243    81783.00000
    27.7375    73209.00000
    27.7506    66560.00000
    27.7637    62693.00000
    27.7769    56624.00000
    27.7900    48173.00000
    27.8031    37820.00000
    27.8163    29001.00000
    27.8294    21358.00000
    27.8425    15053.00000
    27.8556    11120.00000
    27.8688     8596.00000
    27.8819     7036.00000
    27.8950     6365.00000
    27.9082     5622.00000
    27.9213     5134.00000
    27.9344     4978.00000
    27.9476     4705.00000
    27.9607     4549.00000
    27.9738     4303.00000
    27.9870     4245.00000
    28.0001     4075.00000
    28.0132     4122.00000
    28.0263     4043.00000
    28.0395     3932.00000
    28.0526     3811.00000
    28.0657     3793.00000
    28.0789     3728.00000
    28.0920     3761.00000
    28.1051     3685.00000
    28.1183     3676.00000
    28.1314     3683.00000
    28.1445     3648.00000
    28.1576     3706.00000
    28.1708     3661.00000
    28.1839     3739.00000
    28.1970     3815.00000
    28.2102     3788.00000
    28.2233     3721.00000
    28.2364     3812.00000
    28.2496     3930.00000
    28.2627     3956.00000
    28.2758     3956.00000
    28.2889     3873.00000
    28.3021     3841.00000
    28.3152     3852.00000
    28.3283     3994.00000
    28.3415     3769.00000
    28.3546     3738.00000
    28.3677     3700.00000
    28.3809     3654.00000
    28.3940     3779.00000
    28.4071     3708.00000
    28.4203     3731.00000
    28.4334     3542.00000
    28.4465     3516.00000
    28.4596     3566.00000
    28.4728     3591.00000
    28.4859     3649.00000
    28.4990     3637.00000
    28.5122     3586.00000
    28.5253     3630.00000
    28.5384     3554.00000
    28.5516     3591.00000
    28.5647     3621.00000
    28.5778     3592.00000
    28.5909     3602.00000
    28.6041     3503.00000
    28.6172     3626.00000
    28.6303     3590.00000
    28.6435     3581.00000
    28.6566     3560.00000
    28.6697     3599.00000
    28.6829     3570.00000
    28.6960     3576.00000
    28.7091     3522.00000
    28.7222     3505.00000
    28.7354     3570.00000
    28.7485     3460.00000
    28.7616     3529.00000
    28.7748     3515.00000
    28.7879     3517.00000
    28.8010     3493.00000
    28.8142     3628.00000
    28.8273     3464.00000
    28.8404     3613.00000
    28.8536     3644.00000
    28.8667     3656.00000
    28.8798     3610.00000
    28.8929     3608.00000
    28.9061     3636.00000
    28.9192     3534.00000
    28.9323     3613.00000
    28.9455     3556.00000
    28.9586     3659.00000
    28.9717     3859.00000
    28.9849     3697.00000
    28.9980     3735.00000
    29.0111     3838.00000
    29.0242     3957.00000
    29.0374     3890.00000
    29.0505     4096.00000
    29.0636     4049.00000
    29.0768     4228.00000
    29.0899     4357.00000
    29.1030     4511.00000
    29.1162     4683.00000
    29.1293     4987.00000
    29.1424     5306.00000
    29.1555     5874.00000
    29.1687     7202.00000
    29.1818     9201.00000
    29.1949    13467.00000
    29.2081    19500.00000
    29.2212    26690.00000
    29.2343    32172.00000
    29.2475    33731.00000
    29.2606    32118.00000
    29.2737    28436.00000
    29.2869    26197.00000
    29.3000    25280.00000
    29.3131    24335.00000
    29.3262    22631.00000
    29.3394    20569.00000
    29.3525    19039.00000
    29.3656    19432.00000
    29.3788    19766.00000
    29.3919    20470.00000
    29.4050    20889.00000
    29.4182    19998.00000
    29.4313    17607.00000
    29.4444    15605.00000
    29.4575    14184.00000
    29.4707    13232.00000
    29.4838    11984.00000
    29.4969    10584.00000
    29.5101     8634.00000
    29.5232     7025.00000
    29.5363     5738.00000
    29.5495     4818.00000
    29.5626     4201.00000
    29.5757     4020.00000
    29.5888     3940.00000
    29.6020     3731.00000
    29.6151     3669.00000
    29.6282     3655.00000
    29.6414     3596.00000
    29.6545     3428.00000
    29.6676     3539.00000
    29.6808     3520.00000
    29.6939     3558.00000
    29.7070     3399.00000
    29.7201     3485.00000
    29.7333     3456.00000
    29.7464     3357.00000
    29.7595     3366.00000
    29.7727     3354.00000
    29.7858     3370.00000
    29.7989     3441.00000
    29.8121     3353.00000
    29.8252     3359.00000
    29.8383     3272.00000
    29.8515     3309.00000
    29.8646     3413.00000
    29.8777     3381.00000
    29.8908     3345.00000
    29.9040     3367.00000
    29.9171     3297.00000
    29.9302     3449.00000
    29.9434     3536.00000
    29.9565     3347.00000
    29.9696     3427.00000
    29.9828     3393.00000
    29.9959     3476.00000
    30.0090     3330.00000
    30.0221     3376.00000
    30.0353     3320.00000
    30.0484     3291.00000
    30.0615     3221.00000
    30.0747     3364.00000
    30.0878     3361.00000
    30.1009     3336.00000
    30.1141     3352.00000
    30.1272     3320.00000
    30.1403     3321.00000
    30.1535     3435.00000
    30.1666     3406.00000
    30.1797     3473.00000
    30.1928     3271.00000
    30.2060     3315.00000
    30.2191     3218.00000
    30.2322     3207.00000
    30.2454     3209.00000
    30.2585     3229.00000
    30.2716     3392.00000
    30.2848     3292.00000
    30.2979     3337.00000
    30.3110     3290.00000
    30.3241     3327.00000
    30.3373     3336.00000
    30.3504     3318.00000
    30.3635     3260.00000
    30.3767     3254.00000
    30.3898     3247.00000
    30.4029     3257.00000
    30.4161     3359.00000
    30.4292     3267.00000
    30.4423     3232.00000
    30.4554     3218.00000
    30.4686     3350.00000
    30.4817     3302.00000
    30.4948     3320.00000
    30.5080     3258.00000
    30.5211     3370.00000
    30.5342     3084.00000
    30.5474     3248.00000
    30.5605     3269.00000
    30.5736     3186.00000
    30.5868     3134.00000
    30.5999     3116.00000
    30.6130     3150.00000
    30.6261     3278.00000
    30.6393     3265.00000
    30.6524     3147.00000
    30.6655     3161.00000
    30.6787     3299.00000
    30.6918     3204.00000
    30.7049     3203.00000
    30.7181     3155.00000
    30.7312     3200.00000
    30.7443     3305.00000
    30.7574     3154.00000
    30.7706     3147.00000
    30.7837     3088.00000
    30.7968     3195.00000
    30.8100     3292.00000
    30.8231     3195.00000
    30.8362     3184.00000
    30.8494     3225.00000
    30.8625     3147.00000
    30.8756     3134.00000
    30.8887     3124.00000
    30.9019     3252.00000
    30.9150     3234.00000
    30.9281     3140.00000
    30.9413     3126.00000
    30.9544     3243.00000
    30.9675     3207.00000
    30.9807     3199.00000
    30.9938     3221.00000
    31.0069     3169.00000
    31.0200     3168.00000
    31.0332     3189.00000
    31.0463     3112.00000
    31.0594     3146.00000
    31.0726     3100.00000
    31.0857     3097.00000
    31.0988     3195.00000
    31.1120     3055.00000
    31.1251     3163.00000
    31.1382     3189.00000
    31.1514     3177.00000
    31.1645     3250.00000
    31.1776     3183.00000
    31.1907     3077.00000
    31.2039     3170.00000
    31.2170     3027.00000
    31.2301     3272.00000
    31.2433     3103.00000
    31.2564     3187.00000
    31.2695     3165.00000
    31.2827     3125.00000
    31.2958     3131.00000
    31.3089     3069.00000
    31.3220     3020.00000
    31.3352     3100.00000
    31.3483     3166.00000
    31.3614     3071.00000
    31.3746     3144.00000
    31.3877     3023.00000
    31.4008     3095.00000
    31.4140     3102.00000
    31.4271     3097.00000
    31.4402     3099.00000
    31.4533     3137.00000
    31.4665     3130.00000
    31.4796     2976.00000
    31.4927     3145.00000
    31.5059     3174.00000
    31.5190     3105.00000
    31.5321     3167.00000
    31.5453     3177.00000
    31.5584     3129.00000
    31.5715     3179.00000
    31.5847     3135.00000
    31.5978     3213.00000
    31.6109     3162.00000
    31.6240     3110.00000
    31.6372     3160.00000
    31.6503     3122.00000
    31.6634     2990.00000
    31.6766     3004.00000
    31.6897     3038.00000
    31.7028     3071.00000
    31.7160     3018.00000
    31.7291     3022.00000
    31.7422     3182.00000
    31.7553     3150.00000
    31.7685     3192.00000
    31.7816     3047.00000
    31.7947     3079.00000
    31.8079     3145.00000
    31.8210     3258.00000
    31.8341     3103.00000
    31.8473     2984.00000
    31.8604     3059.00000
    31.8735     3151.00000
    31.8866     3336.00000
    31.8998     3097.00000
    31.9129     3148.00000
    31.9260     3162.00000
    31.9392     3006.00000
    31.9523     3084.00000
    31.9654     3123.00000
    31.9786     3133.00000
    31.9917     3123.00000
    32.0048     3158.00000
    32.0180     3180.00000
    32.0311     3149.00000
    32.0442     2995.00000
    32.0573     3262.00000
    32.0705     3122.00000
    32.0836     3071.00000
    32.0967     3133.00000
    32.1099     3121.00000
    32.1230     3296.00000
    32.1361     3119.00000
    32.1493     3087.00000
    32.1624     3251.00000
    32.1755     3179.00000
    32.1886     3125.00000
    32.2018     3147.00000
    32.2149     3213.00000
    32.2280     3156.00000
    32.2412     3130.00000
    32.2543     3178.00000
    32.2674     3216.00000
    32.2806     3155.00000
    32.2937     3112.00000
    32.3068     3185.00000
    32.3199     3189.00000
    32.3331     3274.00000
    32.3462     3136.00000
    32.3593     3304.00000
    32.3725     3266.00000
    32.3856     3195.00000
    32.3987     3359.00000
    32.4119     3324.00000
    32.4250     3274.00000
    32.4381     3351.00000
    32.4512     3372.00000
    32.4644     3458.00000
    32.4775     3350.00000
    32.4906     3566.00000
    32.5038     3585.00000
    32.5169     3750.00000
    32.5300     3726.00000
    32.5432     3794.00000
    32.5563     3855.00000
    32.5694     3954.00000
    32.5826     4079.00000
    32.5957     4780.00000
    32.6088     5532.00000
    32.6219     7213.00000
    32.6351    10650.00000
    32.6482    14885.00000
    32.6613    19528.00000
    32.6745    21821.00000
    32.6876    19986.00000
    32.7007    16096.00000
    32.7139    13484.00000
    32.7270    12993.00000
    32.7401    13271.00000
    32.7532    13521.00000
    32.7664    12686.00000
    32.7795    10396.00000
    32.7926     8124.00000
    32.8058     6613.00000
    32.8189     5537.00000
    32.8320     4579.00000
    32.8452     4101.00000
    32.8583     3852.00000
    32.8714     3645.00000
    32.8845     3675.00000
    32.8977     3649.00000
    32.9108     3634.00000
    32.9239     3590.00000
    32.9371     3630.00000
    32.9502     3535.00000
    32.9633     3562.00000
    32.9765     3441.00000
    32.9896     3560.00000
    33.0027     3679.00000
    33.0159     3788.00000
    33.0290     3772.00000
    33.0421     3851.00000
    33.0552     3906.00000
    33.0684     4081.00000
    33.0815     4057.00000
    33.0946     4216.00000
    33.1078     4288.00000
    33.1209     4592.00000
    33.1340     4789.00000
    33.1472     5185.00000
    33.1603     5928.00000
    33.1734     7039.00000
    33.1865     9444.00000
    33.1997    13515.00000
    33.2128    19828.00000
    33.2259    27805.00000
    33.2391    34529.00000
    33.2522    35700.00000
    33.2653    32683.00000
    33.2785    28056.00000
    33.2916    24021.00000
    33.3047    22103.00000
    33.3178    22393.00000
    33.3310    21750.00000
    33.3441    20078.00000
    33.3572    16714.00000
    33.3704    13388.00000
    33.3835    10094.00000
    33.3966     7777.00000
    33.4098     6268.00000
    33.4229     5558.00000
    33.4360     5058.00000
    33.4492     4880.00000
    33.4623     4695.00000
    33.4754     4595.00000
    33.4885     4603.00000
    33.5017     4637.00000
    33.5148     4795.00000
    33.5279     4990.00000
    33.5411     5249.00000
    33.5542     5454.00000
    33.5673     5919.00000
    33.5805     6928.00000
    33.5936     8665.00000
    33.6067    11516.00000
    33.6198    15409.00000
    33.6330    19995.00000
    33.6461    24562.00000
    33.6592    28895.00000
    33.6724    30568.00000
    33.6855    29592.00000
    33.6986    27162.00000
    33.7118    24452.00000
    33.7249    22024.00000
    33.7380    20807.00000
    33.7511    21014.00000
    33.7643    21801.00000
    33.7774    22355.00000
    33.7905    23144.00000
    33.8037    22499.00000
    33.8168    19713.00000
    33.8299    15590.00000
    33.8431    12466.00000
    33.8562    11272.00000
    33.8693    10843.00000
    33.8825    10821.00000
    33.8956    10889.00000
    33.9087     9321.00000
    33.9218     7859.00000
    33.9350     6667.00000
    33.9481     5670.00000
    33.9612     4742.00000
    33.9744     4122.00000
    33.9875     3860.00000
    34.0006     3795.00000
    34.0138     3685.00000
    34.0269     3463.00000
    34.0400     3379.00000
    34.0531     3405.00000
    34.0663     3294.00000
    34.0794     3321.00000
    34.0925     3237.00000
    34.1057     3310.00000
    34.1188     3255.00000
    34.1319     3365.00000
    34.1451     3187.00000
    34.1582     3167.00000
    34.1713     3198.00000
    34.1844     3213.00000
    34.1976     3252.00000
    34.2107     3157.00000
    34.2238     3238.00000
    34.2370     3123.00000
    34.2501     3199.00000
    34.2632     3148.00000
    34.2764     3201.00000
    34.2895     3135.00000
    34.3026     3154.00000
    34.3158     3169.00000
    34.3289     3229.00000
    34.3420     3251.00000
    34.3551     3263.00000
    34.3683     3238.00000
    34.3814     3222.00000
    34.3945     3353.00000
    34.4077     3236.00000
    34.4208     3267.00000
    34.4339     3377.00000
    34.4471     3373.00000
    34.4602     3529.00000
    34.4733     3495.00000
    34.4864     3426.00000
    34.4996     3558.00000
    34.5127     3634.00000
    34.5258     3783.00000
    34.5390     4175.00000
    34.5521     4762.00000
    34.5652     5712.00000
    34.5784     7681.00000
    34.5915    10039.00000
    34.6046    12764.00000
    34.6177    14002.00000
    34.6309    13369.00000
    34.6440    11665.00000
    34.6571     9657.00000
    34.6703     9035.00000
    34.6834     8834.00000
    34.6965     9044.00000
    34.7097     9115.00000
    34.7228     8171.00000
    34.7359     6915.00000
    34.7491     5719.00000
    34.7622     4944.00000
    34.7753     4279.00000
    34.7884     3722.00000
    34.8016     3596.00000
    34.8147     3388.00000
    34.8278     3333.00000
    34.8410     3143.00000
    34.8541     3213.00000
    34.8672     3265.00000
    34.8804     3266.00000
    34.8935     3340.00000
    34.9066     3388.00000
    34.9197     3678.00000
    34.9329     3778.00000
    34.9460     3638.00000
    34.9591     3524.00000
    34.9723     3502.00000
    34.9854     3312.00000
    34.9985     3366.00000
    35.0117     3366.00000
    35.0248     3380.00000
    35.0379     3297.00000
    35.0510     3223.00000
    35.0642     3224.00000
    35.0773     3187.00000
    35.0904     3093.00000
    35.1036     3022.00000
    35.1167     3042.00000
    35.1298     2974.00000
    35.1430     3025.00000
    35.1561     3028.00000
    35.1692     2998.00000
    35.1824     2943.00000
    35.1955     2933.00000
    35.2086     3012.00000
    35.2217     2987.00000
    35.2349     3017.00000
    35.2480     2897.00000
    35.2611     2847.00000
    35.2743     2934.00000
    35.2874     2874.00000
    35.3005     3061.00000
    35.3137     2976.00000
    35.3268     2967.00000
    35.3399     2884.00000
    35.3530     2927.00000
    35.3662     2943.00000
    35.3793     2832.00000
    35.3924     2946.00000
    35.4056     2962.00000
    35.4187     2936.00000
    35.4318     2861.00000
    35.4450     2900.00000
    35.4581     2891.00000
    35.4712     2847.00000
    35.4843     2950.00000
    35.4975     2894.00000
    35.5106     3035.00000
    35.5237     2889.00000
    35.5369     3016.00000
    35.5500     2984.00000
    35.5631     2936.00000
    35.5763     2922.00000
    35.5894     2820.00000
    35.6025     3039.00000
    35.6156     3002.00000
    35.6288     2973.00000
    35.6419     2900.00000
    35.6550     2970.00000
    35.6682     2952.00000
    35.6813     2887.00000
    35.6944     2960.00000
    35.7076     2922.00000
    35.7207     2922.00000
    35.7338     2892.00000
    35.7470     2942.00000
    35.7601     2945.00000
    35.7732     2861.00000
    35.7863     2933.00000
    35.7995     2898.00000
    35.8126     3034.00000
    35.8257     2966.00000
    35.8389     2947.00000
    35.8520     2952.00000
    35.8651     2932.00000
    35.8783     2940.00000
    35.8914     2932.00000
    35.9045     2901.00000
    35.9176     2932.00000
    35.9308     2961.00000
    35.9439     3022.00000
    35.9570     2930.00000
    35.9702     2954.00000
    35.9833     2965.00000
    35.9964     2973.00000
    36.0096     2939.00000
    36.0227     2901.00000
    36.0358     2956.00000
    36.0489     2927.00000
    36.0621     2964.00000
    36.0752     3006.00000
    36.0883     2839.00000
    36.1015     2960.00000
    36.1146     2953.00000
    36.1277     2948.00000
    36.1409     2909.00000
    36.1540     3027.00000
    36.1671     2990.00000
    36.1802     2988.00000
    36.1934     2945.00000
    36.2065     2928.00000
    36.2196     2941.00000
    36.2328     2922.00000
    36.2459     2858.00000
    36.2590     2882.00000
    36.2722     2852.00000
    36.2853     2902.00000
    36.2984     2854.00000
    36.3116     2981.00000
    36.3247     2890.00000
    36.3378     2940.00000
    36.3509     2971.00000
    36.3641     2884.00000
    36.3772     2928.00000
    36.3903     2941.00000
    36.4035     2917.00000
    36.4166     3060.00000
    36.4297     2942.00000
    36.4429     3035.00000
    36.4560     2991.00000
    36.4691     3071.00000
    36.4822     2991.00000
    36.4954     3049.00000
    36.5085     3021.00000
    36.5216     3075.00000
    36.5348     3164.00000
    36.5479     3239.00000
    36.5610     3188.00000
    36.5742     3266.00000
    36.5873     3551.00000
    36.6004     3766.00000
    36.6135     4040.00000
    36.6267     4963.00000
    36.6398     6345.00000
    36.6529     8063.00000
    36.6661     9301.00000
    36.6792     9697.00000
    36.6923     9061.00000
    36.7055     7739.00000
    36.7186     6753.00000
    36.7317     6040.00000
    36.7449     6180.00000
    36.7580     6582.00000
    36.7711     6571.00000
    36.7842     6215.00000
    36.7974     5569.00000
    36.8105     4705.00000
    36.8236     4090.00000
    36.8368     3600.00000
    36.8499     3281.00000
    36.8630     3121.00000
    36.8762     3151.00000
    36.8893     3120.00000
    36.9024     3053.00000
    36.9155     3070.00000
    36.9287     2913.00000
    36.9418     3046.00000
    36.9549     2991.00000
    36.9681     3015.00000
    36.9812     3013.00000
    36.9943     3010.00000
    37.0075     3025.00000
    37.0206     3051.00000
    37.0337     2987.00000
    37.0468     3050.00000
    37.0600     3105.00000
    37.0731     3056.00000
    37.0862     3000.00000
    37.0994     3029.00000
    37.1125     3023.00000
    37.1256     3109.00000
    37.1388     3156.00000
    37.1519     3146.00000
    37.1650     3231.00000
    37.1782     3311.00000
    37.1913     3341.00000
    37.2044     3428.00000
    37.2175     3652.00000
    37.2307     4039.00000
    37.2438     4617.00000
    37.2569     5640.00000
    37.2701     6979.00000
    37.2832     8335.00000
    37.2963     9354.00000
    37.3095     9922.00000
    37.3226    10170.00000
    37.3357     9332.00000
    37.3488     8381.00000
    37.3620     7538.00000
    37.3751     7238.00000
    37.3882     6941.00000
    37.4014     6881.00000
    37.4145     6679.00000
    37.4276     6309.00000
    37.4408     5490.00000
    37.4539     4820.00000
    37.4670     4161.00000
    37.4801     3578.00000
    37.4933     3312.00000
    37.5064     3209.00000
    37.5195     3131.00000
    37.5327     3074.00000
    37.5458     3203.00000
    37.5589     3365.00000
    37.5721     3339.00000
    37.5852     3513.00000
    37.5983     3736.00000
    37.6115     3671.00000
    37.6246     3564.00000
    37.6377     3542.00000
    37.6508     3371.00000
    37.6640     3347.00000
    37.6771     3253.00000
    37.6902     3338.00000
    37.7034     3382.00000
    37.7165     3309.00000
    37.7296     3143.00000
    37.7428     3039.00000
    37.7559     3096.00000
    37.7690     2959.00000
    37.7821     2891.00000
    37.7953     2862.00000
    37.8084     2837.00000
    37.8215     2869.00000
    37.8347     2830.00000
    37.8478     2765.00000
    37.8609     2781.00000
    37.8741     2840.00000
    37.8872     2902.00000
    37.9003     2794.00000
    37.9134     2874.00000
    37.9266     2757.00000
    37.9397     2710.00000
    37.9528     2855.00000
    37.9660     2762.00000
    37.9791     2752.00000
    37.9922     2743.00000
    38.0054     2711.00000
    38.0185     2761.00000
    38.0316     2789.00000
    38.0448     2855.00000
    38.0579     2761.00000
    38.0710     2790.00000
    38.0841     2872.00000
    38.0973     2762.00000
    38.1104     2743.00000
    38.1235     2698.00000
    38.1367     2689.00000
    38.1498     2740.00000
    38.1629     2751.00000
    38.1761     2791.00000
    38.1892     2584.00000
    38.2023     2724.00000
    38.2154     2822.00000
    38.2286     2716.00000
    38.2417     2757.00000
    38.2548     2839.00000
    38.2680     2779.00000
    38.2811     2706.00000
    38.2942     2792.00000
    38.3074     2774.00000
    38.3205     2723.00000
    38.3336     2795.00000
    38.3467     2748.00000
    38.3599     2730.00000
    38.3730     2768.00000
    38.3861     2763.00000
    38.3993     2867.00000
    38.4124     2726.00000
    38.4255     2786.00000
    38.4387     2799.00000
    38.4518     2801.00000
    38.4649     2776.00000
    38.4781     2738.00000
    38.4912     2698.00000
    38.5043     2657.00000
    38.5174     2722.00000
    38.5306     2762.00000
    38.5437     2771.00000
    38.5568     2797.00000
    38.5700     2810.00000
    38.5831     2725.00000
    38.5962     2746.00000
    38.6094     2751.00000
    38.6225     2772.00000
    38.6356     2798.00000
    38.6487     2838.00000
    38.6619     2763.00000
    38.6750     2833.00000
    38.6881     2814.00000
    38.7013     2790.00000
    38.7144     2782.00000
    38.7275     2794.00000
    38.7407     2829.00000
    38.7538     2821.00000
    38.7669     2866.00000
    38.7800     2942.00000
    38.7932     2688.00000
    38.8063     2789.00000
    38.8194     2774.00000
    38.8326     2728.00000
    38.8457     2726.00000
    38.8588     2750.00000
    38.8720     2624.00000
    38.8851     2744.00000
    38.8982     2741.00000
    38.9114     2797.00000
    38.9245     2812.00000
    38.9376     2752.00000
    38.9507     2746.00000
    38.9639     2703.00000
    38.9770     2744.00000
    38.9901     2765.00000
    39.0033     2718.00000
    39.0164     2755.00000
    39.0295     2727.00000
    39.0427     2789.00000
    39.0558     2842.00000
    39.0689     2819.00000
    39.0820     2743.00000
    39.0952     2788.00000
    39.1083     2646.00000
    39.1214     2738.00000
    39.1346     2697.00000
    39.1477     2682.00000
    39.1608     2622.00000
    39.1740     2761.00000
    39.1871     2810.00000
    39.2002     2769.00000
    39.2133     2831.00000
    39.2265     2801.00000
    39.2396     2668.00000
    39.2527     2715.00000
    39.2659     2802.00000
    39.2790     2708.00000
    39.2921     2694.00000
    39.3053     2687.00000
    39.3184     2777.00000
    39.3315     2661.00000
    39.3446     2733.00000
    39.3578     2665.00000
    39.3709     2780.00000
    39.3840     2800.00000
    39.3972     2800.00000
    39.4103     2833.00000
    39.4234     2713.00000
    39.4366     2792.00000
    39.4497     2835.00000
    39.4628     2792.00000
    39.4760     2860.00000
    39.4891     2699.00000
    39.5022     2687.00000
    39.5153     2784.00000
    39.5285     2856.00000
    39.5416     2989.00000
    39.5547     2975.00000
    39.5679     3065.00000
    39.5810     3247.00000
    39.5941     3549.00000
    39.6073     3971.00000
    39.6204     4217.00000
    39.6335     4556.00000
    39.6466     4810.00000
    39.6598     4868.00000
    39.6729     4789.00000
    39.6860     4527.00000
    39.6992     4289.00000
    39.7123     3976.00000
    39.7254     3931.00000
    39.7386     3974.00000
    39.7517     4033.00000
    39.7648     4064.00000
    39.7779     3843.00000
    39.7911     3676.00000
    39.8042     3463.00000
    39.8173     3337.00000
    39.8305     3090.00000
    39.8436     3217.00000
    39.8567     3413.00000
    39.8699     3552.00000
    39.8830     3856.00000
    39.8961     4211.00000
    39.9092     4923.00000
    39.9224     6166.00000
    39.9355     7055.00000
    39.9486     7885.00000
    39.9618     7766.00000
    39.9749     6944.00000
    39.9880     6214.00000
    40.0012     5677.00000
    40.0143     5434.00000
    40.0274     5429.00000
    40.0406     5695.00000
    40.0537     5957.00000
    40.0668     5425.00000
    40.0799     5076.00000
    40.0931     4579.00000
    40.1062     4142.00000
    40.1193     3726.00000
    40.1325     3614.00000
    40.1456     3441.00000
    40.1587     3319.00000
    40.1719     3209.00000
    40.1850     3221.00000
    40.1981     3259.00000
    40.2112     3397.00000
    40.2244     3566.00000
    40.2375     3705.00000
    40.2506     4022.00000
    40.2638     4799.00000
    40.2769     5822.00000
    40.2900     7466.00000
    40.3032     9149.00000
    40.3163     9910.00000
    40.3294     9791.00000
    40.3425     8659.00000
    40.3557     7133.00000
    40.3688     6090.00000
    40.3819     5633.00000
    40.3951     5880.00000
    40.4082     6402.00000
    40.4213     6759.00000
    40.4345     6576.00000
    40.4476     5673.00000
    40.4607     4820.00000
    40.4739     4197.00000
    40.4870     3750.00000
    40.5001     3483.00000
    40.5132     3297.00000
    40.5264     3206.00000
    40.5395     3197.00000
    40.5526     3082.00000
    40.5658     2905.00000
    40.5789     2998.00000
    40.5920     3008.00000
    40.6052     2987.00000
    40.6183     2975.00000
    40.6314     2995.00000
    40.6445     2919.00000
    40.6577     2909.00000
    40.6708     3058.00000
    40.6839     3001.00000
    40.6971     3046.00000
    40.7102     3193.00000
    40.7233     3159.00000
    40.7365     3174.00000
    40.7496     3180.00000
    40.7627     3281.00000
    40.7758     3298.00000
    40.7890     3458.00000
    40.8021     3684.00000
    40.8152     3790.00000
    40.8284     4313.00000
    40.8415     4888.00000
    40.8546     5738.00000
    40.8678     7270.00000
    40.8809     8479.00000
    40.8940    10275.00000
    40.9072    11123.00000
    40.9203    11341.00000
    40.9334    10808.00000
    40.9465     9307.00000
    40.9597     8048.00000
    40.9728     7357.00000
    40.9859     7380.00000
    40.9991     8033.00000
    41.0122     8972.00000
    41.0253     9843.00000
    41.0385    10732.00000
    41.0516    11935.00000
    41.0647    13515.00000
    41.0778    13718.00000
    41.0910    12964.00000
    41.1041    11892.00000
    41.1172    10671.00000
    41.1304     9518.00000
    41.1435     9645.00000
    41.1566    11404.00000
    41.1698    13919.00000
    41.1829    15854.00000
    41.1960    16691.00000
    41.2091    15854.00000
    41.2223    13342.00000
    41.2354    10528.00000
    41.2485     8460.00000
    41.2617     7720.00000
    41.2748     7381.00000
    41.2879     7558.00000
    41.3011     8058.00000
    41.3142     7719.00000
    41.3273     6883.00000
    41.3405     5633.00000
    41.3536     4844.00000
    41.3667     4240.00000
    41.3798     3730.00000
    41.3930     3414.00000
    41.4061     3191.00000
    41.4192     3279.00000
    41.4324     3079.00000
    41.4455     2958.00000
    41.4586     2940.00000
    41.4718     2923.00000
    41.4849     2936.00000
    41.4980     2861.00000
    41.5111     2871.00000
    41.5243     2824.00000
    41.5374     2861.00000
    41.5505     2844.00000
    41.5637     2810.00000
    41.5768     2708.00000
    41.5899     2715.00000
    41.6031     2787.00000
    41.6162     2760.00000
    41.6293     2757.00000
    41.6424     2797.00000
    41.6556     2782.00000
    41.6687     2666.00000
    41.6818     2799.00000
    41.6950     2766.00000
    41.7081     2749.00000
    41.7212     2784.00000
    41.7344     2743.00000
    41.7475     2736.00000
    41.7606     2780.00000
    41.7738     2695.00000
    41.7869     2788.00000
    41.8000     2754.00000
    41.8131     2704.00000
    41.8263     2742.00000
    41.8394     2714.00000
    41.8525     2610.00000
    41.8657     2696.00000
    41.8788     2715.00000
    41.8919     2773.00000
    41.9051     2847.00000
    41.9182     2689.00000
    41.9313     2664.00000
    41.9444     2755.00000
    41.9576     2721.00000
    41.9707     2661.00000
    41.9838     2694.00000
    41.9970     2754.00000
    42.0101     2686.00000
    42.0232     2654.00000
    42.0364     2709.00000
    42.0495     2576.00000
    42.0626     2703.00000
    42.0757     2734.00000
    42.0889     2694.00000
    42.1020     2691.00000
    42.1151     2724.00000
    42.1283     2788.00000
    42.1414     2806.00000
    42.1545     2719.00000
    42.1677     2630.00000
    42.1808     2762.00000
    42.1939     2669.00000
    42.2071     2627.00000
    42.2202     2602.00000
    42.2333     2677.00000
    42.2464     2745.00000
    42.2596     2736.00000
    42.2727     2676.00000
    42.2858     2747.00000
    42.2990     2611.00000
    42.3121     2631.00000
    42.3252     2804.00000
    42.3384     2604.00000
    42.3515     2594.00000
    42.3646     2722.00000
    42.3777     2622.00000
    42.3909     2677.00000
    42.4040     2679.00000
    42.4171     2659.00000
    42.4303     2759.00000
    42.4434     2517.00000
    42.4565     2743.00000
    42.4697     2624.00000
    42.4828     2658.00000
    42.4959     2697.00000
    42.5090     2700.00000
    42.5222     2736.00000
    42.5353     2571.00000
    42.5484     2719.00000
    42.5616     2699.00000
    42.5747     2718.00000
    42.5878     2728.00000
    42.6010     2722.00000
    42.6141     2765.00000
    42.6272     2653.00000
    42.6404     2585.00000
    42.6535     2725.00000
    42.6666     2740.00000
    42.6797     2659.00000
    42.6929     2758.00000
    42.7060     2777.00000
    42.7191     2710.00000
    42.7323     2685.00000
    42.7454     2637.00000
    42.7585     2732.00000
    42.7717     2730.00000
    42.7848     2717.00000
    42.7979     2731.00000
    42.8110     2766.00000
    42.8242     2667.00000
    42.8373     2667.00000
    42.8504     2667.00000
    42.8636     2627.00000
    42.8767     2709.00000
    42.8898     2719.00000
    42.9030     2742.00000
    42.9161     2763.00000
    42.9292     2684.00000
    42.9423     2782.00000
    42.9555     2744.00000
    42.9686     2644.00000
    42.9817     2730.00000
    42.9949     2632.00000
    43.0080     2706.00000
    43.0211     2717.00000
    43.0343     2666.00000
    43.0474     2582.00000
    43.0605     2574.00000
    43.0736     2599.00000
    43.0868     2810.00000
    43.0999     2732.00000
    43.1130     2698.00000
    43.1262     2687.00000
    43.1393     2637.00000
    43.1524     2728.00000
    43.1656     2715.00000
    43.1787     2548.00000
    43.1918     2625.00000
    43.2050     2770.00000
    43.2181     2676.00000
    43.2312     2574.00000
    43.2443     2615.00000
    43.2575     2790.00000
    43.2706     2710.00000
    43.2837     2777.00000
    43.2969     2854.00000
    43.3100     3009.00000
    43.3231     2983.00000
    43.3363     3281.00000
    43.3494     3333.00000
    43.3625     3405.00000
    43.3756     3291.00000
    43.3888     3221.00000
    43.4019     3041.00000
    43.4150     3021.00000
    43.4282     3008.00000
    43.4413     3022.00000
    43.4544     3119.00000
    43.4676     3264.00000
    43.4807     3118.00000
    43.4938     3023.00000
    43.5069     2966.00000
    43.5201     2870.00000
    43.5332     2725.00000
    43.5463     2619.00000
    43.5595     2696.00000
    43.5726     2566.00000
    43.5857     2714.00000
    43.5989     2696.00000
    43.6120     2674.00000
    43.6251     2720.00000
    43.6383     2714.00000
    43.6514     2592.00000
    43.6645     2671.00000
    43.6776     2663.00000
    43.6908     2682.00000
    43.7039     2668.00000
    43.7170     2542.00000
    43.7302     2678.00000
    43.7433     2561.00000
    43.7564     2686.00000
    43.7696     2724.00000
    43.7827     2740.00000
    43.7958     2761.00000
    43.8089     2639.00000
    43.8221     2704.00000
    43.8352     2630.00000
    43.8483     2754.00000
    43.8615     2656.00000
    43.8746     2654.00000
    43.8877     2713.00000
    43.9009     2704.00000
    43.9140     2640.00000
    43.9271     2677.00000
    43.9402     2639.00000
    43.9534     2715.00000
    43.9665     2695.00000
    43.9796     2711.00000
    43.9928     2565.00000
    44.0059     2805.00000
    44.0190     2775.00000
    44.0322     2742.00000
    44.0453     2767.00000
    44.0584     2905.00000
    44.0715     2965.00000
    44.0847     3026.00000
    44.0978     3082.00000
    44.1109     3327.00000
    44.1241     3753.00000
    44.1372     3983.00000
    44.1503     4225.00000
    44.1635     4077.00000
    44.1766     3762.00000
    44.1897     3498.00000
    44.2029     3181.00000
    44.2160     3306.00000
    44.2291     3166.00000
    44.2422     3518.00000
    44.2554     3579.00000
    44.2685     3477.00000
    44.2816     3446.00000
    44.2948     3280.00000
    44.3079     3227.00000
    44.3210     3083.00000
    44.3342     3004.00000
    44.3473     2965.00000
    44.3604     2961.00000
    44.3735     3051.00000
    44.3867     3025.00000
    44.3998     3199.00000
    44.4129     3509.00000
    44.4261     3841.00000
    44.4392     4315.00000
    44.4523     4782.00000
    44.4655     5166.00000
    44.4786     5617.00000
    44.4917     5565.00000
    44.5048     5179.00000
    44.5180     4598.00000
    44.5311     4412.00000
    44.5442     4100.00000
    44.5574     3942.00000
    44.5705     4021.00000
    44.5836     4235.00000
    44.5968     4166.00000
    44.6099     4095.00000
    44.6230     3989.00000
    44.6362     3591.00000
    44.6493     3291.00000
    44.6624     3046.00000
    44.6755     3026.00000
    44.6887     2913.00000
    44.7018     2878.00000
    44.7149     2775.00000
    44.7281     2759.00000
    44.7412     2735.00000
    44.7543     2771.00000
    44.7675     2709.00000
    44.7806     2708.00000
    44.7937     2680.00000
    44.8068     2614.00000
    44.8200     2728.00000
    44.8331     2802.00000
    44.8462     2826.00000
    44.8594     2717.00000
    44.8725     2769.00000
    44.8856     2696.00000
    44.8988     2707.00000
    44.9119     2674.00000
    44.9250     2741.00000
    44.9381     2683.00000
    44.9513     2736.00000
    44.9644     2665.00000
    44.9775     2643.00000
    44.9907     2698.00000
    45.0038     2687.00000
    45.0169     2611.00000
    45.0301     2589.00000
    45.0432     2636.00000
    45.0563     2564.00000
    45.0695     2624.00000
    45.0826     2681.00000
    45.0957     2638.00000
    45.1088     2605.00000
    45.1220     2579.00000
    45.1351     2745.00000
    45.1482     2645.00000
    45.1614     2717.00000
    45.1745     2701.00000
    45.1876     2612.00000
    45.2008     2633.00000
    45.2139     2575.00000
    45.2270     2607.00000
    45.2401     2523.00000
    45.2533     2636.00000
    45.2664     2615.00000
    45.2795     2657.00000
    45.2927     2612.00000
    45.3058     2775.00000
    45.3189     2653.00000
    45.3321     2741.00000
    45.3452     2802.00000
    45.3583     2780.00000
    45.3714     2784.00000
    45.3846     2765.00000
    45.3977     2837.00000
    45.4108     2793.00000
    45.4240     2778.00000
    45.4371     2871.00000
    45.4502     2869.00000
    45.4634     2868.00000
    45.4765     2830.00000
    45.4896     2955.00000
    45.5028     3053.00000
    45.5159     3126.00000
    45.5290     3301.00000
    45.5421     3538.00000
    45.5553     3846.00000
    45.5684     4453.00000
    45.5815     5697.00000
    45.5947     7599.00000
    45.6078    10196.00000
    45.6209    11787.00000
    45.6341    11687.00000
    45.6472     9954.00000
    45.6603     7903.00000
    45.6734     6430.00000
    45.6866     5453.00000
    45.6997     5103.00000
    45.7128     5616.00000
    45.7260     6361.00000
    45.7391     7317.00000
    45.7522     7459.00000
    45.7654     6525.00000
    45.7785     5458.00000
    45.7916     4592.00000
    45.8047     3992.00000
    45.8179     3425.00000
    45.8310     3240.00000
    45.8441     3052.00000
    45.8573     2999.00000
    45.8704     2850.00000
    45.8835     2800.00000
    45.8967     2783.00000
    45.9098     2826.00000
    45.9229     2761.00000
    45.9361     2833.00000
    45.9492     2731.00000
    45.9623     2843.00000
    45.9754     2722.00000
    45.9886     2788.00000
    46.0017     2672.00000
    46.0148     2746.00000
    46.0280     2860.00000
    46.0411     2820.00000
    46.0542     2746.00000
    46.0674     2775.00000
    46.0805     2956.00000
    46.0936     2820.00000
    46.1067     2784.00000
    46.1199     2870.00000
    46.1330     2833.00000
    46.1461     2904.00000
    46.1593     2782.00000
    46.1724     2823.00000
    46.1855     2842.00000
    46.1987     2937.00000
    46.2118     2901.00000
    46.2249     2936.00000
    46.2380     3173.00000
    46.2512     3317.00000
    46.2643     3688.00000
    46.2774     4228.00000
    46.2906     5123.00000
    46.3037     6297.00000
    46.3168     7092.00000
    46.3300     7132.00000
    46.3431     6452.00000
    46.3562     5447.00000
    46.3694     4471.00000
    46.3825     3996.00000
    46.3956     3977.00000
    46.4087     4213.00000
    46.4219     4477.00000
    46.4350     4886.00000
    46.4481     5005.00000
    46.4613     4886.00000
    46.4744     4294.00000
    46.4875     3741.00000
    46.5007     3317.00000
    46.5138     3112.00000
    46.5269     2959.00000
    46.5400     2942.00000
    46.5532     2902.00000
    46.5663     2847.00000
    46.5794     2894.00000
    46.5926     2975.00000
    46.6057     2711.00000
    46.6188     2854.00000
    46.6320     2785.00000
    46.6451     2814.00000
    46.6582     2744.00000
    46.6713     2751.00000
    46.6845     2799.00000
    46.6976     2765.00000
    46.7107     2863.00000
    46.7239     2789.00000
    46.7370     2792.00000
    46.7501     2831.00000
    46.7633     2783.00000
    46.7764     2912.00000
    46.7895     2858.00000
    46.8027     2898.00000
    46.8158     2842.00000
    46.8289     2864.00000
    46.8420     2890.00000
    46.8552     2780.00000
    46.8683     2913.00000
    46.8814     2942.00000
    46.8946     2975.00000
    46.9077     2930.00000
    46.9208     3187.00000
    46.9340     3003.00000
    46.9471     3210.00000
    46.9602     3332.00000
    46.9733     3497.00000
    46.9865     3915.00000
    46.9996     4291.00000
    47.0127     5132.00000
    47.0259     6200.00000
    47.0390     6978.00000
    47.0521     7738.00000
    47.0653     8387.00000
    47.0784     8715.00000
    47.0915     8212.00000
    47.1046     7071.00000
    47.1178     5833.00000
    47.1309     5315.00000
    47.1440     5046.00000
    47.1572     5437.00000
    47.1703     5610.00000
    47.1834     5821.00000
    47.1966     5888.00000
    47.2097     5612.00000
    47.2228     5137.00000
    47.2359     4374.00000
    47.2491     3963.00000
    47.2622     3555.00000
    47.2753     3387.00000
    47.2885     3217.00000
    47.3016     3080.00000
    47.3147     3176.00000
    47.3279     3168.00000
    47.3410     3016.00000
    47.3541     3027.00000
    47.3673     3071.00000
    47.3804     3147.00000
    47.3935     3182.00000
    47.4066     3283.00000
    47.4198     3131.00000
    47.4329     3075.00000
    47.4460     3115.00000
    47.4592     3234.00000
    47.4723     3223.00000
    47.4854     3298.00000
    47.4986     3403.00000
    47.5117     3358.00000
    47.5248     3527.00000
    47.5379     3462.00000
    47.5511     3461.00000
    47.5642     3550.00000
    47.5773     3662.00000
    47.5905     3800.00000
    47.6036     4117.00000
    47.6167     4380.00000
    47.6299     4760.00000
    47.6430     5314.00000
    47.6561     6188.00000
    47.6692     7499.00000
    47.6824     9598.00000
    47.6955    12229.00000
    47.7086    15908.00000
    47.7218    18847.00000
    47.7349    20790.00000
    47.7480    19879.00000
    47.7612    17302.00000
    47.7743    14069.00000
    47.7874    11877.00000
    47.8005    10384.00000
    47.8137    10010.00000
    47.8268    10502.00000
    47.8399    11738.00000
    47.8531    12107.00000
    47.8662    12400.00000
    47.8793    11412.00000
    47.8925     9746.00000
    47.9056     7934.00000
    47.9187     6483.00000
    47.9319     5473.00000
    47.9450     4812.00000
    47.9581     4252.00000
    47.9712     3947.00000
    47.9844     3617.00000
    47.9975     3493.00000
    48.0106     3370.00000
    48.0238     3371.00000
    48.0369     3314.00000
    48.0500     3188.00000
    48.0632     3247.00000
    48.0763     3213.00000
    48.0894     3127.00000
    48.1025     3147.00000
    48.1157     3197.00000
    48.1288     3162.00000
    48.1419     3203.00000
    48.1551     3313.00000
    48.1682     3270.00000
    48.1813     3354.00000
    48.1945     3282.00000
    48.2076     3496.00000
    48.2207     3497.00000
    48.2338     3683.00000
    48.2470     4003.00000
    48.2601     4434.00000
    48.2732     5207.00000
    48.2864     6499.00000
    48.2995     8511.00000
    48.3126    10569.00000
    48.3258    12091.00000
    48.3389    12652.00000
    48.3520    12668.00000
    48.3652    12888.00000
    48.3783    13198.00000
    48.3914    12615.00000
    48.4045    11764.00000
    48.4177    10938.00000
    48.4308    10246.00000
    48.4439     9679.00000
    48.4571     9076.00000
    48.4702     8695.00000
    48.4833     8306.00000
    48.4965     8568.00000
    48.5096     8292.00000
    48.5227     7721.00000
    48.5358     7047.00000
    48.5490     6305.00000
    48.5621     5498.00000
    48.5752     4810.00000
    48.5884     4312.00000
    48.6015     4065.00000
    48.6146     3920.00000
    48.6278     4266.00000
    48.6409     4578.00000
    48.6540     5436.00000
    48.6671     6406.00000
    48.6803     8094.00000
    48.6934    10156.00000
    48.7065    12191.00000
    48.7197    12939.00000
    48.7328    12738.00000
    48.7459    11111.00000
    48.7591     9027.00000
    48.7722     7215.00000
    48.7853     6413.00000
    48.7985     6246.00000
    48.8116     6581.00000
    48.8247     7268.00000
    48.8378     8080.00000
    48.8510     8075.00000
    48.8641     7824.00000
    48.8772     6778.00000
    48.8904     5819.00000
    48.9035     4808.00000
    48.9166     4122.00000
    48.9298     3745.00000
    48.9429     3454.00000
    48.9560     3322.00000
    48.9691     3179.00000
    48.9823     3173.00000
    48.9954     3134.00000
    49.0085     3032.00000
    49.0217     3074.00000
    49.0348     3035.00000
    49.0479     2955.00000
    49.0611     2985.00000
    49.0742     2784.00000
    49.0873     2863.00000
    49.1004     2863.00000
    49.1136     2924.00000
    49.1267     2818.00000
    49.1398     2851.00000
    49.1530     2871.00000
    49.1661     2868.00000
    49.1792     2797.00000
    49.1924     2824.00000
    49.2055     2843.00000
    49.2186     2874.00000
    49.2318     2905.00000
    49.2449     2839.00000
    49.2580     2859.00000
    49.2711     2977.00000
    49.2843     2937.00000
    49.2974     2856.00000
    49.3105     2997.00000
    49.3237     3021.00000
    49.3368     3236.00000
    49.3499     3394.00000
    49.3631     3521.00000
    49.3762     3534.00000
    49.3893     3600.00000
    49.4024     3488.00000
    49.4156     3348.00000
    49.4287     3268.00000
    49.4418     3175.00000
    49.4550     3014.00000
    49.4681     3209.00000
    49.4812     3246.00000
    49.4944     3348.00000
    49.5075     3459.00000
    49.5206     3496.00000
    49.5337     3415.00000
    49.5469     3484.00000
    49.5600     3411.00000
    49.5731     3406.00000
    49.5863     3412.00000
    49.5994     3425.00000
    49.6125     3430.00000
    49.6257     3400.00000
    49.6388     3401.00000
    49.6519     3362.00000
    49.6651     3227.00000
    49.6782     3347.00000
    49.6913     3419.00000
    49.7044     3508.00000
    49.7176     3662.00000
    49.7307     3531.00000
    49.7438     3547.00000
    49.7570     3496.00000
    49.7701     3537.00000
    49.7832     3681.00000
    49.7964     3836.00000
    49.8095     3863.00000
    49.8226     4165.00000
    49.8357     4635.00000
    49.8489     5227.00000
    49.8620     6313.00000
    49.8751     7780.00000
    49.8883    10380.00000
    49.9014    13379.00000
    49.9145    16478.00000
    49.9277    18693.00000
    49.9408    18953.00000
    49.9539    17314.00000
    49.9670    14847.00000
    49.9802    12371.00000
    49.9933    10614.00000
    50.0064     9776.00000
    50.0196    10074.00000
    50.0327    10743.00000
    50.0458    11609.00000
    50.0590    12171.00000
    50.0721    11865.00000
    50.0852    10866.00000
    50.0984     9658.00000
    50.1115     8032.00000
    50.1246     6775.00000
    50.1377     5848.00000
    50.1509     5290.00000
    50.1640     4809.00000
    50.1771     4525.00000
    50.1903     4260.00000
    50.2034     3900.00000
    50.2165     3757.00000
    50.2297     3713.00000
    50.2428     3633.00000
    50.2559     3591.00000
    50.2690     3609.00000
    50.2822     3568.00000
    50.2953     3631.00000
    50.3084     3719.00000
    50.3216     3939.00000
    50.3347     4235.00000
    50.3478     4549.00000
    50.3610     5163.00000
    50.3741     5988.00000
    50.3872     7219.00000
    50.4003     8433.00000
    50.4135     9965.00000
    50.4266    10818.00000
    50.4397    11452.00000
    50.4529    11157.00000
    50.4660     9805.00000
    50.4791     8268.00000
    50.4923     7249.00000
    50.5054     6530.00000
    50.5185     6231.00000
    50.5317     6555.00000
    50.5448     6758.00000
    50.5579     7160.00000
    50.5710     7416.00000
    50.5842     7229.00000
    50.5973     6678.00000
    50.6104     5742.00000
    50.6236     4897.00000
    50.6367     4272.00000
    50.6498     3892.00000
    50.6630     3557.00000
    50.6761     3384.00000
    50.6892     3286.00000
    50.7023     3220.00000
    50.7155     3129.00000
    50.7286     3096.00000
    50.7417     2967.00000
    50.7549     3167.00000
    50.7680     3041.00000
    50.7811     2972.00000
    50.7943     2965.00000
    50.8074     2872.00000
    50.8205     2884.00000
    50.8336     2901.00000
    50.8468     2827.00000
    50.8599     2849.00000
    50.8730     2923.00000
    50.8862     2891.00000
    50.8993     2850.00000
    50.9124     2916.00000
    50.9256     2838.00000
    50.9387     2928.00000
    50.9518     2947.00000
    50.9649     2849.00000
    50.9781     2851.00000
    50.9912     2876.00000
    51.0043     2773.00000
    51.0175     2960.00000
    51.0306     2947.00000
    51.0437     2957.00000
    51.0569     2840.00000
    51.0700     3018.00000
    51.0831     2943.00000
    51.0963     2936.00000
    51.1094     2959.00000
    51.1225     2953.00000
    51.1356     2992.00000
    51.1488     2931.00000
    51.1619     3021.00000
    51.1750     3201.00000
    51.1882     3074.00000
    51.2013     3178.00000
    51.2144     3146.00000
    51.2276     3408.00000
    51.2407     3663.00000
    51.2538     4201.00000
    51.2669     4954.00000
    51.2801     6002.00000
    51.2932     7452.00000
    51.3063     8850.00000
    51.3195     9100.00000
    51.3326     8596.00000
    51.3457     7448.00000
    51.3589     6300.00000
    51.3720     5277.00000
    51.3851     4742.00000
    51.3982     4653.00000
    51.4114     4732.00000
    51.4245     5157.00000
    51.4376     5790.00000
    51.4508     6029.00000
    51.4639     5987.00000
    51.4770     5414.00000
    51.4902     5023.00000
    51.5033     4382.00000
    51.5164     4099.00000
    51.5296     4063.00000
    51.5427     3775.00000
    51.5558     3773.00000
    51.5689     3472.00000
    51.5821     3482.00000
    51.5952     3308.00000
    51.6083     3154.00000
    51.6215     3128.00000
    51.6346     3050.00000
    51.6477     3058.00000
    51.6609     3064.00000
    51.6740     3026.00000
    51.6871     3057.00000
    51.7002     3125.00000
    51.7134     3155.00000
    51.7265     2947.00000
    51.7396     2895.00000
    51.7528     2885.00000
    51.7659     2847.00000
    51.7790     2829.00000
    51.7922     2824.00000
    51.8053     2890.00000
    51.8184     2854.00000
    51.8315     2742.00000
    51.8447     2896.00000
    51.8578     2881.00000
    51.8709     2841.00000
    51.8841     2795.00000
    51.8972     2745.00000
    51.9103     2779.00000
    51.9235     2840.00000
    51.9366     2753.00000
    51.9497     2822.00000
    51.9628     2825.00000
    51.9760     2816.00000
    51.9891     2858.00000
    52.0022     2849.00000
    52.0154     2856.00000
    52.0285     2750.00000
    52.0416     2815.00000
    52.0548     2844.00000
    52.0679     2777.00000
    52.0810     2729.00000
    52.0942     2754.00000
    52.1073     2684.00000
    52.1204     2746.00000
    52.1335     2755.00000
    52.1467     2715.00000
    52.1598     2768.00000
    52.1729     2932.00000
    52.1861     2767.00000
    52.1992     2855.00000
    52.2123     2881.00000
    52.2255     2915.00000
    52.2386     2847.00000
    52.2517     2871.00000
    52.2648     2994.00000
    52.2780     2888.00000
    52.2911     3031.00000
    52.3042     2986.00000
    52.3174     2977.00000
    52.3305     3048.00000
    52.3436     3162.00000
    52.3568     3194.00000
    52.3699     3214.00000
    52.3830     3380.00000
    52.3961     3705.00000
    52.4093     3919.00000
    52.4224     4581.00000
    52.4355     5228.00000
    52.4487     6301.00000
    52.4618     7533.00000
    52.4749     8662.00000
    52.4881     9861.00000
    52.5012    10572.00000
    52.5143    10768.00000
    52.5275    10355.00000
    52.5406     9192.00000
    52.5537     8027.00000
    52.5668     6861.00000
    52.5800     6012.00000
    52.5931     5853.00000
    52.6062     6080.00000
    52.6194     6585.00000
    52.6325     6758.00000
    52.6456     7001.00000
    52.6588     6942.00000
    52.6719     6451.00000
    52.6850     5857.00000
    52.6981     5146.00000
    52.7113     4509.00000
    52.7244     4044.00000
    52.7375     3623.00000
    52.7507     3499.00000
    52.7638     3472.00000
    52.7769     3496.00000
    52.7901     3542.00000
    52.8032     3751.00000
    52.8163     4159.00000
    52.8294     4590.00000
    52.8426     5073.00000
    52.8557     5452.00000
    52.8688     5642.00000
    52.8820     5697.00000
    52.8951     5962.00000
    52.9082     6135.00000
    52.9214     6055.00000
    52.9345     5777.00000
    52.9476     5287.00000
    52.9608     5037.00000
    52.9739     4586.00000
    52.9870     4432.00000
    53.0001     4416.00000
    53.0133     4361.00000
    53.0264     4415.00000
    53.0395     4389.00000
    53.0527     4356.00000
    53.0658     4408.00000
    53.0789     4141.00000
    53.0921     3805.00000
    53.1052     3465.00000
    53.1183     3239.00000
    53.1314     3077.00000
    53.1446     2895.00000
    53.1577     2796.00000
    53.1708     2768.00000
    53.1840     2801.00000
    53.1971     2777.00000
    53.2102     2817.00000
    53.2234     2719.00000
    53.2365     2728.00000
    53.2496     2848.00000
    53.2627     2804.00000
    53.2759     2724.00000
    53.2890     2825.00000
    53.3021     2697.00000
    53.3153     2771.00000
    53.3284     2738.00000
    53.3415     2745.00000
    53.3547     2743.00000
    53.3678     2747.00000
    53.3809     2827.00000
    53.3941     2924.00000
    53.4072     2931.00000
    53.4203     2911.00000
    53.4334     2994.00000
    53.4466     3033.00000
    53.4597     3273.00000
    53.4728     3493.00000
    53.4860     3662.00000
    53.4991     3837.00000
    53.5122     4066.00000
    53.5254     4326.00000
    53.5385     4354.00000
    53.5516     3998.00000
    53.5647     3684.00000
    53.5779     3450.00000
    53.5910     3383.00000
    53.6041     3185.00000
    53.6173     3319.00000
    53.6304     3307.00000
    53.6435     3333.00000
    53.6567     3508.00000
    53.6698     3571.00000
    53.6829     3547.00000
    53.6960     3336.00000
    53.7092     3096.00000
    53.7223     3075.00000
    53.7354     2916.00000
    53.7486     2863.00000
    53.7617     2821.00000
    53.7748     2861.00000
    53.7880     2754.00000
    53.8011     2797.00000
    53.8142     2656.00000
    53.8274     2661.00000
    53.8405     2697.00000
    53.8536     2654.00000
    53.8667     2667.00000
    53.8799     2645.00000
    53.8930     2749.00000
    53.9061     2740.00000
    53.9193     2584.00000
    53.9324     2719.00000
    53.9455     2639.00000
    53.9587     2732.00000
    53.9718     2633.00000
    53.9849     2744.00000
    53.9980     2627.00000
    54.0112     2682.00000
    54.0243     2679.00000
    54.0374     2767.00000
    54.0506     2668.00000
    54.0637     2690.00000
    54.0768     2717.00000
    54.0900     2603.00000
    54.1031     2691.00000
    54.1162     2716.00000
    54.1293     2675.00000
    54.1425     2676.00000
    54.1556     2691.00000
    54.1687     2784.00000
    54.1819     2793.00000
    54.1950     2780.00000
    54.2081     2771.00000
    54.2213     2986.00000
    54.2344     3001.00000
    54.2475     2978.00000
    54.2607     3044.00000
    54.2738     3108.00000
    54.2869     3046.00000
    54.3000     3030.00000
    54.3132     3142.00000
    54.3263     3001.00000
    54.3394     3029.00000
    54.3526     2835.00000
    54.3657     2974.00000
    54.3788     2980.00000
    54.3920     2936.00000
    54.4051     2786.00000
    54.4182     2840.00000
    54.4313     2826.00000
    54.4445     2832.00000
    54.4576     2864.00000
    54.4707     2913.00000
    54.4839     2773.00000
    54.4970     2766.00000
    54.5101     2726.00000
    54.5233     2695.00000
    54.5364     2737.00000
    54.5495     2739.00000
    54.5626     2681.00000
    54.5758     2643.00000
    54.5889     2657.00000
    54.6020     2664.00000
    54.6152     2651.00000
    54.6283     2639.00000
    54.6414     2647.00000
    54.6546     2690.00000
    54.6677     2642.00000
    54.6808     2734.00000
    54.6940     2798.00000
    54.7071     2740.00000
    54.7202     2732.00000
    54.7333     2639.00000
    54.7465     2684.00000
    54.7596     2716.00000
    54.7727     2637.00000
    54.7859     2708.00000
    54.7990     2676.00000
    54.8121     2761.00000
    54.8253     2670.00000
    54.8384     2753.00000
    54.8515     2733.00000
    54.8646     2697.00000
    54.8778     2722.00000
    54.8909     2681.00000
    54.9040     2770.00000
    54.9172     2682.00000
    54.9303     2681.00000
    54.9434     2875.00000
    54.9566     2715.00000
    54.9697     2670.00000
    54.9828     2841.00000
    54.9959     2766.00000
    55.0091     2836.00000
    55.0222     2790.00000
    55.0353     2819.00000
    55.0485     2789.00000
    55.0616     2802.00000
    55.0747     2819.00000
    55.0879     2808.00000
    55.1010     3038.00000
    55.1141     2995.00000
    55.1272     2996.00000
    55.1404     3019.00000
    55.1535     3058.00000
    55.1666     3106.00000
    55.1798     3136.00000
    55.1929     3117.00000
    55.2060     3144.00000
    55.2192     3279.00000
    55.2323     3559.00000
    55.2454     3783.00000
    55.2586     4119.00000
    55.2717     4599.00000
    55.2848     5376.00000
    55.2979     6597.00000
    55.3111     8019.00000
    55.3242     9671.00000
    55.3373    10713.00000
    55.3505    11192.00000
    55.3636    10609.00000
    55.3767     9421.00000
    55.3899     7802.00000
    55.4030     6717.00000
    55.4161     5855.00000
    55.4292     5522.00000
    55.4424     5699.00000
    55.4555     5902.00000
    55.4686     6654.00000
    55.4818     7075.00000
    55.4949     7639.00000
    55.5080     7215.00000
    55.5212     6566.00000
    55.5343     5724.00000
    55.5474     5099.00000
    55.5605     4489.00000
    55.5737     4074.00000
    55.5868     3805.00000
    55.5999     3625.00000
    55.6131     3515.00000
    55.6262     3449.00000
    55.6393     3671.00000
    55.6525     3615.00000
    55.6656     3657.00000
    55.6787     3513.00000
    55.6918     3384.00000
    55.7050     3281.00000
    55.7181     3116.00000
    55.7312     3053.00000
    55.7444     3055.00000
    55.7575     3059.00000
    55.7706     2950.00000
    55.7838     3139.00000
    55.7969     3065.00000
    55.8100     3137.00000
    55.8232     3103.00000
    55.8363     3068.00000
    55.8494     3002.00000
    55.8625     2935.00000
    55.8757     2859.00000
    55.8888     2887.00000
    55.9019     2881.00000
    55.9151     2850.00000
    55.9282     2830.00000
    55.9413     2808.00000
    55.9545     2822.00000
    55.9676     2930.00000
    55.9807     2917.00000
    55.9938     2981.00000
    56.0070     3015.00000
    56.0201     2934.00000
    56.0332     3064.00000
    56.0464     3137.00000
    56.0595     3142.00000
    56.0726     3088.00000
    56.0858     3056.00000
    56.0989     3169.00000
    56.1120     3107.00000
    56.1251     3324.00000
    56.1383     3441.00000
    56.1514     3608.00000
    56.1645     3879.00000
    56.1777     4364.00000
    56.1908     5216.00000
    56.2039     6092.00000
    56.2171     7361.00000
    56.2302     8681.00000
    56.2433     9969.00000
    56.2565    10917.00000
    56.2696    11818.00000
    56.2827    12491.00000
    56.2958    12826.00000
    56.3090    12656.00000
    56.3221    11835.00000
    56.3352    10607.00000
    56.3484     9437.00000
    56.3615     8389.00000
    56.3746     7824.00000
    56.3878     7668.00000
    56.4009     7788.00000
    56.4140     8019.00000
    56.4271     8114.00000
    56.4403     8099.00000
    56.4534     7946.00000
    56.4665     7709.00000
    56.4797     7063.00000
    56.4928     6307.00000
    56.5059     5488.00000
    56.5191     4675.00000
    56.5322     4357.00000
    56.5453     3773.00000
    56.5584     3507.00000
    56.5716     3521.00000
    56.5847     3323.00000
    56.5978     3185.00000
    56.6110     3171.00000
    56.6241     3044.00000
    56.6372     3022.00000
    56.6504     2961.00000
    56.6635     3125.00000
    56.6766     2953.00000
    56.6898     2910.00000
    56.7029     3005.00000
    56.7160     2972.00000
    56.7291     3014.00000
    56.7423     3095.00000
    56.7554     3084.00000
    56.7685     3015.00000
    56.7817     3034.00000
    56.7948     3016.00000
    56.8079     3163.00000
    56.8211     3100.00000
    56.8342     3137.00000
    56.8473     3276.00000
    56.8604     3288.00000
    56.8736     3340.00000
    56.8867     3544.00000
    56.8998     3858.00000
    56.9130     4142.00000
    56.9261     4417.00000
    56.9392     5171.00000
    56.9524     5916.00000
    56.9655     6664.00000
    56.9786     7494.00000
    56.9917     7954.00000
    57.0049     8484.00000
    57.0180     9288.00000
    57.0311     9569.00000
    57.0443     9809.00000
    57.0574     9569.00000
    57.0705     9223.00000
    57.0837     8715.00000
    57.0968     7893.00000
    57.1099     7287.00000
    57.1231     6852.00000
    57.1362     6894.00000
    57.1493     6700.00000
    57.1624     6994.00000
    57.1756     7554.00000
    57.1887     7946.00000
    57.2018     8430.00000
    57.2150     8894.00000
    57.2281     9322.00000
    57.2412     9282.00000
    57.2544     8811.00000
    57.2675     7527.00000
    57.2806     6618.00000
    57.2937     5779.00000
    57.3069     5172.00000
    57.3200     4627.00000
    57.3331     4424.00000
    57.3463     4371.00000
    57.3594     4343.00000
    57.3725     4729.00000
    57.3857     4863.00000
    57.3988     5053.00000
    57.4119     4961.00000
    57.4250     4640.00000
    57.4382     4328.00000
    57.4513     3939.00000
    57.4644     3728.00000
    57.4776     3430.00000
    57.4907     3335.00000
    57.5038     3147.00000
    57.5170     3083.00000
    57.5301     3033.00000
    57.5432     3281.00000
    57.5564     3105.00000
    57.5695     3016.00000
    57.5826     3089.00000
    57.5957     3047.00000
    57.6089     2959.00000
    57.6220     3004.00000
    57.6351     3030.00000
    57.6483     3144.00000
    57.6614     3023.00000
    57.6745     3058.00000
    57.6877     3095.00000
    57.7008     3233.00000
    57.7139     3406.00000
    57.7270     3425.00000
    57.7402     3607.00000
    57.7533     3870.00000
    57.7664     4210.00000
    57.7796     4772.00000
    57.7927     5358.00000
    57.8058     6433.00000
    57.8190     7428.00000
    57.8321     8660.00000
    57.8452     8898.00000
    57.8583     8455.00000
    57.8715     7434.00000
    57.8846     6514.00000
    57.8977     5651.00000
    57.9109     5164.00000
    57.9240     4885.00000
    57.9371     4835.00000
    57.9503     5263.00000
    57.9634     5692.00000
    57.9765     6505.00000
    57.9897     6975.00000
    58.0028     7104.00000
    58.0159     6749.00000
    58.0290     6237.00000
    58.0422     5528.00000
    58.0553     4814.00000
    58.0684     4435.00000
    58.0816     4106.00000
    58.0947     3755.00000
    58.1078     3735.00000
    58.1210     3684.00000
    58.1341     3699.00000
    58.1472     3762.00000
    58.1603     3662.00000
    58.1735     3738.00000
    58.1866     3493.00000
    58.1997     3540.00000
    58.2129     3450.00000
    58.2260     3350.00000
    58.2391     3339.00000
    58.2523     3308.00000
    58.2654     3249.00000
    58.2785     3133.00000
    58.2916     3268.00000
    58.3048     3272.00000
    58.3179     3276.00000
    58.3310     3298.00000
    58.3442     3518.00000
    58.3573     3691.00000
    58.3704     3897.00000
    58.3836     4128.00000
    58.3967     4385.00000
    58.4098     4918.00000
    58.4230     5609.00000
    58.4361     6410.00000
    58.4492     7341.00000
    58.4623     7985.00000
    58.4755     8487.00000
    58.4886     8738.00000
    58.5017     8525.00000
    58.5149     7442.00000
    58.5280     6734.00000
    58.5411     6102.00000
    58.5543     5503.00000
    58.5674     5394.00000
    58.5805     5366.00000
    58.5936     5701.00000
    58.6068     6162.00000
    58.6199     6705.00000
    58.6330     7500.00000
    58.6462     8117.00000
    58.6593     9131.00000
    58.6724     9887.00000
    58.6856    10192.00000
    58.6987    10608.00000
    58.7118     9814.00000
    58.7249     8812.00000
    58.7381     7328.00000
    58.7512     6113.00000
    58.7643     5343.00000
    58.7775     4854.00000
    58.7906     4825.00000
    58.8037     4919.00000
    58.8169     5268.00000
    58.8300     5779.00000
    58.8431     6323.00000
    58.8562     6728.00000
    58.8694     6950.00000
    58.8825     7058.00000
    58.8956     6911.00000
    58.9088     6980.00000
    58.9219     7426.00000
    58.9350     8206.00000
    58.9482     8907.00000
    58.9613     9545.00000
    58.9744     9644.00000
    58.9876     9120.00000
    59.0007     8418.00000
    59.0138     7213.00000
    59.0269     6198.00000
    59.0401     5584.00000
    59.0532     5275.00000
    59.0663     5145.00000
    59.0795     5257.00000
    59.0926     5530.00000
    59.1057     5739.00000
    59.1189     5932.00000
    59.1320     6270.00000
    59.1451     6118.00000
    59.1582     5706.00000
    59.1714     5215.00000
    59.1845     4535.00000
    59.1976     4175.00000
    59.2108     3770.00000
    59.2239     3576.00000
    59.2370     3237.00000
    59.2502     3090.00000
    59.2633     3059.00000
    59.2764     3196.00000
    59.2895     3218.00000
    59.3027     3074.00000
    59.3158     3058.00000
    59.3289     2960.00000
    59.3421     3049.00000
    59.3552     3009.00000
    59.3683     2989.00000
    59.3815     3012.00000
    59.3946     3005.00000
    59.4077     3012.00000
    59.4208     3036.00000
    59.4340     3071.00000
    59.4471     3231.00000
    59.4602     3279.00000
    59.4734     3413.00000
    59.4865     3498.00000
    59.4996     3887.00000
    59.5128     3928.00000
    59.5259     4625.00000
    59.5390     5257.00000
    59.5522     5951.00000
    59.5653     6651.00000
    59.5784     7254.00000
    59.5915     7909.00000
    59.6047     8326.00000
    59.6178     8356.00000
    59.6309     8006.00000
    59.6441     7335.00000
    59.6572     6658.00000
    59.6703     6127.00000
    59.6835     5460.00000
    59.6966     5363.00000
    59.7097     5423.00000
    59.7228     5816.00000
    59.7360     6392.00000
    59.7491     7208.00000
    59.7622     8016.00000
    59.7754     8591.00000
    59.7885     8841.00000
    59.8016     8973.00000
    59.8148     8971.00000
    59.8279     9510.00000
    59.8410    10200.00000
    59.8541    10748.00000
    59.8673    11639.00000
    59.8804    11068.00000
    59.8935    10177.00000
    59.9067     8414.00000
    59.9198     7239.00000
    59.9329     6415.00000
    59.9461     5917.00000
    59.9592     5692.00000
    59.9723     5571.00000
    59.9855     5852.00000
    59.9986     6118.00000
    60.0117     6429.00000
    60.0248     6904.00000
    60.0380     7161.00000
    60.0511     6511.00000
    60.0642     5798.00000
    60.0774     4948.00000
    60.0905     4350.00000
    60.1036     3799.00000
    60.1168     3565.00000
    60.1299     3363.00000
    60.1430     3239.00000
    60.1561     3205.00000
    60.1693     3172.00000
    60.1824     3044.00000
    60.1955     2999.00000
    60.2087     2966.00000
    60.2218     3080.00000
    60.2349     2925.00000
    60.2481     2927.00000
    60.2612     3011.00000
    60.2743     3012.00000
    60.2874     2925.00000
    60.3006     2871.00000
    60.3137     2992.00000
    60.3268     3051.00000
    60.3400     3043.00000
    60.3531     3110.00000
    60.3662     2995.00000
    60.3794     3134.00000
    60.3925     3111.00000
    60.4056     3037.00000
    60.4188     3046.00000
    60.4319     3045.00000
    60.4450     3219.00000
    60.4581     3211.00000
    60.4713     3267.00000
    60.4844     3424.00000
    60.4975     3599.00000
    60.5107     3760.00000
    60.5238     4042.00000
    60.5369     4523.00000
    60.5501     4949.00000
    60.5632     5710.00000
    60.5763     6882.00000
    60.5894     8206.00000
    60.6026    10212.00000
    60.6157    11879.00000
    60.6288    12921.00000
    60.6420    13368.00000
    60.6551    12859.00000
    60.6682    12053.00000
    60.6814    10962.00000
    60.6945     9947.00000
    60.7076     8857.00000
    60.7207     7774.00000
    60.7339     7288.00000
    60.7470     7375.00000
    60.7601     7700.00000
    60.7733     8312.00000
    60.7864     8977.00000
    60.7995     9445.00000
    60.8127     9665.00000
    60.8258     9563.00000
    60.8389     9025.00000
    60.8521     8429.00000
    60.8652     7757.00000
    60.8783     7102.00000
    60.8914     6287.00000
    60.9046     5823.00000
    60.9177     5433.00000
    60.9308     4978.00000
    60.9440     4831.00000
    60.9571     4836.00000
    60.9702     5010.00000
    60.9834     5182.00000
    60.9965     5490.00000
    61.0096     5647.00000
    61.0227     5574.00000
    61.0359     5746.00000
    61.0490     5524.00000
    61.0621     5497.00000
    61.0753     4923.00000
    61.0884     4539.00000
    61.1015     4203.00000
    61.1147     3841.00000
    61.1278     3736.00000
    61.1409     3615.00000
    61.1540     3682.00000
    61.1672     3689.00000
    61.1803     3723.00000
    61.1934     3790.00000
    61.2066     3638.00000
    61.2197     3840.00000
    61.2328     3709.00000
    61.2460     3408.00000
    61.2591     3261.00000
    61.2722     3032.00000
    61.2854     2943.00000
    61.2985     2800.00000
    61.3116     2823.00000
    61.3247     2764.00000
    61.3379     2704.00000
    61.3510     2708.00000
    61.3641     2795.00000
    61.3773     2681.00000
    61.3904     2601.00000
    61.4035     2634.00000
    61.4167     2680.00000
    61.4298     2617.00000
    61.4429     2691.00000
    61.4560     2592.00000
    61.4692     2652.00000
    61.4823     2686.00000
    61.4954     2620.00000
    61.5086     2655.00000
    61.5217     2686.00000
    61.5348     2516.00000
    61.5480     2566.00000
    61.5611     2525.00000
    61.5742     2631.00000
    61.5873     2596.00000
    61.6005     2665.00000
    61.6136     2579.00000
    61.6267     2647.00000
    61.6399     2545.00000
    61.6530     2591.00000
    61.6661     2597.00000
    61.6793     2581.00000
    61.6924     2612.00000
    61.7055     2615.00000
    61.7187     2544.00000
    61.7318     2599.00000
    61.7449     2632.00000
    61.7580     2502.00000
    61.7712     2592.00000
    61.7843     2609.00000
    61.7974     2549.00000
    61.8106     2601.00000
    61.8237     2579.00000
    61.8368     2469.00000
    61.8500     2630.00000
    61.8631     2520.00000
    61.8762     2600.00000
    61.8893     2584.00000
    61.9025     2403.00000
    61.9156     2605.00000
    61.9287     2531.00000
    61.9419     2565.00000
    61.9550     2451.00000
    61.9681     2506.00000
    61.9813     2543.00000
    61.9944     2553.00000
    62.0075     2459.00000
    62.0206     2639.00000
    62.0338     2561.00000
    62.0469     2583.00000
    62.0600     2606.00000
    62.0732     2556.00000
    62.0863     2449.00000
    62.0994     2493.00000
    62.1126     2464.00000
    62.1257     2517.00000
    62.1388     2674.00000
    62.1520     2509.00000
    62.1651     2521.00000
    62.1782     2477.00000
    62.1913     2499.00000
    62.2045     2500.00000
    62.2176     2575.00000
    62.2307     2499.00000
    62.2439     2578.00000
    62.2570     2510.00000
    62.2701     2488.00000
    62.2833     2506.00000
    62.2964     2474.00000
    62.3095     2565.00000
    62.3226     2487.00000
    62.3358     2478.00000
    62.3489     2569.00000
    62.3620     2570.00000
    62.3752     2587.00000
    62.3883     2564.00000
    62.4014     2600.00000
    62.4146     2617.00000
    62.4277     2428.00000
    62.4408     2470.00000
    62.4539     2624.00000
    62.4671     2490.00000
    62.4802     2478.00000
    62.4933     2494.00000
    62.5065     2458.00000
    62.5196     2571.00000
    62.5327     2566.00000
    62.5459     2513.00000
    62.5590     2465.00000
    62.5721     2425.00000
    62.5852     2662.00000
    62.5984     2493.00000
    62.6115     2451.00000
    62.6246     2466.00000
    62.6378     2588.00000
    62.6509     2492.00000
    62.6640     2445.00000
    62.6772     2496.00000
    62.6903     2439.00000
    62.7034     2537.00000
    62.7166     2476.00000
    62.7297     2519.00000
    62.7428     2420.00000
    62.7559     2505.00000
    62.7691     2437.00000
    62.7822     2504.00000
    62.7953     2544.00000
    62.8085     2457.00000
    62.8216     2581.00000
    62.8347     2571.00000
    62.8479     2533.00000
    62.8610     2431.00000
    62.8741     2501.00000
    62.8872     2470.00000
    62.9004     2552.00000
    62.9135     2488.00000
    62.9266     2431.00000
    62.9398     2507.00000
    62.9529     2512.00000
    62.9660     2468.00000
    62.9792     2550.00000
    62.9923     2506.00000
    63.0054     2511.00000
    63.0185     2557.00000
    63.0317     2507.00000
    63.0448     2571.00000
    63.0579     2445.00000
    63.0711     2494.00000
    63.0842     2449.00000
    63.0973     2548.00000
    63.1105     2471.00000
    63.1236     2503.00000
    63.1367     2407.00000
    63.1499     2505.00000
    63.1630     2617.00000
    63.1761     2513.00000
    63.1892     2547.00000
    63.2024     2482.00000
    63.2155     2480.00000
    63.2286     2600.00000
    63.2418     2466.00000
    63.2549     2465.00000
    63.2680     2469.00000
    63.2812     2627.00000
    63.2943     2582.00000
    63.3074     2566.00000
    63.3205     2585.00000
    63.3337     2552.00000
    63.3468     2696.00000
    63.3599     2733.00000
    63.3731     2784.00000
    63.3862     2867.00000
    63.3993     2871.00000
    63.4125     2926.00000
    63.4256     2946.00000
    63.4387     3115.00000
    63.4518     3127.00000
    63.4650     3115.00000
    63.4781     3300.00000
    63.4912     3495.00000
    63.5044     3896.00000
    63.5175     3937.00000
    63.5306     4142.00000
    63.5438     4035.00000
    63.5569     3852.00000
    63.5700     3747.00000
    63.5831     3354.00000
    63.5963     3255.00000
    63.6094     3059.00000
    63.6225     2986.00000
    63.6357     2977.00000
    63.6488     3077.00000
    63.6619     3034.00000
    63.6751     3118.00000
    63.6882     3291.00000
    63.7013     3285.00000
    63.7145     3325.00000
    63.7276     3197.00000
    63.7407     3140.00000
    63.7538     2988.00000
    63.7670     2886.00000
    63.7801     2941.00000
    63.7932     2796.00000
    63.8064     2820.00000
    63.8195     2792.00000
    63.8326     2735.00000
    63.8458     2795.00000
    63.8589     2895.00000
    63.8720     2980.00000
    63.8851     3068.00000
    63.8983     3329.00000
    63.9114     3459.00000
    63.9245     3721.00000
    63.9377     3823.00000
    63.9508     4076.00000
    63.9639     4272.00000
    63.9771     4137.00000
    63.9902     4002.00000
    64.0033     3690.00000
    64.0164     3624.00000
    64.0296     3509.00000
    64.0427     3458.00000
    64.0558     3336.00000
    64.0690     3465.00000
    64.0821     3664.00000
    64.0952     3881.00000
    64.1084     4131.00000
    64.1215     4494.00000
    64.1346     4687.00000
    64.1478     4623.00000
    64.1609     4479.00000
    64.1740     4329.00000
    64.1871     3944.00000
    64.2003     3540.00000
    64.2134     3316.00000
    64.2265     3094.00000
    64.2397     3093.00000
    64.2528     3037.00000
    64.2659     3025.00000
    64.2791     3080.00000
    64.2922     3312.00000
    64.3053     3131.00000
    64.3184     3090.00000
    64.3316     3128.00000
    64.3447     3095.00000
    64.3578     2995.00000
    64.3710     2912.00000
    64.3841     2664.00000
    64.3972     2573.00000
    64.4104     2622.00000
    64.4235     2565.00000
    64.4366     2512.00000
    64.4498     2522.00000
    64.4629     2457.00000
    64.4760     2514.00000
    64.4891     2523.00000
    64.5023     2426.00000
    64.5154     2428.00000
    64.5285     2493.00000
    64.5417     2418.00000
    64.5548     2430.00000
    64.5679     2472.00000
    64.5811     2481.00000
    64.5942     2447.00000
    64.6073     2475.00000
    64.6204     2395.00000
    64.6336     2438.00000
    64.6467     2488.00000
    64.6598     2538.00000
    64.6730     2551.00000
    64.6861     2417.00000
    64.6992     2409.00000
    64.7124     2562.00000
    64.7255     2525.00000
    64.7386     2614.00000
    64.7517     2622.00000
    64.7649     2698.00000
    64.7780     2620.00000
    64.7911     2640.00000
    64.8043     2717.00000
    64.8174     2722.00000
    64.8305     2751.00000
    64.8437     2722.00000
    64.8568     2811.00000
    64.8699     2743.00000
    64.8830     2702.00000
    64.8962     2635.00000
    64.9093     2750.00000
    64.9224     2698.00000
    64.9356     2711.00000
    64.9487     2702.00000
    64.9618     2792.00000
    64.9750     2749.00000
    64.9881     2763.00000
    65.0012     2685.00000
    65.0144     2754.00000
    65.0275     2630.00000
    65.0406     2723.00000
    65.0537     2599.00000
    65.0669     2618.00000
    65.0800     2488.00000
    65.0931     2519.00000
    65.1063     2503.00000
    65.1194     2558.00000
    65.1325     2519.00000
    65.1457     2529.00000
    65.1588     2511.00000
    65.1719     2534.00000
    65.1850     2401.00000
    65.1982     2517.00000
    65.2113     2421.00000
    65.2244     2442.00000
    65.2376     2523.00000
    65.2507     2408.00000
    65.2638     2411.00000
    65.2770     2409.00000
    65.2901     2421.00000
    65.3032     2424.00000
    65.3163     2347.00000
    65.3295     2366.00000
    65.3426     2350.00000
    65.3557     2409.00000
    65.3689     2422.00000
    65.3820     2420.00000
    65.3951     2492.00000
    65.4083     2531.00000
    65.4214     2456.00000
    65.4345     2434.00000
    65.4476     2443.00000
    65.4608     2353.00000
    65.4739     2487.00000
    65.4870     2380.00000
    65.5002     2398.00000
    65.5133     2393.00000
    65.5264     2387.00000
    65.5396     2324.00000
    65.5527     2434.00000
    65.5658     2379.00000
    65.5790     2369.00000
    65.5921     2383.00000
    65.6052     2413.00000
    65.6183     2436.00000
    65.6315     2361.00000
    65.6446     2461.00000
    65.6577     2436.00000
    65.6709     2495.00000
    65.6840     2436.00000
    65.6971     2447.00000
    65.7103     2393.00000
    65.7234     2478.00000
    65.7365     2407.00000
    65.7496     2473.00000
    65.7628     2498.00000
    65.7759     2465.00000
    65.7890     2389.00000
    65.8022     2485.00000
    65.8153     2392.00000
    65.8284     2428.00000
    65.8416     2346.00000
    65.8547     2434.00000
    65.8678     2425.00000
    65.8810     2426.00000
    65.8941     2442.00000
    65.9072     2430.00000
    65.9203     2382.00000
    65.9335     2409.00000
    65.9466     2373.00000
    65.9597     2420.00000
    65.9729     2502.00000
    65.9860     2437.00000
    65.9991     2441.00000
    66.0123     2427.00000
    66.0254     2403.00000
    66.0385     2377.00000
    66.0516     2506.00000
    66.0648     2425.00000
    66.0779     2401.00000
    66.0910     2476.00000
    66.1042     2309.00000
    66.1173     2420.00000
    66.1304     2276.00000
    66.1436     2448.00000
    66.1567     2398.00000
    66.1698     2443.00000
    66.1829     2448.00000
    66.1961     2505.00000
    66.2092     2385.00000
    66.2223     2464.00000
    66.2355     2360.00000
    66.2486     2439.00000
    66.2617     2324.00000
    66.2749     2487.00000
    66.2880     2379.00000
    66.3011     2486.00000
    66.3142     2509.00000
    66.3274     2520.00000
    66.3405     2478.00000
    66.3536     2606.00000
    66.3668     2538.00000
    66.3799     2536.00000
    66.3930     2446.00000
    66.4062     2575.00000
    66.4193     2444.00000
    66.4324     2351.00000
    66.4455     2455.00000
    66.4587     2372.00000
    66.4718     2502.00000
    66.4849     2474.00000
    66.4981     2343.00000
    66.5112     2503.00000
    66.5243     2482.00000
    66.5375     2415.00000
    66.5506     2535.00000
    66.5637     2462.00000
    66.5769     2429.00000
    66.5900     2519.00000
    66.6031     2396.00000
    66.6162     2578.00000
    66.6294     2451.00000
    66.6425     2498.00000
    66.6556     2546.00000
    66.6688     2616.00000
    66.6819     2583.00000
    66.6950     2506.00000
    66.7082     2437.00000
    66.7213     2341.00000
    66.7344     2392.00000
    66.7476     2357.00000
    66.7607     2377.00000
    66.7738     2567.00000
    66.7869     2403.00000
    66.8001     2444.00000
    66.8132     2389.00000
    66.8263     2419.00000
    66.8395     2492.00000
    66.8526     2414.00000
    66.8657     2506.00000
    66.8789     2423.00000
    66.8920     2400.00000
    66.9051     2331.00000
    66.9182     2402.00000
    66.9314     2408.00000
    66.9445     2363.00000
    66.9576     2301.00000
    66.9708     2388.00000
    66.9839     2324.00000
    66.9970     2420.00000
    67.0102     2429.00000
    67.0233     2404.00000
    67.0364     2384.00000
    67.0495     2380.00000
    67.0627     2455.00000
    67.0758     2377.00000
    67.0889     2326.00000
    67.1021     2390.00000
    67.1152     2314.00000
    67.1283     2366.00000
    67.1415     2422.00000
    67.1546     2346.00000
    67.1677     2351.00000
    67.1808     2388.00000
    67.1940     2369.00000
    67.2071     2265.00000
    67.2202     2436.00000
    67.2334     2383.00000
    67.2465     2414.00000
    67.2596     2383.00000
    67.2728     2418.00000
    67.2859     2372.00000
    67.2990     2389.00000
    67.3121     2378.00000
    67.3253     2378.00000
    67.3384     2412.00000
    67.3515     2364.00000
    67.3647     2432.00000
    67.3778     2419.00000
    67.3909     2476.00000
    67.4041     2421.00000
    67.4172     2386.00000
    67.4303     2395.00000
    67.4435     2407.00000
    67.4566     2560.00000
    67.4697     2379.00000
    67.4828     2387.00000
    67.4960     2349.00000
    67.5091     2406.00000
    67.5222     2451.00000
    67.5354     2421.00000
    67.5485     2455.00000
    67.5616     2393.00000
    67.5748     2375.00000
    67.5879     2483.00000
    67.6010     2410.00000
    67.6142     2369.00000
    67.6273     2471.00000
    67.6404     2461.00000
    67.6535     2455.00000
    67.6667     2439.00000
    67.6798     2386.00000
    67.6929     2441.00000
    67.7061     2425.00000
    67.7192     2496.00000
    67.7323     2427.00000
    67.7455     2353.00000
    67.7586     2508.00000
    67.7717     2383.00000
    67.7848     2508.00000
    67.7980     2432.00000
    67.8111     2482.00000
    67.8242     2539.00000
    67.8374     2516.00000
    67.8505     2473.00000
    67.8636     2446.00000
    67.8768     2624.00000
    67.8899     2566.00000
    67.9030     2557.00000
    67.9161     2459.00000
    67.9293     2671.00000
    67.9424     2790.00000
    67.9555     2792.00000
    67.9687     2985.00000
    67.9818     3234.00000
    67.9949     3393.00000
    68.0081     3554.00000
    68.0212     3650.00000
    68.0343     3597.00000
    68.0474     3459.00000
    68.0606     3227.00000
    68.0737     3085.00000
    68.0868     2862.00000
    68.1000     2856.00000
    68.1131     2868.00000
    68.1262     2950.00000
    68.1394     2939.00000
    68.1525     3039.00000
    68.1656     3325.00000
    68.1787     3482.00000
    68.1919     3435.00000
    68.2050     3478.00000
    68.2181     3507.00000
    68.2313     3441.00000
    68.2444     3315.00000
    68.2575     3047.00000
    68.2707     3001.00000
    68.2838     2870.00000
    68.2969     2774.00000
    68.3101     2715.00000
    68.3232     2762.00000
    68.3363     2777.00000
    68.3494     2714.00000
    68.3626     2914.00000
    68.3757     2945.00000
    68.3888     2990.00000
    68.4020     3096.00000
    68.4151     3178.00000
    68.4282     3265.00000
    68.4414     3745.00000
    68.4545     4215.00000
    68.4676     4735.00000
    68.4807     5121.00000
    68.4939     5334.00000
    68.5070     5220.00000
    68.5201     4691.00000
    68.5333     4060.00000
    68.5464     3700.00000
    68.5595     3303.00000
    68.5727     2992.00000
    68.5858     2953.00000
    68.5989     2973.00000
    68.6120     2988.00000
    68.6252     2980.00000
    68.6383     3112.00000
    68.6514     3403.00000
    68.6646     3537.00000
    68.6777     3861.00000
    68.6908     3777.00000
    68.7040     3698.00000
    68.7171     3435.00000
    68.7302     3228.00000
    68.7434     3029.00000
    68.7565     2821.00000
    68.7696     2766.00000
    68.7827     2623.00000
    68.7959     2530.00000
    68.8090     2505.00000
    68.8221     2609.00000
    68.8353     2455.00000
    68.8484     2493.00000
    68.8615     2493.00000
    68.8747     2516.00000
    68.8878     2379.00000
    68.9009     2491.00000
    68.9140     2503.00000
    68.9272     2410.00000
    68.9403     2488.00000
    68.9534     2429.00000
    68.9666     2587.00000
    68.9797     2489.00000
    68.9928     2525.00000
    69.0060     2503.00000
    69.0191     2434.00000
    69.0322     2518.00000
    69.0453     2575.00000
    69.0585     2633.00000
    69.0716     2557.00000
    69.0847     2582.00000
    69.0979     2733.00000
    69.1110     2731.00000
    69.1241     2850.00000
    69.1373     2797.00000
    69.1504     2950.00000
    69.1635     3196.00000
    69.1767     3325.00000
    69.1898     3761.00000
    69.2029     3984.00000
    69.2160     4089.00000
    69.2292     4142.00000
    69.2423     3922.00000
    69.2554     3712.00000
    69.2686     3658.00000
    69.2817     3775.00000
    69.2948     3705.00000
    69.3080     3808.00000
    69.3211     3844.00000
    69.3342     3900.00000
    69.3473     3861.00000
    69.3605     4045.00000
    69.3736     4107.00000
    69.3867     4008.00000
    69.3999     4029.00000
    69.4130     3867.00000
    69.4261     3666.00000
    69.4393     3439.00000
    69.4524     3384.00000
    69.4655     3305.00000
    69.4786     3241.00000
    69.4918     3315.00000
    69.5049     3402.00000
    69.5180     3311.00000
    69.5312     3258.00000
    69.5443     3306.00000
    69.5574     3305.00000
    69.5706     3351.00000
    69.5837     3318.00000
    69.5968     3487.00000
    69.6099     3481.00000
    69.6231     3403.00000
    69.6362     3537.00000
    69.6493     3497.00000
    69.6625     3502.00000
    69.6756     3463.00000
    69.6887     3430.00000
    69.7019     3501.00000
    69.7150     3380.00000
    69.7281     3574.00000
    69.7413     3775.00000
    69.7544     4221.00000
    69.7675     4513.00000
    69.7806     5105.00000
    69.7938     5770.00000
    69.8069     6376.00000
    69.8200     6976.00000
    69.8332     7267.00000
    69.8463     7220.00000
    69.8594     6675.00000
    69.8726     6195.00000
    69.8857     5607.00000
    69.8988     5107.00000
    69.9119     5083.00000
    69.9251     4957.00000
    69.9382     4940.00000
    69.9513     4952.00000
    69.9645     4924.00000
    69.9776     5033.00000
    69.9907     5080.00000
    70.0039     4971.00000
    70.0170     5124.00000
    70.0301     5247.00000
    70.0433     5142.00000
    70.0564     4978.00000
    70.0695     4644.00000
    70.0826     4317.00000
    70.0958     4379.00000
    70.1089     4241.00000
    70.1220     4227.00000
    70.1352     4033.00000
    70.1483     3954.00000
    70.1614     3701.00000
    70.1746     3536.00000
    70.1877     3295.00000
    70.2008     3231.00000
    70.2139     3065.00000
    70.2271     2938.00000
    70.2402     3002.00000
    70.2533     3088.00000
    70.2665     3047.00000
    70.2796     2927.00000
    70.2927     3012.00000
    70.3059     3026.00000
    70.3190     3146.00000
    70.3321     3267.00000
    70.3452     3298.00000
    70.3584     3433.00000
    70.3715     3582.00000
    70.3846     3812.00000
    70.3978     4041.00000
    70.4109     4537.00000
    70.4240     4849.00000
    70.4372     5296.00000
    70.4503     5341.00000
    70.4634     5238.00000
    70.4765     4784.00000
    70.4897     4448.00000
    70.5028     3929.00000
    70.5159     3693.00000
    70.5291     3485.00000
    70.5422     3281.00000
    70.5553     3168.00000
    70.5685     3371.00000
    70.5816     3476.00000
    70.5947     3527.00000
    70.6078     3621.00000
    70.6210     3978.00000
    70.6341     4010.00000
    70.6472     4079.00000
    70.6604     4222.00000
    70.6735     4144.00000
    70.6866     4088.00000
    70.6998     3978.00000
    70.7129     3839.00000
    70.7260     3834.00000
    70.7392     3986.00000
    70.7523     4092.00000
    70.7654     4231.00000
    70.7785     4359.00000
    70.7917     4472.00000
    70.8048     4433.00000
    70.8179     4386.00000
    70.8311     4418.00000
    70.8442     4251.00000
    70.8573     4223.00000
    70.8705     4061.00000
    70.8836     3910.00000
    70.8967     3624.00000
    70.9099     3602.00000
    70.9230     3516.00000
    70.9361     3531.00000
    70.9492     3521.00000
    70.9624     3598.00000
    70.9755     3518.00000
    70.9886     3787.00000
    71.0018     3740.00000
    71.0149     3623.00000
    71.0280     3768.00000
    71.0412     3863.00000
    71.0543     3948.00000
    71.0674     4007.00000
    71.0805     4085.00000
    71.0937     4416.00000
    71.1068     4882.00000
    71.1199     5178.00000
    71.1331     5474.00000
    71.1462     5286.00000
    71.1593     4746.00000
    71.1725     4008.00000
    71.1856     3673.00000
    71.1987     3299.00000
    71.2118     3101.00000
    71.2250     3116.00000
    71.2381     2960.00000
    71.2512     2943.00000
    71.2644     3081.00000
    71.2775     3177.00000
    71.2906     3318.00000
    71.3038     3427.00000
    71.3169     3657.00000
    71.3300     3879.00000
    71.3431     4060.00000
    71.3563     3787.00000
    71.3694     3477.00000
    71.3825     3168.00000
    71.3957     3131.00000
    71.4088     3026.00000
    71.4219     2749.00000
    71.4351     2829.00000
    71.4482     2767.00000
    71.4613     2804.00000
    71.4744     2889.00000
    71.4876     2706.00000
    71.5007     2834.00000
    71.5138     2860.00000
    71.5270     2878.00000
    71.5401     3095.00000
    71.5532     3170.00000
    71.5664     3241.00000
    71.5795     3398.00000
    71.5926     3773.00000
    71.6058     4141.00000
    71.6189     4176.00000
    71.6320     4394.00000
    71.6451     4203.00000
    71.6583     4121.00000
    71.6714     3967.00000
    71.6845     3775.00000
    71.6977     3796.00000
    71.7108     3783.00000
    71.7239     3781.00000
    71.7371     3826.00000
    71.7502     3865.00000
    71.7633     3837.00000
    71.7764     3964.00000
    71.7896     4127.00000
    71.8027     3989.00000
    71.8158     4137.00000
    71.8290     3944.00000
    71.8421     3888.00000
    71.8552     3553.00000
    71.8684     3484.00000
    71.8815     3307.00000
    71.8946     3269.00000
    71.9078     3203.00000
    71.9209     3107.00000
    71.9340     3097.00000
    71.9471     3095.00000
    71.9603     3135.00000
    71.9734     3182.00000
    71.9865     2948.00000
    71.9997     3088.00000
    72.0128     3073.00000
    72.0259     2838.00000
    72.0391     2801.00000
    72.0522     2707.00000
    72.0653     2713.00000
    72.0784     2647.00000
    72.0916     2573.00000
    72.1047     2595.00000
    72.1178     2606.00000
    72.1310     2478.00000
    72.1441     2519.00000
    72.1572     2624.00000
    72.1704     2473.00000
    72.1835     2598.00000
    72.1966     2543.00000
    72.2097     2568.00000
    72.2229     2437.00000
    72.2360     2581.00000
    72.2491     2522.00000
    72.2623     2579.00000
    72.2754     2569.00000
    72.2885     2483.00000
    72.3017     2633.00000
    72.3148     2565.00000
    72.3279     2560.00000
    72.3410     2593.00000
    72.3542     2704.00000
    72.3673     2641.00000
    72.3804     2641.00000
    72.3936     2697.00000
    72.4067     2719.00000
    72.4198     2923.00000
    72.4330     3114.00000
    72.4461     3182.00000
    72.4592     3307.00000
    72.4724     3668.00000
    72.4855     3945.00000
    72.4986     4180.00000
    72.5117     4141.00000
    72.5249     4101.00000
    72.5380     4089.00000
    72.5511     3690.00000
    72.5643     3486.00000
    72.5774     3244.00000
    72.5905     3083.00000
    72.6037     2879.00000
    72.6168     2951.00000
    72.6299     2925.00000
    72.6430     2999.00000
    72.6562     3006.00000
    72.6693     3014.00000
    72.6824     3171.00000
    72.6956     3414.00000
    72.7087     3276.00000
    72.7218     3430.00000
    72.7350     3367.00000
    72.7481     3126.00000
    72.7612     3105.00000
    72.7743     3040.00000
    72.7875     2938.00000
    72.8006     2727.00000
    72.8137     2667.00000
    72.8269     2701.00000
    72.8400     2715.00000
    72.8531     2646.00000
    72.8663     2698.00000
    72.8794     2687.00000
    72.8925     2696.00000
    72.9057     2746.00000
    72.9188     2904.00000
    72.9319     2896.00000
    72.9450     3023.00000
    72.9582     3174.00000
    72.9713     3434.00000
    72.9844     3643.00000
    72.9976     3900.00000
    73.0107     4251.00000
    73.0238     4385.00000
    73.0370     4607.00000
    73.0501     4463.00000
    73.0632     4349.00000
    73.0763     4139.00000
    73.0895     3722.00000
    73.1026     3324.00000
    73.1157     3261.00000
    73.1289     3109.00000
    73.1420     3059.00000
    73.1551     2986.00000
    73.1683     3044.00000
    73.1814     3172.00000
    73.1945     3230.00000
    73.2076     3253.00000
    73.2208     3572.00000
    73.2339     3724.00000
    73.2470     3759.00000
    73.2602     3930.00000
    73.2733     3911.00000
    73.2864     3899.00000
    73.2996     3969.00000
    73.3127     3997.00000
    73.3258     3844.00000
    73.3390     3912.00000
    73.3521     3827.00000
    73.3652     3885.00000
    73.3783     3824.00000
    73.3915     3687.00000
    73.4046     3620.00000
    73.4177     3429.00000
    73.4309     3389.00000
    73.4440     3369.00000
    73.4571     3319.00000
    73.4703     3274.00000
    73.4834     3449.00000
    73.4965     3584.00000
    73.5096     3608.00000
    73.5228     3696.00000
    73.5359     3623.00000
    73.5490     3688.00000
    73.5622     3592.00000
    73.5753     3583.00000
    73.5884     3555.00000
    73.6016     3286.00000
    73.6147     3116.00000
    73.6278     3122.00000
    73.6409     3027.00000
    73.6541     2926.00000
    73.6672     2951.00000
    73.6803     2904.00000
    73.6935     3049.00000
    73.7066     3077.00000
    73.7197     3270.00000
    73.7329     3363.00000
    73.7460     3579.00000
    73.7591     3727.00000
    73.7722     4125.00000
    73.7854     4386.00000
    73.7985     4824.00000
    73.8116     5299.00000
    73.8248     5508.00000
    73.8379     5435.00000
    73.8510     5600.00000
    73.8642     5554.00000
    73.8773     5542.00000
    73.8904     5585.00000
    73.9035     5389.00000
    73.9167     5313.00000
    73.9298     4902.00000
    73.9429     4519.00000
    73.9561     4120.00000
    73.9692     3873.00000
    73.9823     3787.00000
    73.9955     3699.00000
    74.0086     3818.00000
    74.0217     3817.00000
    74.0349     4084.00000
    74.0480     4108.00000
    74.0611     4084.00000
    74.0742     3969.00000
    74.0874     4007.00000
    74.1005     3989.00000
    74.1136     3875.00000
    74.1268     3881.00000
    74.1399     3709.00000
    74.1530     3501.00000
    74.1662     3318.00000
    74.1793     3014.00000
    74.1924     2973.00000
    74.2056     2783.00000
    74.2187     2734.00000
    74.2318     2638.00000
    74.2449     2682.00000
    74.2581     2611.00000
    74.2712     2495.00000
    74.2843     2552.00000
    74.2975     2492.00000
    74.3106     2417.00000
    74.3237     2495.00000
    74.3369     2520.00000
    74.3500     2494.00000
    74.3631     2570.00000
    74.3762     2540.00000
    74.3894     2377.00000
    74.4025     2504.00000
    74.4156     2471.00000
    74.4288     2491.00000
    74.4419     2430.00000
    74.4550     2388.00000
    74.4682     2391.00000
    74.4813     2345.00000
    74.4944     2400.00000
    74.5075     2452.00000
    74.5207     2465.00000
    74.5338     2412.00000
    74.5469     2424.00000
    74.5601     2454.00000
    74.5732     2521.00000
    74.5863     2425.00000
    74.5995     2388.00000
    74.6126     2450.00000
    74.6257     2405.00000
    74.6388     2425.00000
    74.6520     2365.00000
    74.6651     2358.00000
    74.6782     2377.00000
    74.6914     2342.00000
    74.7045     2462.00000
    74.7176     2422.00000
    74.7308     2519.00000
    74.7439     2433.00000
    74.7570     2355.00000
    74.7701     2357.00000
    74.7833     2438.00000
    74.7964     2495.00000
    74.8095     2365.00000
    74.8227     2441.00000
    74.8358     2401.00000
    74.8489     2450.00000
    74.8621     2445.00000
    74.8752     2302.00000
    74.8883     2366.00000
    74.9015     2466.00000
    74.9146     2465.00000
    74.9277     2484.00000
    74.9408     2420.00000
    74.9540     2364.00000
    74.9671     2486.00000
    74.9802     2385.00000
    74.9934     2401.00000
    75.0065     2416.00000
    75.0196     2391.00000
    75.0328     2428.00000
    75.0459     2324.00000
    75.0590     2482.00000
    75.0722     2446.00000
    75.0853     2384.00000
    75.0984     2418.00000
    75.1115     2402.00000
    75.1247     2406.00000
    75.1378     2383.00000
    75.1509     2380.00000
    75.1641     2337.00000
    75.1772     2386.00000
    75.1903     2426.00000
    75.2035     2412.00000
    75.2166     2297.00000
    75.2297     2337.00000
    75.2428     2410.00000
    75.2560     2367.00000
    75.2691     2440.00000
    75.2822     2391.00000
    75.2954     2425.00000
    75.3085     2322.00000
    75.3216     2531.00000
    75.3348     2403.00000
    75.3479     2429.00000
    75.3610     2460.00000
    75.3741     2526.00000
    75.3873     2470.00000
    75.4004     2458.00000
    75.4135     2471.00000
    75.4267     2622.00000
    75.4398     2537.00000
    75.4529     2458.00000
    75.4661     2541.00000
    75.4792     2492.00000
    75.4923     2516.00000
    75.5054     2468.00000
    75.5186     2545.00000
    75.5317     2529.00000
    75.5448     2540.00000
    75.5580     2552.00000
    75.5711     2594.00000
    75.5842     2550.00000
    75.5974     2521.00000
    75.6105     2619.00000
    75.6236     2531.00000
    75.6367     2510.00000
    75.6499     2488.00000
    75.6630     2574.00000
    75.6761     2625.00000
    75.6893     2528.00000
    75.7024     2543.00000
    75.7155     2478.00000
    75.7287     2498.00000
    75.7418     2491.00000
    75.7549     2520.00000
    75.7681     2403.00000
    75.7812     2427.00000
    75.7943     2535.00000
    75.8074     2435.00000
    75.8206     2485.00000
    75.8337     2561.00000
    75.8468     2585.00000
    75.8600     2543.00000
    75.8731     2555.00000
    75.8862     2714.00000
    75.8994     2571.00000
    75.9125     2778.00000
    75.9256     2762.00000
    75.9387     2718.00000
    75.9519     2845.00000
    75.9650     2823.00000
    75.9781     2811.00000
    75.9913     2863.00000
    76.0044     2827.00000
    76.0175     3006.00000
    76.0307     2924.00000
    76.0438     3130.00000
    76.0569     3004.00000
    76.0701     3048.00000
    76.0832     3082.00000
    76.0963     3052.00000
    76.1094     3199.00000
    76.1226     3356.00000
    76.1357     3396.00000
    76.1488     3562.00000
    76.1620     3828.00000
    76.1751     4185.00000
    76.1882     4449.00000
    76.2014     4634.00000
    76.2145     4882.00000
    76.2276     4842.00000
    76.2407     4792.00000
    76.2539     4764.00000
    76.2670     4385.00000
    76.2801     4243.00000
    76.2933     3893.00000
    76.3064     3750.00000
    76.3195     3452.00000
    76.3327     3386.00000
    76.3458     3308.00000
    76.3589     3167.00000
    76.3720     3204.00000
    76.3852     3352.00000
    76.3983     3382.00000
    76.4114     3326.00000
    76.4246     3527.00000
    76.4377     3564.00000
    76.4508     3631.00000
    76.4640     3664.00000
    76.4771     3547.00000
    76.4902     3363.00000
    76.5033     3380.00000
    76.5165     3140.00000
    76.5296     3063.00000
    76.5427     2935.00000
    76.5559     2761.00000
    76.5690     2696.00000
    76.5821     2725.00000
    76.5953     2680.00000
    76.6084     2600.00000
    76.6215     2661.00000
    76.6347     2708.00000
    76.6478     2631.00000
    76.6609     2649.00000
    76.6740     2698.00000
    76.6872     2713.00000
    76.7003     2890.00000
    76.7134     2893.00000
    76.7266     2983.00000
    76.7397     3081.00000
    76.7528     3197.00000
    76.7660     3393.00000
    76.7791     3384.00000
    76.7922     3730.00000
    76.8053     3764.00000
    76.8185     3928.00000
    76.8316     4273.00000
    76.8447     4390.00000
    76.8579     4373.00000
    76.8710     4479.00000
    76.8841     4397.00000
    76.8973     4223.00000
    76.9104     4027.00000
    76.9235     3759.00000
    76.9366     3468.00000
    76.9498     3422.00000
    76.9629     3232.00000
    76.9760     3207.00000
    76.9892     3229.00000
    77.0023     3175.00000
    77.0154     3221.00000
    77.0286     3280.00000
    77.0417     3416.00000
    77.0548     3351.00000
    77.0679     3298.00000
    77.0811     3540.00000
    77.0942     3570.00000
    77.1073     3406.00000
    77.1205     3362.00000
    77.1336     3222.00000
    77.1467     3122.00000
    77.1599     3042.00000
    77.1730     2876.00000
    77.1861     2779.00000
    77.1993     2687.00000
    77.2124     2654.00000
    77.2255     2625.00000
    77.2386     2595.00000
    77.2518     2566.00000
    77.2649     2565.00000
    77.2780     2499.00000
    77.2912     2598.00000
    77.3043     2489.00000
    77.3174     2497.00000
    77.3306     2540.00000
    77.3437     2491.00000
    77.3568     2513.00000
    77.3699     2608.00000
    77.3831     2462.00000
    77.3962     2595.00000
    77.4093     2561.00000
    77.4225     2547.00000
    77.4356     2652.00000
    77.4487     2728.00000
    77.4619     2757.00000
    77.4750     2899.00000
    77.4881     2937.00000
    77.5013     3044.00000
    77.5144     3162.00000
    77.5275     3198.00000
    77.5406     3273.00000
    77.5538     3051.00000
    77.5669     2990.00000
    77.5800     2940.00000
    77.5932     2741.00000
    77.6063     2665.00000
    77.6194     2631.00000
    77.6326     2671.00000
    77.6457     2665.00000
    77.6588     2567.00000
    77.6719     2578.00000
    77.6851     2583.00000
    77.6982     2721.00000
    77.7113     2708.00000
    77.7245     2773.00000
    77.7376     2841.00000
    77.7507     2913.00000
    77.7639     2789.00000
    77.7770     2889.00000
    77.7901     2803.00000
    77.8032     2785.00000
    77.8164     2683.00000
    77.8295     2591.00000
    77.8426     2655.00000
    77.8558     2485.00000
    77.8689     2450.00000
    77.8820     2595.00000
    77.8952     2647.00000
    77.9083     2494.00000
    77.9214     2587.00000
    77.9345     2509.00000
    77.9477     2609.00000
    77.9608     2774.00000
    77.9739     2885.00000
    77.9871     2906.00000
    78.0002     2855.00000
    78.0133     2806.00000
    78.0265     2927.00000
    78.0396     2874.00000
    78.0527     2857.00000
    78.0658     2680.00000
    78.0790     2681.00000
    78.0921     2655.00000
    78.1052     2666.00000
    78.1184     2678.00000
    78.1315     2689.00000
    78.1446     2700.00000
    78.1578     2634.00000
    78.1709     2721.00000
    78.1840     2767.00000
    78.1972     2904.00000
    78.2103     3009.00000
    78.2234     3158.00000
    78.2365     3304.00000
    78.2497     3370.00000
    78.2628     3375.00000
    78.2759     3510.00000
    78.2891     3438.00000
    78.3022     3522.00000
    78.3153     3537.00000
    78.3285     3536.00000
    78.3416     3563.00000
    78.3547     3444.00000
    78.3679     3676.00000
    78.3810     3475.00000
    78.3941     3436.00000
    78.4072     3389.00000
    78.4204     3239.00000
    78.4335     3139.00000
    78.4466     3098.00000
    78.4598     3149.00000
    78.4729     3097.00000
    78.4860     3199.00000
    78.4992     3225.00000
    78.5123     3294.00000
    78.5254     3355.00000
    78.5385     3645.00000
    78.5517     3647.00000
    78.5648     3854.00000
    78.5779     4003.00000
    78.5911     4313.00000
    78.6042     4456.00000
    78.6173     4591.00000
    78.6305     4560.00000
    78.6436     4622.00000
    78.6567     4408.00000
    78.6698     4189.00000
    78.6830     4118.00000
    78.6961     4107.00000
    78.7092     3983.00000
    78.7224     4013.00000
    78.7355     4107.00000
    78.7486     3990.00000
    78.7618     4012.00000
    78.7749     4032.00000
    78.7880     3989.00000
    78.8011     4070.00000
    78.8143     4226.00000
    78.8274     4192.00000
    78.8405     4166.00000
    78.8537     3961.00000
    78.8668     4092.00000
    78.8799     3685.00000
    78.8931     3624.00000
    78.9062     3589.00000
    78.9193     3562.00000
    78.9324     3430.00000
    78.9456     3246.00000
    78.9587     3277.00000
    78.9718     3368.00000
    78.9850     3219.00000
    78.9981     3271.00000
    79.0112     3235.00000
    79.0244     3243.00000
    79.0375     3141.00000
    79.0506     3056.00000
    79.0638     3123.00000
    79.0769     3088.00000
    79.0900     2988.00000
    79.1031     2880.00000
    79.1163     2898.00000
    79.1294     2715.00000
    79.1425     2781.00000
    79.1557     2760.00000
    79.1688     2814.00000
    79.1819     2876.00000
    79.1951     2735.00000
    79.2082     2838.00000
    79.2213     2842.00000
    79.2345     2959.00000
    79.2476     3065.00000
    79.2607     3215.00000
    79.2738     3357.00000
    79.2870     3648.00000
    79.3001     3840.00000
    79.3132     4073.00000
    79.3264     4196.00000
    79.3395     4049.00000
    79.3526     4068.00000
    79.3658     3864.00000
    79.3789     3649.00000
    79.3920     3261.00000
    79.4051     3222.00000
    79.4183     3022.00000
    79.4314     3083.00000
    79.4445     3117.00000
    79.4577     3172.00000
    79.4708     3141.00000
    79.4839     3231.00000
    79.4971     3370.00000
    79.5102     3460.00000
    79.5233     3447.00000
    79.5364     3472.00000
    79.5496     3603.00000
    79.5627     3570.00000
    79.5758     3569.00000
    79.5890     3435.00000
    79.6021     3349.00000
    79.6152     3183.00000
    79.6284     3050.00000
    79.6415     2933.00000
    79.6546     2906.00000
    79.6677     2853.00000
    79.6809     2917.00000
    79.6940     2980.00000
    79.7071     2806.00000
    79.7203     2805.00000
    79.7334     2911.00000
    79.7465     2842.00000
    79.7597     2853.00000
    79.7728     2877.00000
    79.7859     2926.00000
    79.7990     2928.00000
    79.8122     2934.00000
    79.8253     3086.00000
    79.8384     3008.00000
    79.8516     2943.00000
    79.8647     3123.00000
    79.8778     3241.00000
    79.8910     3365.00000
    79.9041     3339.00000
    79.9172     3377.00000
    79.9304     3574.00000
    79.9435     3916.00000
    79.9566     4017.00000
    79.9697     4279.00000
    79.9829     4543.00000
    79.9960     4704.00000
    80.0091     4830.00000
    80.0223     4838.00000
    80.0354     4593.00000
    80.0485     4682.00000
    80.0617     4439.00000
    80.0748     4199.00000
    80.0879     4041.00000
    80.1010     3711.00000
    80.1142     3755.00000
    80.1273     3693.00000
    80.1404     3767.00000
    80.1536     3855.00000
    80.1667     4037.00000
    80.1798     4350.00000
    80.1930     4527.00000
    80.2061     4902.00000
    80.2192     5189.00000
    80.2323     5466.00000
    80.2455     5935.00000
    80.2586     6266.00000
    80.2717     6688.00000
    80.2849     6913.00000
    80.2980     6963.00000
    80.3111     7155.00000
    80.3243     6816.00000
    80.3374     6461.00000
    80.3505     5843.00000
    80.3637     5297.00000
    80.3768     4751.00000
    80.3899     4536.00000
    80.4030     4117.00000
    80.4162     4082.00000
    80.4293     4239.00000
    80.4424     4246.00000
    80.4556     4527.00000
    80.4687     4575.00000
    80.4818     4912.00000
    80.4950     5285.00000
    80.5081     5467.00000
    80.5212     5498.00000
    80.5343     5492.00000
    80.5475     5406.00000
    80.5606     5253.00000
    80.5737     4975.00000
    80.5869     4801.00000
    80.6000     4439.00000
    80.6131     4166.00000
    80.6263     3994.00000
    80.6394     3852.00000
    80.6525     3906.00000
    80.6656     3904.00000
    80.6788     4007.00000
    80.6919     4089.00000
    80.7050     3920.00000
    80.7182     4002.00000
    80.7313     4016.00000
    80.7444     3847.00000
    80.7576     3748.00000
    80.7707     3568.00000
    80.7838     3478.00000
    80.7970     3337.00000
    80.8101     3242.00000
    80.8232     3361.00000
    80.8363     3220.00000
    80.8495     3292.00000
    80.8626     3293.00000
    80.8757     3407.00000
    80.8889     3464.00000
    80.9020     3565.00000
    80.9151     3606.00000
    80.9283     3627.00000
    80.9414     3569.00000
    80.9545     3687.00000
    80.9676     3520.00000
    80.9808     3606.00000
    80.9939     3524.00000
    81.0070     3500.00000
    81.0202     3359.00000
    81.0333     3524.00000
    81.0464     3386.00000
    81.0596     3429.00000
    81.0727     3463.00000
    81.0858     3324.00000
    81.0989     3200.00000
    81.1121     3080.00000
    81.1252     2996.00000
    81.1383     2961.00000
    81.1515     2902.00000
    81.1646     2836.00000
    81.1777     2865.00000
    81.1909     2948.00000
    81.2040     2973.00000
    81.2171     2932.00000
    81.2302     2892.00000
    81.2434     2939.00000
    81.2565     2792.00000
    81.2696     2944.00000
    81.2828     2888.00000
    81.2959     2876.00000
    81.3090     2899.00000
    81.3222     2786.00000
    81.3353     2761.00000
    81.3484     2644.00000
    81.3616     2681.00000
    81.3747     2641.00000
    81.3878     2594.00000
    81.4009     2637.00000
    81.4141     2537.00000
    81.4272     2496.00000
    81.4403     2531.00000
    81.4535     2433.00000
    81.4666     2510.00000
    81.4797     2468.00000
    81.4929     2497.00000
    81.5060     2434.00000
    81.5191     2430.00000
    81.5322     2514.00000
    81.5454     2502.00000
    81.5585     2497.00000
    81.5716     2458.00000
    81.5848     2450.00000
    81.5979     2670.00000
    81.6110     2580.00000
    81.6242     2549.00000
    81.6373     2617.00000
    81.6504     2606.00000
    81.6636     2711.00000
    81.6767     2781.00000
    81.6898     2628.00000
    81.7029     2664.00000
    81.7161     2683.00000
    81.7292     2695.00000
    81.7423     2855.00000
    81.7555     2905.00000
    81.7686     2986.00000
    81.7817     3054.00000
    81.7949     3080.00000
    81.8080     3219.00000
    81.8211     3388.00000
    81.8342     3505.00000
    81.8474     3573.00000
    81.8605     3586.00000
    81.8736     3707.00000
    81.8868     3741.00000
    81.8999     3608.00000
    81.9130     3719.00000
    81.9262     3513.00000
    81.9393     3585.00000
    81.9524     3497.00000
    81.9655     3392.00000
    81.9787     3192.00000
    81.9918     3201.00000
    82.0049     3019.00000
    82.0181     3173.00000
    82.0312     3190.00000
    82.0443     3244.00000
    82.0575     3371.00000
    82.0706     3347.00000
    82.0837     3477.00000
    82.0968     3563.00000
    82.1100     3656.00000
    82.1231     3533.00000
    82.1362     3537.00000
    82.1494     3519.00000
    82.1625     3405.00000
    82.1756     3415.00000
    82.1888     3289.00000
    82.2019     3193.00000
    82.2150     3032.00000
    82.2281     2888.00000
    82.2413     2849.00000
    82.2544     2822.00000
    82.2675     2849.00000
    82.2807     2821.00000
    82.2938     2797.00000
    82.3069     2806.00000
    82.3201     2832.00000
    82.3332     2889.00000
    82.3463     2726.00000
    82.3595     2804.00000
    82.3726     2905.00000
    82.3857     2928.00000
    82.3988     2916.00000
    82.4120     3050.00000
    82.4251     3047.00000
    82.4382     3207.00000
    82.4514     3354.00000
    82.4645     3454.00000
    82.4776     3604.00000
    82.4908     3916.00000
    82.5039     3799.00000
    82.5170     3462.00000
    82.5302     3233.00000
    82.5433     3161.00000
    82.5564     2903.00000
    82.5695     2878.00000
    82.5827     2882.00000
    82.5958     2748.00000
    82.6089     2645.00000
    82.6221     2616.00000
    82.6352     2626.00000
    82.6483     2652.00000
    82.6615     2731.00000
    82.6746     2722.00000
    82.6877     2730.00000
    82.7008     2729.00000
    82.7140     2961.00000
    82.7271     3027.00000
    82.7402     3128.00000
    82.7534     3091.00000
    82.7665     3053.00000
    82.7796     2898.00000
    82.7928     2701.00000
    82.8059     2733.00000
    82.8190     2627.00000
    82.8321     2665.00000
    82.8453     2602.00000
    82.8584     2586.00000
    82.8715     2488.00000
    82.8847     2550.00000
    82.8978     2566.00000
    82.9109     2530.00000
    82.9241     2428.00000
    82.9372     2524.00000
    82.9503     2515.00000
    82.9634     2592.00000
    82.9766     2519.00000
    82.9897     2493.00000
    83.0028     2576.00000
    83.0160     2473.00000
    83.0291     2484.00000
    83.0422     2512.00000
    83.0554     2519.00000
    83.0685     2553.00000
    83.0816     2486.00000
    83.0947     2556.00000
    83.1079     2574.00000
    83.1210     2733.00000
    83.1341     2743.00000
    83.1473     2703.00000
    83.1604     2670.00000
    83.1735     2700.00000
    83.1867     2702.00000
    83.1998     2797.00000
    83.2129     2754.00000
    83.2261     2714.00000
    83.2392     2756.00000
    83.2523     2785.00000
    83.2654     2668.00000
    83.2786     2756.00000
    83.2917     2653.00000
    83.3048     2640.00000
    83.3180     2633.00000
    83.3311     2715.00000
    83.3442     2714.00000
    83.3574     2678.00000
    83.3705     2692.00000
    83.3836     2779.00000
    83.3967     2859.00000
    83.4099     2799.00000
    83.4230     2921.00000
    83.4361     2985.00000
    83.4493     3133.00000
    83.4624     3159.00000
    83.4755     3326.00000
    83.4887     3474.00000
    83.5018     3410.00000
    83.5149     3488.00000
    83.5281     3443.00000
    83.5412     3228.00000
    83.5543     3115.00000
    83.5674     2913.00000
    83.5806     2795.00000
    83.5937     2809.00000
    83.6068     2781.00000
    83.6200     2647.00000
    83.6331     2701.00000
    83.6462     2552.00000
    83.6594     2666.00000
    83.6725     2639.00000
    83.6856     2631.00000
    83.6987     2647.00000
    83.7119     2744.00000
    83.7250     2725.00000
    83.7381     2802.00000
    83.7513     2807.00000
    83.7644     2868.00000
    83.7775     2845.00000
    83.7907     2811.00000
    83.8038     2706.00000
    83.8169     2678.00000
    83.8300     2585.00000
    83.8432     2659.00000
    83.8563     2477.00000
    83.8694     2501.00000
    83.8826     2573.00000
    83.8957     2598.00000
    83.9088     2438.00000
    83.9220     2478.00000
    83.9351     2453.00000
    83.9482     2533.00000
    83.9613     2512.00000
    83.9745     2449.00000
    83.9876     2449.00000
    84.0007     2408.00000
    84.0139     2520.00000
    84.0270     2456.00000
    84.0401     2380.00000
    84.0533     2365.00000
    84.0664     2346.00000
    84.0795     2449.00000
    84.0927     2433.00000
    84.1058     2431.00000
    84.1189     2403.00000
    84.1320     2388.00000
    84.1452     2382.00000
    84.1583     2441.00000
    84.1714     2359.00000
    84.1846     2362.00000
    84.1977     2360.00000
    84.2108     2456.00000
    84.2240     2414.00000
    84.2371     2465.00000
    84.2502     2452.00000
    84.2633     2390.00000
    84.2765     2409.00000
    84.2896     2425.00000
    84.3027     2475.00000
    84.3159     2498.00000
    84.3290     2663.00000
    84.3421     2541.00000
    84.3553     2565.00000
    84.3684     2543.00000
    84.3815     2566.00000
    84.3946     2565.00000
    84.4078     2679.00000
    84.4209     2626.00000
    84.4340     2588.00000
    84.4472     2527.00000
    84.4603     2725.00000
    84.4734     2519.00000
    84.4866     2620.00000
    84.4997     2557.00000
    84.5128     2501.00000
    84.5260     2358.00000
    84.5391     2479.00000
    84.5522     2425.00000
    84.5653     2440.00000
    84.5785     2493.00000
    84.5916     2493.00000
    84.6047     2521.00000
    84.6179     2527.00000
    84.6310     2521.00000
    84.6441     2579.00000
    84.6573     2532.00000
    84.6704     2471.00000
    84.6835     2443.00000
    84.6966     2487.00000
    84.7098     2553.00000
    84.7229     2506.00000
    84.7360     2481.00000
    84.7492     2566.00000
    84.7623     2491.00000
    84.7754     2514.00000
    84.7886     2511.00000
    84.8017     2451.00000
    84.8148     2536.00000
    84.8279     2429.00000
    84.8411     2398.00000
    84.8542     2470.00000
    84.8673     2439.00000
    84.8805     2409.00000
    84.8936     2419.00000
    84.9067     2457.00000
    84.9199     2525.00000
    84.9330     2518.00000
    84.9461     2519.00000
    84.9593     2555.00000
    84.9724     2529.00000
    84.9855     2536.00000
    84.9986     2507.00000
    85.0118     2567.00000
    85.0249     2589.00000
    85.0380     2616.00000
    85.0512     2570.00000
    85.0643     2639.00000
    85.0774     2629.00000
    85.0906     2741.00000
    85.1037     2759.00000
    85.1168     2862.00000
    85.1299     2847.00000
    85.1431     2929.00000
    85.1562     2960.00000
    85.1693     3009.00000
    85.1825     2958.00000
    85.1956     2908.00000
    85.2087     2904.00000
    85.2219     3084.00000
    85.2350     3058.00000
    85.2481     3201.00000
    85.2612     3187.00000
    85.2744     3153.00000
    85.2875     3128.00000
    85.3006     3144.00000
    85.3138     3228.00000
    85.3269     3166.00000
    85.3400     3115.00000
    85.3532     3195.00000
    85.3663     3380.00000
    85.3794     3502.00000
    85.3925     3619.00000
    85.4057     3780.00000
    85.4188     3781.00000
    85.4319     3984.00000
    85.4451     4179.00000
    85.4582     4281.00000
    85.4713     4416.00000
    85.4845     4547.00000
    85.4976     4417.00000
    85.5107     4301.00000
    85.5238     4066.00000
    85.5370     3948.00000
    85.5501     3753.00000
    85.5632     3618.00000
    85.5764     3407.00000
    85.5895     3447.00000
    85.6026     3320.00000
    85.6158     3295.00000
    85.6289     3330.00000
    85.6420     3415.00000
    85.6552     3313.00000
    85.6683     3269.00000
    85.6814     3187.00000
    85.6945     3275.00000
    85.7077     3331.00000
    85.7208     3288.00000
    85.7339     3323.00000
    85.7471     3337.00000
    85.7602     3304.00000
    85.7733     3273.00000
    85.7865     3156.00000
    85.7996     2967.00000
    85.8127     3032.00000
    85.8259     2843.00000
    85.8390     2805.00000
    85.8521     2796.00000
    85.8652     2737.00000
    85.8784     2656.00000
    85.8915     2676.00000
    85.9046     2677.00000
    85.9178     2617.00000
    85.9309     2598.00000
    85.9440     2500.00000
    85.9572     2586.00000
    85.9703     2563.00000
    85.9834     2613.00000
    85.9965     2562.00000
    86.0097     2440.00000
    86.0228     2480.00000
    86.0359     2557.00000
    86.0491     2522.00000
    86.0622     2507.00000
    86.0753     2641.00000
    86.0885     2552.00000
    86.1016     2521.00000
    86.1147     2647.00000
    86.1278     2585.00000
    86.1410     2654.00000
    86.1541     2751.00000
    86.1672     2880.00000
    86.1804     2912.00000
    86.1935     2907.00000
    86.2066     3075.00000
    86.2198     3092.00000
    86.2329     3042.00000
    86.2460     3024.00000
    86.2591     2919.00000
    86.2723     2888.00000
    86.2854     2787.00000
    86.2985     2706.00000
    86.3117     2737.00000
    86.3248     2718.00000
    86.3379     2680.00000
    86.3511     2665.00000
    86.3642     2636.00000
    86.3773     2640.00000
    86.3904     2546.00000
    86.4036     2540.00000
    86.4167     2644.00000
    86.4298     2657.00000
    86.4430     2621.00000
    86.4561     2666.00000
    86.4692     2791.00000
    86.4824     2803.00000
    86.4955     2738.00000
    86.5086     2791.00000
    86.5218     2723.00000
    86.5349     2754.00000
    86.5480     2709.00000
    86.5611     2713.00000
    86.5743     2676.00000
    86.5874     2593.00000
    86.6005     2650.00000
    86.6137     2749.00000
    86.6268     2727.00000
    86.6399     2800.00000
    86.6531     2839.00000
    86.6662     2794.00000
    86.6793     2942.00000
    86.6925     3173.00000
    86.7056     3296.00000
    86.7187     3327.00000
    86.7318     3384.00000
    86.7450     3372.00000
    86.7581     3199.00000
    86.7712     3232.00000
    86.7844     3036.00000
    86.7975     2966.00000
    86.8106     2857.00000
    86.8238     2755.00000
    86.8369     2775.00000
    86.8500     2839.00000
    86.8631     2629.00000
    86.8763     2696.00000
    86.8894     2668.00000
    86.9025     2697.00000
    86.9157     2715.00000
    86.9288     2651.00000
    86.9419     2693.00000
    86.9551     2770.00000
    86.9682     2877.00000
    86.9813     2866.00000
    86.9944     2960.00000
    87.0076     2954.00000
    87.0207     2968.00000
    87.0338     2880.00000
    87.0470     2842.00000
    87.0601     2890.00000
    87.0732     2897.00000
    87.0864     2791.00000
    87.0995     2811.00000
    87.1126     2917.00000
    87.1257     2885.00000
    87.1389     2911.00000
    87.1520     2984.00000
    87.1651     3045.00000
    87.1783     3015.00000
    87.1914     3116.00000
    87.2045     3123.00000
    87.2177     3267.00000
    87.2308     3266.00000
    87.2439     3312.00000
    87.2570     3426.00000
    87.2702     3388.00000
    87.2833     3397.00000
    87.2964     3291.00000
    87.3096     3159.00000
    87.3227     3111.00000
    87.3358     2994.00000
    87.3490     2989.00000
    87.3621     2819.00000
    87.3752     2852.00000
    87.3884     2814.00000
    87.4015     2853.00000
    87.4146     2786.00000
    87.4277     2791.00000
    87.4409     2768.00000
    87.4540     2832.00000
    87.4671     2918.00000
    87.4803     2876.00000
    87.4934     2866.00000
    87.5065     2883.00000
    87.5197     2944.00000
    87.5328     2995.00000
    87.5459     3032.00000
    87.5590     2898.00000
    87.5722     2993.00000
    87.5853     2952.00000
    87.5984     2982.00000
    87.6116     2892.00000
    87.6247     2825.00000
    87.6378     2874.00000
    87.6510     2914.00000
    87.6641     2994.00000
    87.6772     3128.00000
    87.6904     3193.00000
    87.7035     3209.00000
    87.7166     3391.00000
    87.7297     3560.00000
    87.7429     3674.00000
    87.7560     3661.00000
    87.7691     3434.00000
    87.7823     3403.00000
    87.7954     3209.00000
    87.8085     3049.00000
    87.8217     2882.00000
    87.8348     2900.00000
    87.8479     2907.00000
    87.8610     2876.00000
    87.8742     2842.00000
    87.8873     2790.00000
    87.9004     2872.00000
    87.9136     2837.00000
    87.9267     2801.00000
    87.9398     2873.00000
    87.9530     2830.00000
    87.9661     2730.00000
    87.9792     2832.00000
    87.9923     2939.00000
    88.0055     3046.00000
    88.0186     3144.00000
    88.0317     3134.00000
    88.0449     3089.00000
    88.0580     2885.00000
    88.0711     2920.00000
    88.0843     2890.00000
    88.0974     2950.00000
    88.1105     2878.00000
    88.1236     2879.00000
    88.1368     2985.00000
    88.1499     3125.00000
    88.1630     3321.00000
    88.1762     3380.00000
    88.1893     3554.00000
    88.2024     3650.00000
    88.2156     3765.00000
    88.2287     3738.00000
    88.2418     3758.00000
    88.2550     3714.00000
    88.2681     3734.00000
    88.2812     3582.00000
    88.2943     3489.00000
    88.3075     3387.00000
    88.3206     3286.00000
    88.3337     3200.00000
    88.3469     3076.00000
    88.3600     3077.00000
    88.3731     3006.00000
    88.3863     3010.00000
    88.3994     2937.00000
    88.4125     3028.00000
    88.4256     3104.00000
    88.4388     2980.00000
    88.4519     2987.00000
    88.4650     3057.00000
    88.4782     3016.00000
    88.4913     3097.00000
    88.5044     3126.00000
    88.5176     3096.00000
    88.5307     3129.00000
    88.5438     3182.00000
    88.5569     3066.00000
    88.5701     3042.00000
    88.5832     3015.00000
    88.5963     2863.00000
    88.6095     2724.00000
    88.6226     2790.00000
    88.6357     2701.00000
    88.6489     2654.00000
    88.6620     2642.00000
    88.6751     2603.00000
    88.6882     2628.00000
    88.7014     2654.00000
    88.7145     2597.00000
    88.7276     2536.00000
    88.7408     2569.00000
    88.7539     2573.00000
    88.7670     2528.00000
    88.7802     2591.00000
    88.7933     2548.00000
    88.8064     2633.00000
    88.8196     2550.00000
    88.8327     2613.00000
    88.8458     2572.00000
    88.8589     2522.00000
    88.8721     2669.00000
    88.8852     2679.00000
    88.8983     2815.00000
    88.9115     2907.00000
    88.9246     3056.00000
    88.9377     3149.00000
    88.9509     3160.00000
    88.9640     3377.00000
    88.9771     3329.00000
    88.9902     3340.00000
    89.0034     3195.00000
    89.0165     3161.00000
    89.0296     3027.00000
    89.0428     2861.00000
    89.0559     2804.00000
    89.0690     2712.00000
    89.0822     2721.00000
    89.0953     2772.00000
    89.1084     2673.00000
    89.1216     2724.00000
    89.1347     2728.00000
    89.1478     2748.00000
    89.1609     2748.00000
    89.1741     2780.00000
    89.1872     2752.00000
    89.2003     2823.00000
    89.2135     2822.00000
    89.2266     2863.00000
    89.2397     2944.00000
    89.2529     2858.00000
    89.2660     2900.00000
    89.2791     2870.00000
    89.2922     2767.00000
    89.3054     2849.00000
    89.3185     2777.00000
    89.3316     2693.00000
    89.3448     2666.00000
    89.3579     2714.00000
    89.3710     2793.00000
    89.3842     2716.00000
    89.3973     2792.00000
    89.4104     2838.00000
    89.4235     2716.00000
    89.4367     2825.00000
    89.4498     2940.00000
    89.4629     2947.00000
    89.4761     2847.00000
    89.4892     2815.00000
    89.5023     2891.00000
    89.5155     2785.00000
    89.5286     2730.00000
    89.5417     2727.00000
    89.5548     2630.00000
    89.5680     2600.00000
    89.5811     2619.00000
    89.5942     2645.00000
    89.6074     2614.00000
    89.6205     2683.00000
    89.6336     2661.00000
    89.6468     2646.00000
    89.6599     2701.00000
    89.6730     2759.00000
    89.6861     2795.00000
    89.6993     2858.00000
    89.7124     2956.00000
    89.7255     2995.00000
    89.7387     3182.00000
    89.7518     3251.00000
    89.7649     3504.00000
    89.7781     3602.00000
    89.7912     3676.00000
    89.8043     3623.00000
    89.8175     3529.00000
    89.8306     3374.00000
    89.8437     3217.00000
    89.8568     3118.00000
    89.8700     3062.00000
    89.8831     3020.00000
    89.8962     2969.00000
    89.9094     3010.00000
    89.9225     2998.00000
    89.9356     2926.00000
    89.9488     2908.00000
    89.9619     2945.00000
    89.9750     3031.00000
    89.9882     3206.00000
    90.0013     3138.00000
    90.0144     3257.00000
    90.0275     3428.00000
    90.0407     3583.00000
    90.0538     3683.00000
    90.0669     3851.00000
    90.0801     3853.00000
    90.0932     3809.00000
    90.1063     3856.00000
    90.1195     3551.00000
    90.1326     3426.00000
    90.1457     3360.00000
    90.1588     3298.00000
    90.1720     3273.00000
    90.1851     3175.00000
    90.1982     3148.00000
    90.2114     3189.00000
    90.2245     3115.00000
    90.2376     3002.00000
    90.2508     3001.00000
    90.2639     3022.00000
    90.2770     2982.00000
    90.2901     2981.00000
    90.3033     3045.00000
    90.3164     2965.00000
    90.3295     2925.00000
    90.3427     2959.00000
    90.3558     2921.00000
    90.3689     3082.00000
    90.3821     3098.00000
    90.3952     2998.00000
    90.4083     3041.00000
    90.4214     3153.00000
    90.4346     3125.00000
    90.4477     3203.00000
    90.4608     3301.00000
    90.4740     3349.00000
    90.4871     3366.00000
    90.5002     3393.00000
    90.5134     3377.00000
    90.5265     3242.00000
    90.5396     3209.00000
    90.5527     3054.00000
    90.5659     2983.00000
    90.5790     2835.00000
    90.5921     2820.00000
    90.6053     2906.00000
    90.6184     2892.00000
    90.6315     2792.00000
    90.6447     2919.00000
    90.6578     2740.00000
    90.6709     2758.00000
    90.6841     2769.00000
    90.6972     2915.00000
    90.7103     2804.00000
    90.7234     2887.00000
    90.7366     2859.00000
    90.7497     2903.00000
    90.7628     3033.00000
    90.7760     2926.00000
    90.7891     2964.00000
    90.8022     2933.00000
    90.8154     2950.00000
    90.8285     2982.00000
    90.8416     2997.00000
    90.8548     2988.00000
    90.8679     2880.00000
    90.8810     2965.00000
    90.8941     3089.00000
    90.9073     3113.00000
    90.9204     3122.00000
    90.9335     3173.00000
    90.9467     3208.00000
    90.9598     3084.00000
    90.9729     3133.00000
    90.9861     3003.00000
    90.9992     2910.00000
    91.0123     2895.00000
    91.0254     2805.00000
    91.0386     2845.00000
    91.0517     2837.00000
    91.0648     2866.00000
    91.0780     2907.00000
    91.0911     2968.00000
    91.1042     3041.00000
    91.1174     3006.00000
    91.1305     3162.00000
    91.1436     3349.00000
    91.1567     3445.00000
    91.1699     3549.00000
    91.1830     3634.00000
    91.1961     3712.00000
    91.2093     3763.00000
    91.2224     3774.00000
    91.2355     3808.00000
    91.2487     3667.00000
    91.2618     3621.00000
    91.2749     3638.00000
    91.2880     3528.00000
    91.3012     3306.00000
    91.3143     3116.00000
    91.3274     3057.00000
    91.3406     2974.00000
    91.3537     2948.00000
    91.3668     2896.00000
    91.3800     2906.00000
    91.3931     2923.00000
    91.4062     2911.00000
    91.4193     2966.00000
    91.4325     3022.00000
    91.4456     3181.00000
    91.4587     3097.00000
    91.4719     3177.00000
    91.4850     3285.00000
    91.4981     3354.00000
    91.5113     3609.00000
    91.5244     3766.00000
    91.5375     3723.00000
    91.5507     3807.00000
    91.5638     4031.00000
    91.5769     4134.00000
    91.5900     4323.00000
    91.6032     4221.00000
    91.6163     4021.00000
    91.6294     3784.00000
    91.6426     3647.00000
    91.6557     3567.00000
    91.6688     3396.00000
    91.6820     3175.00000
    91.6951     2999.00000
    91.7082     2981.00000
    91.7213     2925.00000
    91.7345     2885.00000
    91.7476     2862.00000
    91.7607     2882.00000
    91.7739     2811.00000
    91.7870     2913.00000
    91.8001     2859.00000
    91.8133     2888.00000
    91.8264     2958.00000
    91.8395     3201.00000
    91.8526     3213.00000
    91.8658     3282.00000
    91.8789     3301.00000
    91.8920     3356.00000
    91.9052     3321.00000
    91.9183     3286.00000
    91.9314     3133.00000
    91.9446     3162.00000
    91.9577     3026.00000
    91.9708     2954.00000
    91.9840     2853.00000
    91.9971     2822.00000
    92.0102     2841.00000
    92.0233     2755.00000
    92.0365     2782.00000
    92.0496     2744.00000
    92.0627     2723.00000
    92.0759     2675.00000
    92.0890     2709.00000
    92.1021     2666.00000
    92.1153     2624.00000
    92.1284     2763.00000
    92.1415     2728.00000
    92.1546     2781.00000
    92.1678     2737.00000
    92.1809     2760.00000
    92.1940     2875.00000
    92.2072     2852.00000
    92.2203     2866.00000
    92.2334     2863.00000
    92.2466     2879.00000
    92.2597     2929.00000
    92.2728     3039.00000
    92.2859     2902.00000
    92.2991     3080.00000
    92.3122     3008.00000
    92.3253     2847.00000
    92.3385     2803.00000
    92.3516     2873.00000
    92.3647     2876.00000
    92.3779     2877.00000
    92.3910     2893.00000
    92.4041     2967.00000
    92.4173     2917.00000
    92.4304     2903.00000
    92.4435     2896.00000
    92.4566     2924.00000
    92.4698     3111.00000
    92.4829     3042.00000
    92.4960     3042.00000
    92.5092     3246.00000
    92.5223     3340.00000
    92.5354     3340.00000
    92.5486     3495.00000
    92.5617     3789.00000
    92.5748     3837.00000
    92.5879     3913.00000
    92.6011     3866.00000
    92.6142     3870.00000
    92.6273     3620.00000
    92.6405     3419.00000
    92.6536     3364.00000
    92.6667     3221.00000
    92.6799     2950.00000
    92.6930     3124.00000
    92.7061     2906.00000
    92.7192     2970.00000
    92.7324     2835.00000
    92.7455     2853.00000
    92.7586     2920.00000
    92.7718     2795.00000
    92.7849     2890.00000
    92.7980     2808.00000
    92.8112     2828.00000
    92.8243     2907.00000
    92.8374     2961.00000
    92.8505     3017.00000
    92.8637     3013.00000
    92.8768     3057.00000
    92.8899     3096.00000
    92.9031     3092.00000
    92.9162     2992.00000
    92.9293     2915.00000
    92.9425     2866.00000
    92.9556     2817.00000
    92.9687     2727.00000
    92.9819     2565.00000
    92.9950     2697.00000
    93.0081     2560.00000
    93.0212     2557.00000
    93.0344     2574.00000
    93.0475     2424.00000
    93.0606     2564.00000
    93.0738     2475.00000
    93.0869     2572.00000
    93.1000     2428.00000
    93.1132     2557.00000
    93.1263     2442.00000
    93.1394     2451.00000
    93.1525     2526.00000
    93.1657     2452.00000
    93.1788     2469.00000
    93.1919     2339.00000
    93.2051     2462.00000
    93.2182     2483.00000
    93.2313     2516.00000
    93.2445     2450.00000
    93.2576     2429.00000
    93.2707     2412.00000
    93.2839     2441.00000
    93.2970     2436.00000
    93.3101     2405.00000
    93.3232     2404.00000
    93.3364     2359.00000
    93.3495     2422.00000
    93.3626     2480.00000
    93.3758     2411.00000
    93.3889     2473.00000
    93.4020     2418.00000
    93.4152     2398.00000
    93.4283     2459.00000
    93.4414     2436.00000
    93.4545     2476.00000
    93.4677     2428.00000
    93.4808     2356.00000
    93.4939     2494.00000
    93.5071     2456.00000
    93.5202     2430.00000
    93.5333     2377.00000
    93.5465     2401.00000
    93.5596     2561.00000
    93.5727     2392.00000
    93.5858     2592.00000
    93.5990     2554.00000
    93.6121     2572.00000
    93.6252     2514.00000
    93.6384     2622.00000
    93.6515     2753.00000
    93.6646     2816.00000
    93.6778     2891.00000
    93.6909     2892.00000
    93.7040     3099.00000
    93.7171     3133.00000
    93.7303     3198.00000
    93.7434     3123.00000
    93.7565     3193.00000
    93.7697     3070.00000
    93.7828     2967.00000
    93.7959     2966.00000
    93.8091     2824.00000
    93.8222     2741.00000
    93.8353     2793.00000
    93.8484     2778.00000
    93.8616     2642.00000
    93.8747     2836.00000
    93.8878     2813.00000
    93.9010     2820.00000
    93.9141     2860.00000
    93.9272     2874.00000
    93.9404     2838.00000
    93.9535     2839.00000
    93.9666     2889.00000
    93.9798     2982.00000
    93.9929     3028.00000
    94.0060     2953.00000
    94.0191     2983.00000
    94.0323     2972.00000
    94.0454     2921.00000
    94.0585     2911.00000
    94.0717     2765.00000
    94.0848     2749.00000
    94.0979     2715.00000
    94.1111     2660.00000
    94.1242     2627.00000
    94.1373     2631.00000
    94.1505     2528.00000
    94.1636     2646.00000
    94.1767     2556.00000
    94.1898     2638.00000
    94.2030     2687.00000
    94.2161     2626.00000
    94.2292     2608.00000
    94.2424     2699.00000
    94.2555     2605.00000
    94.2686     2600.00000
    94.2818     2602.00000
    94.2949     2694.00000
    94.3080     2659.00000
    94.3211     2572.00000
    94.3343     2661.00000
    94.3474     2685.00000
    94.3605     2646.00000
    94.3737     2664.00000
    94.3868     2812.00000
    94.3999     2849.00000
    94.4131     3018.00000
    94.4262     2999.00000
    94.4393     2994.00000
    94.4524     3182.00000
    94.4656     3108.00000
    94.4787     3336.00000
    94.4918     3284.00000
    94.5050     3233.00000
    94.5181     3219.00000
    94.5312     3267.00000
    94.5444     3509.00000
    94.5575     3437.00000
    94.5706     3321.00000
    94.5837     3383.00000
    94.5969     3216.00000
    94.6100     3025.00000
    94.6231     2872.00000
    94.6363     2817.00000
    94.6494     2851.00000
    94.6625     2855.00000
    94.6757     2732.00000
    94.6888     2728.00000
    94.7019     2740.00000
    94.7150     2581.00000
    94.7282     2663.00000
    94.7413     2816.00000
    94.7544     2747.00000
    94.7676     2744.00000
    94.7807     2741.00000
    94.7938     2887.00000
    94.8070     2830.00000
    94.8201     2936.00000
    94.8332     2853.00000
    94.8464     2843.00000
    94.8595     2935.00000
    94.8726     2919.00000
    94.8857     2711.00000
    94.8989     2841.00000
    94.9120     2759.00000
    94.9251     2627.00000
    94.9383     2628.00000
    94.9514     2580.00000
    94.9645     2570.00000
    94.9777     2401.00000
    94.9908     2489.00000
    95.0039     2432.00000
    95.0170     2449.00000
    95.0302     2478.00000
    95.0433     2406.00000
    95.0564     2414.00000
    95.0696     2367.00000
    95.0827     2461.00000
    95.0958     2457.00000
    95.1090     2452.00000
    95.1221     2371.00000
    95.1352     2422.00000
    95.1484     2412.00000
    95.1615     2482.00000
    95.1746     2453.00000
    95.1877     2376.00000
    95.2009     2357.00000
    95.2140     2362.00000
    95.2271     2447.00000
    95.2403     2400.00000
    95.2534     2434.00000
    95.2665     2382.00000
    95.2797     2389.00000
    95.2928     2397.00000
    95.3059     2405.00000
    95.3190     2420.00000
    95.3322     2471.00000
    95.3453     2331.00000
    95.3584     2373.00000
    95.3716     2454.00000
    95.3847     2454.00000
    95.3978     2439.00000
    95.4110     2386.00000
    95.4241     2326.00000
    95.4372     2372.00000
    95.4503     2298.00000
    95.4635     2427.00000
    95.4766     2366.00000
    95.4897     2310.00000
    95.5029     2323.00000
    95.5160     2336.00000
    95.5291     2473.00000
    95.5423     2359.00000
    95.5554     2433.00000
    95.5685     2469.00000
    95.5816     2398.00000
    95.5948     2491.00000
    95.6079     2388.00000
    95.6210     2360.00000
    95.6342     2419.00000
    95.6473     2382.00000
    95.6604     2405.00000
    95.6736     2352.00000
    95.6867     2372.00000
    95.6998     2423.00000
    95.7130     2376.00000
    95.7261     2445.00000
    95.7392     2421.00000
    95.7523     2336.00000
    95.7655     2473.00000
    95.7786     2371.00000
    95.7917     2328.00000
    95.8049     2426.00000
    95.8180     2409.00000
    95.8311     2329.00000
    95.8443     2384.00000
    95.8574     2397.00000
    95.8705     2461.00000
    95.8836     2417.00000
    95.8968     2414.00000
    95.9099     2521.00000
    95.9230     2504.00000
    95.9362     2507.00000
    95.9493     2523.00000
    95.9624     2553.00000
    95.9756     2624.00000
    95.9887     2552.00000
    96.0018     2537.00000
    96.0149     2491.00000
    96.0281     2482.00000
    96.0412     2519.00000
    96.0543     2587.00000
    96.0675     2346.00000
    96.0806     2421.00000
    96.0937     2430.00000
    96.1069     2439.00000
    96.1200     2427.00000
    96.1331     2340.00000
    96.1463     2501.00000
    96.1594     2497.00000
    96.1725     2441.00000
    96.1856     2397.00000
    96.1988     2439.00000
    96.2119     2467.00000
    96.2250     2448.00000
    96.2382     2422.00000
    96.2513     2479.00000
    96.2644     2493.00000
    96.2776     2510.00000
    96.2907     2508.00000
    96.3038     2555.00000
    96.3169     2542.00000
    96.3301     2598.00000
    96.3432     2481.00000
    96.3563     2572.00000
    96.3695     2668.00000
    96.3826     2623.00000
    96.3957     2627.00000
    96.4089     2738.00000
    96.4220     2722.00000
    96.4351     2661.00000
    96.4482     2840.00000
    96.4614     2923.00000
    96.4745     2955.00000
    96.4876     3128.00000
    96.5008     3278.00000
    96.5139     3500.00000
    96.5270     3579.00000
    96.5402     3657.00000
    96.5533     3712.00000
    96.5664     3737.00000
    96.5796     3564.00000
    96.5927     3496.00000
    96.6058     3372.00000
    96.6189     3332.00000
    96.6321     3159.00000
    96.6452     3280.00000
    96.6583     3124.00000
    96.6715     3002.00000
    96.6846     3042.00000
    96.6977     3020.00000
    96.7109     3116.00000
    96.7240     3143.00000
    96.7371     3184.00000
    96.7502     3243.00000
    96.7634     3324.00000
    96.7765     3459.00000
    96.7896     3459.00000
    96.8028     3595.00000
    96.8159     3474.00000
    96.8290     3481.00000
    96.8422     3378.00000
    96.8553     3450.00000
    96.8684     3439.00000
    96.8815     3355.00000
    96.8947     3234.00000
    96.9078     3163.00000
    96.9209     3038.00000
    96.9341     2963.00000
    96.9472     2950.00000
    96.9603     2975.00000
    96.9735     2876.00000
    96.9866     2844.00000
    96.9997     2816.00000
    97.0128     2794.00000
    97.0260     2829.00000
    97.0391     2851.00000
    97.0522     2830.00000
    97.0654     2891.00000
    97.0785     2804.00000
    97.0916     2809.00000
    97.1048     2889.00000
    97.1179     2779.00000
    97.1310     2721.00000
    97.1442     2744.00000
    97.1573     2737.00000
    97.1704     2751.00000
    97.1835     2546.00000
    97.1967     2550.00000
    97.2098     2632.00000
    97.2229     2505.00000
    97.2361     2570.00000
    97.2492     2546.00000
    97.2623     2626.00000
    97.2755     2630.00000
    97.2886     2605.00000
    97.3017     2601.00000
    97.3148     2629.00000
    97.3280     2701.00000
    97.3411     2773.00000
    97.3542     2716.00000
    97.3674     2818.00000
    97.3805     2829.00000
    97.3936     3043.00000
    97.4068     3074.00000
    97.4199     3236.00000
    97.4330     3329.00000
    97.4462     3329.00000
    97.4593     3421.00000
    97.4724     3423.00000
    97.4855     3506.00000
    97.4987     3566.00000
    97.5118     3559.00000
    97.5249     3446.00000
    97.5381     3401.00000
    97.5512     3238.00000
    97.5643     3012.00000
    97.5775     2830.00000
    97.5906     2805.00000
    97.6037     2757.00000
    97.6168     2708.00000
    97.6300     2681.00000
    97.6431     2701.00000
    97.6562     2725.00000
    97.6694     2682.00000
    97.6825     2683.00000
    97.6956     2738.00000
    97.7088     2769.00000
    97.7219     2781.00000
    97.7350     2756.00000
    97.7481     2881.00000
    97.7613     2824.00000
    97.7744     2921.00000
    97.7875     2996.00000
    97.8007     2949.00000
    97.8138     3042.00000
    97.8269     2940.00000
    97.8401     2927.00000
    97.8532     2879.00000
    97.8663     2819.00000
    97.8794     2849.00000
    97.8926     2762.00000
    97.9057     2657.00000
    97.9188     2603.00000
    97.9320     2562.00000
    97.9451     2516.00000
    97.9582     2579.00000
    97.9714     2514.00000
    97.9845     2520.00000
    97.9976     2541.00000
    98.0107     2452.00000
    98.0239     2428.00000
    98.0370     2434.00000
    98.0501     2521.00000
    98.0633     2475.00000
    98.0764     2519.00000
    98.0895     2462.00000
    98.1027     2333.00000
    98.1158     2505.00000
    98.1289     2410.00000
    98.1421     2509.00000
    98.1552     2496.00000
    98.1683     2442.00000
    98.1814     2480.00000
    98.1946     2501.00000
    98.2077     2521.00000
    98.2208     2565.00000
    98.2340     2490.00000
    98.2471     2611.00000
    98.2602     2653.00000
    98.2734     2572.00000
    98.2865     2710.00000
    98.2996     2742.00000
    98.3128     2783.00000
    98.3259     2846.00000
    98.3390     2860.00000
    98.3521     2951.00000
    98.3653     2964.00000
    98.3784     3005.00000
    98.3915     3138.00000
    98.4047     3236.00000
    98.4178     3237.00000
    98.4309     3358.00000
    98.4441     3450.00000
    98.4572     3453.00000
    98.4703     3649.00000
    98.4834     3720.00000
    98.4966     3650.00000
    98.5097     3766.00000
    98.5228     3739.00000
    98.5360     3932.00000
    98.5491     3993.00000
    98.5622     3825.00000
    98.5754     3700.00000
    98.5885     3611.00000
    98.6016     3537.00000
    98.6147     3341.00000
    98.6279     3309.00000
    98.6410     3243.00000
    98.6541     3227.00000
    98.6673     3132.00000
    98.6804     3151.00000
    98.6935     3078.00000
    98.7067     3132.00000
    98.7198     3217.00000
    98.7329     3282.00000
    98.7460     3249.00000
    98.7592     3296.00000
    98.7723     3346.00000
    98.7854     3459.00000
    98.7986     3459.00000
    98.8117     3473.00000
    98.8248     3554.00000
    98.8380     3723.00000
    98.8511     3781.00000
    98.8642     3938.00000
    98.8773     4036.00000
    98.8905     4169.00000
    98.9036     4136.00000
    98.9167     4216.00000
    98.9299     4034.00000
    98.9430     4086.00000
    98.9561     4030.00000
    98.9693     4007.00000
    98.9824     3969.00000
    98.9955     4080.00000
    99.0087     4126.00000
    99.0218     4119.00000
    99.0349     4322.00000
    99.0480     4476.00000
    99.0612     4430.00000
    99.0743     4372.00000
    99.0874     4416.00000
    99.1006     4420.00000
    99.1137     4361.00000
    99.1268     4187.00000
    99.1400     4246.00000
    99.1531     4021.00000
    99.1662     4182.00000
    99.1793     4129.00000
    99.1925     4173.00000
    99.2056     4067.00000
    99.2187     4102.00000
    99.2319     4102.00000
    99.2450     3977.00000
    99.2581     3944.00000
    99.2713     3984.00000
    99.2844     3804.00000
    99.2975     3781.00000
    99.3107     3716.00000
    99.3238     3596.00000
    99.3369     3555.00000
    99.3500     3632.00000
    99.3632     3616.00000
    99.3763     3624.00000
    99.3894     3583.00000
    99.4026     3469.00000
    99.4157     3520.00000
    99.4288     3458.00000
    99.4420     3546.00000
    99.4551     3502.00000
    99.4682     3269.00000
    99.4813     3299.00000
    99.4945     3177.00000
    99.5076     3125.00000
    99.5207     3172.00000
    99.5339     3051.00000
    99.5470     3128.00000
    99.5601     3112.00000
    99.5733     2965.00000
    99.5864     2981.00000
    99.5995     2956.00000
    99.6126     2913.00000
    99.6258     2853.00000
    99.6389     2848.00000
    99.6520     2922.00000
    99.6652     2841.00000
    99.6783     2721.00000
    99.6914     2835.00000
    99.7046     2733.00000
    99.7177     2782.00000
    99.7308     2606.00000
    99.7439     2850.00000
    99.7571     2820.00000
    99.7702     2879.00000
    99.7833     3007.00000
    99.7965     3141.00000
    99.8096     3204.00000
    99.8227     3330.00000
    99.8359     3325.00000
    99.8490     3417.00000
    99.8621     3323.00000
    99.8753     3148.00000
    99.8884     2964.00000
    99.9015     2914.00000
    99.9146     2821.00000
    99.9278     2871.00000
    99.9409     2919.00000
    99.9540     2808.00000
    99.9672     2784.00000
    99.9803     2725.00000
    99.9934     2744.00000
