! Initial file:   D:\ZAKARY_OUAIL\MA_THESE\Deuxième_année_de_thèse\DRX\Manips_DRX\1st_NaTaO2F2_XRK900\NaTaO2F2-Lent_230°C.xrdml
! Initial format:  58
! WAVE (A):      1.54060     1.54060     1.00000
! REM : data have been multiplied by     1.0000
! X_data : 2 Theta (deg.)                                                                                                                                                                                                                                                  
! Y_data : Intensity (arb. units)                                                                                                                                                                                                                                          
!     X         Y
!--------------------------------------------------------------------------------
    10.0116     6462.00000
    10.0247     6605.00000
    10.0379     6564.00000
    10.0510     6462.00000
    10.0641     6549.00000
    10.0772     6376.00000
    10.0904     6501.00000
    10.1035     6420.00000
    10.1166     6422.00000
    10.1298     6374.00000
    10.1429     6373.00000
    10.1560     6347.00000
    10.1692     6415.00000
    10.1823     6329.00000
    10.1954     6489.00000
    10.2086     6299.00000
    10.2217     6315.00000
    10.2348     6428.00000
    10.2479     6435.00000
    10.2611     6382.00000
    10.2742     6484.00000
    10.2873     6244.00000
    10.3005     6222.00000
    10.3136     6331.00000
    10.3267     6476.00000
    10.3399     6219.00000
    10.3530     6424.00000
    10.3661     6276.00000
    10.3792     6291.00000
    10.3924     6136.00000
    10.4055     6383.00000
    10.4186     6273.00000
    10.4318     6469.00000
    10.4449     6391.00000
    10.4580     6186.00000
    10.4712     6106.00000
    10.4843     6221.00000
    10.4974     6343.00000
    10.5105     6187.00000
    10.5237     6194.00000
    10.5368     6118.00000
    10.5499     6333.00000
    10.5631     6337.00000
    10.5762     6212.00000
    10.5893     6309.00000
    10.6025     6186.00000
    10.6156     6236.00000
    10.6287     6340.00000
    10.6418     6355.00000
    10.6550     6257.00000
    10.6681     6368.00000
    10.6812     6216.00000
    10.6944     6191.00000
    10.7075     6194.00000
    10.7206     6182.00000
    10.7338     6240.00000
    10.7469     6257.00000
    10.7600     6312.00000
    10.7732     6481.00000
    10.7863     6365.00000
    10.7994     6491.00000
    10.8125     6376.00000
    10.8257     6407.00000
    10.8388     6516.00000
    10.8519     6563.00000
    10.8651     6489.00000
    10.8782     6667.00000
    10.8913     6843.00000
    10.9045     6714.00000
    10.9176     6858.00000
    10.9307     7073.00000
    10.9438     7268.00000
    10.9570     7599.00000
    10.9701     7947.00000
    10.9832     8599.00000
    10.9964     9422.00000
    11.0095    10476.00000
    11.0226    11857.00000
    11.0358    14617.00000
    11.0489    19236.00000
    11.0620    24607.00000
    11.0751    31536.00000
    11.0883    41259.00000
    11.1014    48935.00000
    11.1145    52555.00000
    11.1277    49505.00000
    11.1408    42015.00000
    11.1539    34638.00000
    11.1671    28261.00000
    11.1802    21289.00000
    11.1933    15926.00000
    11.2065    12098.00000
    11.2196     9711.00000
    11.2327     8338.00000
    11.2458     7687.00000
    11.2590     7112.00000
    11.2721     6989.00000
    11.2852     6869.00000
    11.2984     6539.00000
    11.3115     6456.00000
    11.3246     6326.00000
    11.3378     6214.00000
    11.3509     6145.00000
    11.3640     6143.00000
    11.3771     6074.00000
    11.3903     6223.00000
    11.4034     6004.00000
    11.4165     6152.00000
    11.4297     6119.00000
    11.4428     6021.00000
    11.4559     6011.00000
    11.4691     6090.00000
    11.4822     6011.00000
    11.4953     6166.00000
    11.5084     5966.00000
    11.5216     6097.00000
    11.5347     5990.00000
    11.5478     6094.00000
    11.5610     6034.00000
    11.5741     5959.00000
    11.5872     5838.00000
    11.6004     6007.00000
    11.6135     5898.00000
    11.6266     5924.00000
    11.6398     5942.00000
    11.6529     5967.00000
    11.6660     6005.00000
    11.6791     6041.00000
    11.6923     5864.00000
    11.7054     5991.00000
    11.7185     5759.00000
    11.7317     5867.00000
    11.7448     5965.00000
    11.7579     5904.00000
    11.7711     5780.00000
    11.7842     5897.00000
    11.7973     5861.00000
    11.8104     5857.00000
    11.8236     6007.00000
    11.8367     5834.00000
    11.8498     5801.00000
    11.8630     5835.00000
    11.8761     5866.00000
    11.8892     5795.00000
    11.9024     5857.00000
    11.9155     5785.00000
    11.9286     5701.00000
    11.9417     5810.00000
    11.9549     5678.00000
    11.9680     5859.00000
    11.9811     5726.00000
    11.9943     5700.00000
    12.0074     5651.00000
    12.0205     5587.00000
    12.0337     5708.00000
    12.0468     5861.00000
    12.0599     5737.00000
    12.0731     5679.00000
    12.0862     5687.00000
    12.0993     5818.00000
    12.1124     5689.00000
    12.1256     5679.00000
    12.1387     5828.00000
    12.1518     5561.00000
    12.1650     5729.00000
    12.1781     5670.00000
    12.1912     5611.00000
    12.2044     5708.00000
    12.2175     5736.00000
    12.2306     5863.00000
    12.2437     5569.00000
    12.2569     5670.00000
    12.2700     5605.00000
    12.2831     5583.00000
    12.2963     5605.00000
    12.3094     5804.00000
    12.3225     5582.00000
    12.3357     5566.00000
    12.3488     5572.00000
    12.3619     5708.00000
    12.3750     5613.00000
    12.3882     5701.00000
    12.4013     5416.00000
    12.4144     5540.00000
    12.4276     5601.00000
    12.4407     5648.00000
    12.4538     5569.00000
    12.4670     5529.00000
    12.4801     5630.00000
    12.4932     5444.00000
    12.5063     5443.00000
    12.5195     5544.00000
    12.5326     5553.00000
    12.5457     5455.00000
    12.5589     5566.00000
    12.5720     5546.00000
    12.5851     5581.00000
    12.5983     5497.00000
    12.6114     5508.00000
    12.6245     5589.00000
    12.6377     5505.00000
    12.6508     5355.00000
    12.6639     5497.00000
    12.6770     5405.00000
    12.6902     5501.00000
    12.7033     5590.00000
    12.7164     5562.00000
    12.7296     5546.00000
    12.7427     5497.00000
    12.7558     5568.00000
    12.7690     5516.00000
    12.7821     5465.00000
    12.7952     5482.00000
    12.8083     5626.00000
    12.8215     5454.00000
    12.8346     5440.00000
    12.8477     5579.00000
    12.8609     5454.00000
    12.8740     5351.00000
    12.8871     5447.00000
    12.9003     5443.00000
    12.9134     5406.00000
    12.9265     5476.00000
    12.9396     5490.00000
    12.9528     5392.00000
    12.9659     5458.00000
    12.9790     5477.00000
    12.9922     5403.00000
    13.0053     5540.00000
    13.0184     5412.00000
    13.0316     5472.00000
    13.0447     5394.00000
    13.0578     5310.00000
    13.0710     5240.00000
    13.0841     5328.00000
    13.0972     5528.00000
    13.1103     5417.00000
    13.1235     5454.00000
    13.1366     5449.00000
    13.1497     5431.00000
    13.1629     5243.00000
    13.1760     5363.00000
    13.1891     5401.00000
    13.2023     5527.00000
    13.2154     5446.00000
    13.2285     5563.00000
    13.2416     5329.00000
    13.2548     5346.00000
    13.2679     5400.00000
    13.2810     5307.00000
    13.2942     5342.00000
    13.3073     5260.00000
    13.3204     5319.00000
    13.3336     5276.00000
    13.3467     5358.00000
    13.3598     5200.00000
    13.3729     5249.00000
    13.3861     5333.00000
    13.3992     5293.00000
    13.4123     5268.00000
    13.4255     5276.00000
    13.4386     5268.00000
    13.4517     5229.00000
    13.4649     5359.00000
    13.4780     5346.00000
    13.4911     5373.00000
    13.5043     5305.00000
    13.5174     5296.00000
    13.5305     5304.00000
    13.5436     5382.00000
    13.5568     5281.00000
    13.5699     5305.00000
    13.5830     5112.00000
    13.5962     5284.00000
    13.6093     5263.00000
    13.6224     5161.00000
    13.6356     5340.00000
    13.6487     5279.00000
    13.6618     5185.00000
    13.6749     5334.00000
    13.6881     5443.00000
    13.7012     5188.00000
    13.7143     5226.00000
    13.7275     5125.00000
    13.7406     5195.00000
    13.7537     5207.00000
    13.7669     5199.00000
    13.7800     5107.00000
    13.7931     5215.00000
    13.8062     5105.00000
    13.8194     5138.00000
    13.8325     5160.00000
    13.8456     5119.00000
    13.8588     5124.00000
    13.8719     5274.00000
    13.8850     5100.00000
    13.8982     5051.00000
    13.9113     5156.00000
    13.9244     5084.00000
    13.9376     5157.00000
    13.9507     5212.00000
    13.9638     5080.00000
    13.9769     5044.00000
    13.9901     5124.00000
    14.0032     5113.00000
    14.0163     5105.00000
    14.0295     5077.00000
    14.0426     5017.00000
    14.0557     5138.00000
    14.0689     5038.00000
    14.0820     5062.00000
    14.0951     4998.00000
    14.1082     4981.00000
    14.1214     5004.00000
    14.1345     5107.00000
    14.1476     5203.00000
    14.1608     5073.00000
    14.1739     5118.00000
    14.1870     5158.00000
    14.2002     5310.00000
    14.2133     5099.00000
    14.2264     5180.00000
    14.2395     4970.00000
    14.2527     5017.00000
    14.2658     5079.00000
    14.2789     4974.00000
    14.2921     5141.00000
    14.3052     5061.00000
    14.3183     5032.00000
    14.3315     4998.00000
    14.3446     5042.00000
    14.3577     4967.00000
    14.3708     4990.00000
    14.3840     5063.00000
    14.3971     5005.00000
    14.4102     5091.00000
    14.4234     5002.00000
    14.4365     4992.00000
    14.4496     5113.00000
    14.4628     4787.00000
    14.4759     5051.00000
    14.4890     5032.00000
    14.5022     4970.00000
    14.5153     4855.00000
    14.5284     5044.00000
    14.5415     4981.00000
    14.5547     4980.00000
    14.5678     5028.00000
    14.5809     4877.00000
    14.5941     4960.00000
    14.6072     5053.00000
    14.6203     4994.00000
    14.6335     4885.00000
    14.6466     4962.00000
    14.6597     4885.00000
    14.6728     4934.00000
    14.6860     4809.00000
    14.6991     5089.00000
    14.7122     5128.00000
    14.7254     5090.00000
    14.7385     4924.00000
    14.7516     4837.00000
    14.7648     4762.00000
    14.7779     4896.00000
    14.7910     4900.00000
    14.8041     4842.00000
    14.8173     4964.00000
    14.8304     4887.00000
    14.8435     4700.00000
    14.8567     4963.00000
    14.8698     4828.00000
    14.8829     4845.00000
    14.8961     4912.00000
    14.9092     4900.00000
    14.9223     4759.00000
    14.9355     4777.00000
    14.9486     5031.00000
    14.9617     4874.00000
    14.9748     4804.00000
    14.9880     4771.00000
    15.0011     4842.00000
    15.0142     4895.00000
    15.0274     4909.00000
    15.0405     4795.00000
    15.0536     4866.00000
    15.0668     4938.00000
    15.0799     4771.00000
    15.0930     4818.00000
    15.1061     4980.00000
    15.1193     4902.00000
    15.1324     4887.00000
    15.1455     4843.00000
    15.1587     4872.00000
    15.1718     4907.00000
    15.1849     4848.00000
    15.1981     4888.00000
    15.2112     4934.00000
    15.2243     4827.00000
    15.2374     4972.00000
    15.2506     4726.00000
    15.2637     4752.00000
    15.2768     4810.00000
    15.2900     4771.00000
    15.3031     4842.00000
    15.3162     4822.00000
    15.3294     4883.00000
    15.3425     4772.00000
    15.3556     4835.00000
    15.3688     4888.00000
    15.3819     4709.00000
    15.3950     4796.00000
    15.4081     4860.00000
    15.4213     4775.00000
    15.4344     4726.00000
    15.4475     4806.00000
    15.4607     4879.00000
    15.4738     4804.00000
    15.4869     4747.00000
    15.5001     4783.00000
    15.5132     4681.00000
    15.5263     4801.00000
    15.5394     4723.00000
    15.5526     4692.00000
    15.5657     4637.00000
    15.5788     4684.00000
    15.5920     4776.00000
    15.6051     4650.00000
    15.6182     4667.00000
    15.6314     4774.00000
    15.6445     4749.00000
    15.6576     4735.00000
    15.6707     4767.00000
    15.6839     4684.00000
    15.6970     4759.00000
    15.7101     4749.00000
    15.7233     4726.00000
    15.7364     4743.00000
    15.7495     4626.00000
    15.7627     4815.00000
    15.7758     4803.00000
    15.7889     4726.00000
    15.8021     4810.00000
    15.8152     4631.00000
    15.8283     4706.00000
    15.8414     4697.00000
    15.8546     4705.00000
    15.8677     4606.00000
    15.8808     4701.00000
    15.8940     4692.00000
    15.9071     4749.00000
    15.9202     4639.00000
    15.9334     4624.00000
    15.9465     4698.00000
    15.9596     4722.00000
    15.9727     4711.00000
    15.9859     4682.00000
    15.9990     4690.00000
    16.0121     4680.00000
    16.0253     4642.00000
    16.0384     4781.00000
    16.0515     4772.00000
    16.0647     4725.00000
    16.0778     4794.00000
    16.0909     4755.00000
    16.1040     4759.00000
    16.1172     4790.00000
    16.1303     4850.00000
    16.1434     4710.00000
    16.1566     4947.00000
    16.1697     5007.00000
    16.1828     4824.00000
    16.1960     4745.00000
    16.2091     4845.00000
    16.2222     4697.00000
    16.2353     4897.00000
    16.2485     4941.00000
    16.2616     4728.00000
    16.2747     4955.00000
    16.2879     4964.00000
    16.3010     4859.00000
    16.3141     4779.00000
    16.3273     4762.00000
    16.3404     4763.00000
    16.3535     4784.00000
    16.3667     4789.00000
    16.3798     4743.00000
    16.3929     4704.00000
    16.4060     4878.00000
    16.4192     4776.00000
    16.4323     4621.00000
    16.4454     4857.00000
    16.4586     4636.00000
    16.4717     4754.00000
    16.4848     4735.00000
    16.4980     4838.00000
    16.5111     4773.00000
    16.5242     4741.00000
    16.5373     4713.00000
    16.5505     4709.00000
    16.5636     4626.00000
    16.5767     4697.00000
    16.5899     4734.00000
    16.6030     4772.00000
    16.6161     4573.00000
    16.6293     4615.00000
    16.6424     4457.00000
    16.6555     4595.00000
    16.6686     4649.00000
    16.6818     4611.00000
    16.6949     4553.00000
    16.7080     4571.00000
    16.7212     4442.00000
    16.7343     4512.00000
    16.7474     4512.00000
    16.7606     4608.00000
    16.7737     4607.00000
    16.7868     4543.00000
    16.8000     4728.00000
    16.8131     4663.00000
    16.8262     4582.00000
    16.8393     4691.00000
    16.8525     4586.00000
    16.8656     4456.00000
    16.8787     4624.00000
    16.8919     4445.00000
    16.9050     4674.00000
    16.9181     4581.00000
    16.9313     4568.00000
    16.9444     4493.00000
    16.9575     4473.00000
    16.9706     4444.00000
    16.9838     4430.00000
    16.9969     4446.00000
    17.0100     4587.00000
    17.0232     4691.00000
    17.0363     4463.00000
    17.0494     4516.00000
    17.0626     4555.00000
    17.0757     4534.00000
    17.0888     4506.00000
    17.1019     4662.00000
    17.1151     4507.00000
    17.1282     4466.00000
    17.1413     4658.00000
    17.1545     4672.00000
    17.1676     4555.00000
    17.1807     4646.00000
    17.1939     4478.00000
    17.2070     4730.00000
    17.2201     4760.00000
    17.2333     4755.00000
    17.2464     4823.00000
    17.2595     4738.00000
    17.2726     4571.00000
    17.2858     4654.00000
    17.2989     4513.00000
    17.3120     4634.00000
    17.3252     4577.00000
    17.3383     4514.00000
    17.3514     4545.00000
    17.3646     4457.00000
    17.3777     4536.00000
    17.3908     4420.00000
    17.4039     4442.00000
    17.4171     4450.00000
    17.4302     4504.00000
    17.4433     4360.00000
    17.4565     4471.00000
    17.4696     4411.00000
    17.4827     4511.00000
    17.4959     4448.00000
    17.5090     4311.00000
    17.5221     4358.00000
    17.5352     4401.00000
    17.5484     4270.00000
    17.5615     4431.00000
    17.5746     4510.00000
    17.5878     4420.00000
    17.6009     4494.00000
    17.6140     4480.00000
    17.6272     4520.00000
    17.6403     4404.00000
    17.6534     4522.00000
    17.6666     4618.00000
    17.6797     4510.00000
    17.6928     4657.00000
    17.7059     4653.00000
    17.7191     4693.00000
    17.7322     4677.00000
    17.7453     4777.00000
    17.7585     4692.00000
    17.7716     4531.00000
    17.7847     4525.00000
    17.7979     4506.00000
    17.8110     4470.00000
    17.8241     4429.00000
    17.8372     4325.00000
    17.8504     4333.00000
    17.8635     4364.00000
    17.8766     4308.00000
    17.8898     4238.00000
    17.9029     4274.00000
    17.9160     4323.00000
    17.9292     4350.00000
    17.9423     4287.00000
    17.9554     4284.00000
    17.9685     4487.00000
    17.9817     4365.00000
    17.9948     4299.00000
    18.0079     4354.00000
    18.0211     4239.00000
    18.0342     4364.00000
    18.0473     4192.00000
    18.0605     4383.00000
    18.0736     4335.00000
    18.0867     4286.00000
    18.0998     4352.00000
    18.1130     4344.00000
    18.1261     4386.00000
    18.1392     4267.00000
    18.1524     4299.00000
    18.1655     4259.00000
    18.1786     4346.00000
    18.1918     4212.00000
    18.2049     4343.00000
    18.2180     4327.00000
    18.2312     4340.00000
    18.2443     4365.00000
    18.2574     4306.00000
    18.2705     4316.00000
    18.2837     4265.00000
    18.2968     4254.00000
    18.3099     4178.00000
    18.3231     4267.00000
    18.3362     4371.00000
    18.3493     4239.00000
    18.3625     4118.00000
    18.3756     4188.00000
    18.3887     4256.00000
    18.4018     4234.00000
    18.4150     4374.00000
    18.4281     4192.00000
    18.4412     4266.00000
    18.4544     4166.00000
    18.4675     4146.00000
    18.4806     4221.00000
    18.4938     4257.00000
    18.5069     4209.00000
    18.5200     4299.00000
    18.5331     4407.00000
    18.5463     4180.00000
    18.5594     4280.00000
    18.5725     4309.00000
    18.5857     4311.00000
    18.5988     4394.00000
    18.6119     4293.00000
    18.6251     4326.00000
    18.6382     4389.00000
    18.6513     4252.00000
    18.6645     4164.00000
    18.6776     4268.00000
    18.6907     4318.00000
    18.7038     4289.00000
    18.7170     4222.00000
    18.7301     4200.00000
    18.7432     4270.00000
    18.7564     4095.00000
    18.7695     4261.00000
    18.7826     4212.00000
    18.7958     4195.00000
    18.8089     4131.00000
    18.8220     4223.00000
    18.8351     4187.00000
    18.8483     4210.00000
    18.8614     4147.00000
    18.8745     4114.00000
    18.8877     4055.00000
    18.9008     4311.00000
    18.9139     4149.00000
    18.9271     4181.00000
    18.9402     4214.00000
    18.9533     4219.00000
    18.9664     4240.00000
    18.9796     4334.00000
    18.9927     4357.00000
    19.0058     4521.00000
    19.0190     4465.00000
    19.0321     4434.00000
    19.0452     4433.00000
    19.0584     4450.00000
    19.0715     4614.00000
    19.0846     4722.00000
    19.0978     4718.00000
    19.1109     4645.00000
    19.1240     4550.00000
    19.1371     4596.00000
    19.1503     4592.00000
    19.1634     4632.00000
    19.1765     4532.00000
    19.1897     4636.00000
    19.2028     4588.00000
    19.2159     4626.00000
    19.2291     4640.00000
    19.2422     4541.00000
    19.2553     4568.00000
    19.2684     4618.00000
    19.2816     4616.00000
    19.2947     4727.00000
    19.3078     4654.00000
    19.3210     4718.00000
    19.3341     4639.00000
    19.3472     4704.00000
    19.3604     4712.00000
    19.3735     4801.00000
    19.3866     4912.00000
    19.3997     5050.00000
    19.4129     5388.00000
    19.4260     5247.00000
    19.4391     5419.00000
    19.4523     5541.00000
    19.4654     5765.00000
    19.4785     5943.00000
    19.4917     6252.00000
    19.5048     6717.00000
    19.5179     7344.00000
    19.5311     8649.00000
    19.5442    10408.00000
    19.5573    12702.00000
    19.5704    17259.00000
    19.5836    23623.00000
    19.5967    34815.00000
    19.6098    52009.00000
    19.6230    75856.00000
    19.6361   100147.00000
    19.6492   119840.00000
    19.6624   126455.00000
    19.6755   120079.00000
    19.6886   108818.00000
    19.7017    97342.00000
    19.7149    81311.00000
    19.7280    61594.00000
    19.7411    44678.00000
    19.7543    31291.00000
    19.7674    22250.00000
    19.7805    16283.00000
    19.7937    12010.00000
    19.8068     9385.00000
    19.8199     7659.00000
    19.8330     6937.00000
    19.8462     6227.00000
    19.8593     5964.00000
    19.8724     5678.00000
    19.8856     5431.00000
    19.8987     5048.00000
    19.9118     5060.00000
    19.9250     4894.00000
    19.9381     4784.00000
    19.9512     4663.00000
    19.9643     4574.00000
    19.9775     4731.00000
    19.9906     4579.00000
    20.0037     4436.00000
    20.0169     4424.00000
    20.0300     4542.00000
    20.0431     4509.00000
    20.0563     4605.00000
    20.0694     4467.00000
    20.0825     4441.00000
    20.0957     4452.00000
    20.1088     4647.00000
    20.1219     4558.00000
    20.1350     4646.00000
    20.1482     4606.00000
    20.1613     4704.00000
    20.1744     4663.00000
    20.1876     4674.00000
    20.2007     4506.00000
    20.2138     4554.00000
    20.2270     4464.00000
    20.2401     4505.00000
    20.2532     4382.00000
    20.2663     4313.00000
    20.2795     4315.00000
    20.2926     4157.00000
    20.3057     4205.00000
    20.3189     4159.00000
    20.3320     4276.00000
    20.3451     4204.00000
    20.3583     4187.00000
    20.3714     4066.00000
    20.3845     4219.00000
    20.3976     4158.00000
    20.4108     4039.00000
    20.4239     4179.00000
    20.4370     4129.00000
    20.4502     4089.00000
    20.4633     4217.00000
    20.4764     4164.00000
    20.4896     4144.00000
    20.5027     4180.00000
    20.5158     4083.00000
    20.5290     4119.00000
    20.5421     4073.00000
    20.5552     4084.00000
    20.5683     4071.00000
    20.5815     4097.00000
    20.5946     4097.00000
    20.6077     4159.00000
    20.6209     3933.00000
    20.6340     4195.00000
    20.6471     4091.00000
    20.6603     3954.00000
    20.6734     4029.00000
    20.6865     4034.00000
    20.6996     3924.00000
    20.7128     4045.00000
    20.7259     4008.00000
    20.7390     4005.00000
    20.7522     3965.00000
    20.7653     4084.00000
    20.7784     4053.00000
    20.7916     4029.00000
    20.8047     4016.00000
    20.8178     4004.00000
    20.8309     3913.00000
    20.8441     4068.00000
    20.8572     3992.00000
    20.8703     4089.00000
    20.8835     4040.00000
    20.8966     3991.00000
    20.9097     4127.00000
    20.9229     3840.00000
    20.9360     3965.00000
    20.9491     4002.00000
    20.9623     3902.00000
    20.9754     3965.00000
    20.9885     4100.00000
    21.0016     3966.00000
    21.0148     4022.00000
    21.0279     4010.00000
    21.0410     3886.00000
    21.0542     3889.00000
    21.0673     3845.00000
    21.0804     3836.00000
    21.0936     3938.00000
    21.1067     3896.00000
    21.1198     3958.00000
    21.1329     3976.00000
    21.1461     3918.00000
    21.1592     3881.00000
    21.1723     3839.00000
    21.1855     3914.00000
    21.1986     3945.00000
    21.2117     3954.00000
    21.2249     3883.00000
    21.2380     3843.00000
    21.2511     3850.00000
    21.2642     3868.00000
    21.2774     3867.00000
    21.2905     3893.00000
    21.3036     3986.00000
    21.3168     3924.00000
    21.3299     3851.00000
    21.3430     3803.00000
    21.3562     3895.00000
    21.3693     3863.00000
    21.3824     3871.00000
    21.3956     3880.00000
    21.4087     4041.00000
    21.4218     3943.00000
    21.4349     3877.00000
    21.4481     3966.00000
    21.4612     3926.00000
    21.4743     3946.00000
    21.4875     3875.00000
    21.5006     3937.00000
    21.5137     3861.00000
    21.5269     3776.00000
    21.5400     3889.00000
    21.5531     3818.00000
    21.5662     3826.00000
    21.5794     3894.00000
    21.5925     3930.00000
    21.6056     3924.00000
    21.6188     3956.00000
    21.6319     3937.00000
    21.6450     3886.00000
    21.6582     3929.00000
    21.6713     3894.00000
    21.6844     3933.00000
    21.6975     3912.00000
    21.7107     4093.00000
    21.7238     3815.00000
    21.7369     3878.00000
    21.7501     3902.00000
    21.7632     3928.00000
    21.7763     4065.00000
    21.7895     4247.00000
    21.8026     4113.00000
    21.8157     4204.00000
    21.8288     4256.00000
    21.8420     4082.00000
    21.8551     4166.00000
    21.8682     4109.00000
    21.8814     4052.00000
    21.8945     3927.00000
    21.9076     3852.00000
    21.9208     4021.00000
    21.9339     3999.00000
    21.9470     3920.00000
    21.9602     3979.00000
    21.9733     4004.00000
    21.9864     3952.00000
    21.9995     4038.00000
    22.0127     3930.00000
    22.0258     3911.00000
    22.0389     3942.00000
    22.0521     3979.00000
    22.0652     3992.00000
    22.0783     3825.00000
    22.0915     3862.00000
    22.1046     3887.00000
    22.1177     4023.00000
    22.1308     3970.00000
    22.1440     3940.00000
    22.1571     4028.00000
    22.1702     3966.00000
    22.1834     4053.00000
    22.1965     4197.00000
    22.2096     4163.00000
    22.2228     4423.00000
    22.2359     4431.00000
    22.2490     5058.00000
    22.2621     5533.00000
    22.2753     6336.00000
    22.2884     7594.00000
    22.3015    10043.00000
    22.3147    13673.00000
    22.3278    17533.00000
    22.3409    19812.00000
    22.3541    19271.00000
    22.3672    17694.00000
    22.3803    16571.00000
    22.3935    16403.00000
    22.4066    14143.00000
    22.4197    11165.00000
    22.4328     8631.00000
    22.4460     7311.00000
    22.4591     6118.00000
    22.4722     5269.00000
    22.4854     4538.00000
    22.4985     4397.00000
    22.5116     4010.00000
    22.5248     4055.00000
    22.5379     4110.00000
    22.5510     4032.00000
    22.5641     3947.00000
    22.5773     3800.00000
    22.5904     3916.00000
    22.6035     3798.00000
    22.6167     3902.00000
    22.6298     3913.00000
    22.6429     3870.00000
    22.6561     3750.00000
    22.6692     3798.00000
    22.6823     3838.00000
    22.6954     3846.00000
    22.7086     3870.00000
    22.7217     3769.00000
    22.7348     3876.00000
    22.7480     3798.00000
    22.7611     3824.00000
    22.7742     3830.00000
    22.7874     3986.00000
    22.8005     3889.00000
    22.8136     3805.00000
    22.8268     3842.00000
    22.8399     3892.00000
    22.8530     3878.00000
    22.8661     3869.00000
    22.8793     3708.00000
    22.8924     3782.00000
    22.9055     3795.00000
    22.9187     3766.00000
    22.9318     3684.00000
    22.9449     3664.00000
    22.9581     3620.00000
    22.9712     3732.00000
    22.9843     3740.00000
    22.9974     3811.00000
    23.0106     3729.00000
    23.0237     3703.00000
    23.0368     3568.00000
    23.0500     3655.00000
    23.0631     3761.00000
    23.0762     3649.00000
    23.0894     3604.00000
    23.1025     3693.00000
    23.1156     3789.00000
    23.1287     3744.00000
    23.1419     3645.00000
    23.1550     3619.00000
    23.1681     3696.00000
    23.1813     3643.00000
    23.1944     3610.00000
    23.2075     3667.00000
    23.2207     3719.00000
    23.2338     3672.00000
    23.2469     3745.00000
    23.2601     3711.00000
    23.2732     3628.00000
    23.2863     3800.00000
    23.2994     3699.00000
    23.3126     3682.00000
    23.3257     3641.00000
    23.3388     3805.00000
    23.3520     3704.00000
    23.3651     3707.00000
    23.3782     3644.00000
    23.3914     3716.00000
    23.4045     3726.00000
    23.4176     3773.00000
    23.4307     3845.00000
    23.4439     3825.00000
    23.4570     3809.00000
    23.4701     3774.00000
    23.4833     3889.00000
    23.4964     3794.00000
    23.5095     3735.00000
    23.5227     3840.00000
    23.5358     3877.00000
    23.5489     3869.00000
    23.5620     3836.00000
    23.5752     3836.00000
    23.5883     3978.00000
    23.6014     3880.00000
    23.6146     4020.00000
    23.6277     3814.00000
    23.6408     3892.00000
    23.6540     3943.00000
    23.6671     3907.00000
    23.6802     3823.00000
    23.6933     3727.00000
    23.7065     3951.00000
    23.7196     4007.00000
    23.7327     3827.00000
    23.7459     4055.00000
    23.7590     3918.00000
    23.7721     3908.00000
    23.7853     3955.00000
    23.7984     3980.00000
    23.8115     3940.00000
    23.8247     4035.00000
    23.8378     4118.00000
    23.8509     4069.00000
    23.8640     3905.00000
    23.8772     4077.00000
    23.8903     4131.00000
    23.9034     4245.00000
    23.9166     4204.00000
    23.9297     4386.00000
    23.9428     4500.00000
    23.9560     4494.00000
    23.9691     4556.00000
    23.9822     4484.00000
    23.9953     4525.00000
    24.0085     4611.00000
    24.0216     4611.00000
    24.0347     4865.00000
    24.0479     4964.00000
    24.0610     5185.00000
    24.0741     5508.00000
    24.0873     5998.00000
    24.1004     6842.00000
    24.1135     8440.00000
    24.1266    11212.00000
    24.1398    16142.00000
    24.1529    23430.00000
    24.1660    31232.00000
    24.1792    38916.00000
    24.1923    43954.00000
    24.2054    45353.00000
    24.2186    42863.00000
    24.2317    38415.00000
    24.2448    34368.00000
    24.2580    32016.00000
    24.2711    27837.00000
    24.2842    22885.00000
    24.2973    19432.00000
    24.3105    19095.00000
    24.3236    22488.00000
    24.3367    29273.00000
    24.3499    36316.00000
    24.3630    42491.00000
    24.3761    48078.00000
    24.3893    49839.00000
    24.4024    47544.00000
    24.4155    43891.00000
    24.4286    39235.00000
    24.4418    34072.00000
    24.4549    27935.00000
    24.4680    21543.00000
    24.4812    17057.00000
    24.4943    12912.00000
    24.5074     9546.00000
    24.5206     7171.00000
    24.5337     5888.00000
    24.5468     5142.00000
    24.5599     4863.00000
    24.5731     4654.00000
    24.5862     4475.00000
    24.5993     4374.00000
    24.6125     4213.00000
    24.6256     4100.00000
    24.6387     4105.00000
    24.6519     3933.00000
    24.6650     4004.00000
    24.6781     3928.00000
    24.6913     3855.00000
    24.7044     4008.00000
    24.7175     3830.00000
    24.7306     3792.00000
    24.7438     3866.00000
    24.7569     3779.00000
    24.7700     3835.00000
    24.7832     3744.00000
    24.7963     3847.00000
    24.8094     3760.00000
    24.8226     3628.00000
    24.8357     3734.00000
    24.8488     3656.00000
    24.8619     3759.00000
    24.8751     3610.00000
    24.8882     3703.00000
    24.9013     3839.00000
    24.9145     3742.00000
    24.9276     3672.00000
    24.9407     3968.00000
    24.9539     3813.00000
    24.9670     3934.00000
    24.9801     3942.00000
    24.9932     3954.00000
    25.0064     3782.00000
    25.0195     3895.00000
    25.0326     3807.00000
    25.0458     3777.00000
    25.0589     3643.00000
    25.0720     3614.00000
    25.0852     3687.00000
    25.0983     3734.00000
    25.1114     3664.00000
    25.1246     3618.00000
    25.1377     3633.00000
    25.1508     3634.00000
    25.1639     3574.00000
    25.1771     3576.00000
    25.1902     3531.00000
    25.2033     3738.00000
    25.2165     3629.00000
    25.2296     3530.00000
    25.2427     3612.00000
    25.2559     3651.00000
    25.2690     3545.00000
    25.2821     3633.00000
    25.2952     3525.00000
    25.3084     3591.00000
    25.3215     3608.00000
    25.3346     3483.00000
    25.3478     3639.00000
    25.3609     3610.00000
    25.3740     3621.00000
    25.3872     3641.00000
    25.4003     3680.00000
    25.4134     3623.00000
    25.4265     3600.00000
    25.4397     3601.00000
    25.4528     3597.00000
    25.4659     3694.00000
    25.4791     3553.00000
    25.4922     3592.00000
    25.5053     3586.00000
    25.5185     3519.00000
    25.5316     3626.00000
    25.5447     3551.00000
    25.5579     3444.00000
    25.5710     3483.00000
    25.5841     3529.00000
    25.5972     3599.00000
    25.6104     3521.00000
    25.6235     3530.00000
    25.6366     3402.00000
    25.6498     3504.00000
    25.6629     3567.00000
    25.6760     3547.00000
    25.6892     3473.00000
    25.7023     3496.00000
    25.7154     3489.00000
    25.7285     3510.00000
    25.7417     3512.00000
    25.7548     3425.00000
    25.7679     3483.00000
    25.7811     3496.00000
    25.7942     3406.00000
    25.8073     3483.00000
    25.8205     3441.00000
    25.8336     3533.00000
    25.8467     3588.00000
    25.8598     3492.00000
    25.8730     3458.00000
    25.8861     3414.00000
    25.8992     3409.00000
    25.9124     3541.00000
    25.9255     3453.00000
    25.9386     3604.00000
    25.9518     3516.00000
    25.9649     3456.00000
    25.9780     3549.00000
    25.9911     3449.00000
    26.0043     3545.00000
    26.0174     3530.00000
    26.0305     3561.00000
    26.0437     3632.00000
    26.0568     3603.00000
    26.0699     3634.00000
    26.0831     3880.00000
    26.0962     3833.00000
    26.1093     3810.00000
    26.1225     3798.00000
    26.1356     3868.00000
    26.1487     3859.00000
    26.1618     3904.00000
    26.1750     3988.00000
    26.1881     3863.00000
    26.2012     3815.00000
    26.2144     3698.00000
    26.2275     3714.00000
    26.2406     3607.00000
    26.2538     3493.00000
    26.2669     3571.00000
    26.2800     3556.00000
    26.2931     3477.00000
    26.3063     3567.00000
    26.3194     3553.00000
    26.3325     3509.00000
    26.3457     3576.00000
    26.3588     3544.00000
    26.3719     3570.00000
    26.3851     3550.00000
    26.3982     3559.00000
    26.4113     3452.00000
    26.4244     3356.00000
    26.4376     3450.00000
    26.4507     3617.00000
    26.4638     3424.00000
    26.4770     3496.00000
    26.4901     3553.00000
    26.5032     3525.00000
    26.5164     3535.00000
    26.5295     3432.00000
    26.5426     3541.00000
    26.5558     3469.00000
    26.5689     3401.00000
    26.5820     3390.00000
    26.5951     3357.00000
    26.6083     3459.00000
    26.6214     3549.00000
    26.6345     3441.00000
    26.6477     3388.00000
    26.6608     3459.00000
    26.6739     3422.00000
    26.6871     3477.00000
    26.7002     3496.00000
    26.7133     3467.00000
    26.7264     3434.00000
    26.7396     3481.00000
    26.7527     3608.00000
    26.7658     3693.00000
    26.7790     3550.00000
    26.7921     3720.00000
    26.8052     3608.00000
    26.8184     3667.00000
    26.8315     3741.00000
    26.8446     3760.00000
    26.8577     3663.00000
    26.8709     3759.00000
    26.8840     3650.00000
    26.8971     3592.00000
    26.9103     3608.00000
    26.9234     3657.00000
    26.9365     3585.00000
    26.9497     3745.00000
    26.9628     3720.00000
    26.9759     3741.00000
    26.9891     3662.00000
    27.0022     3681.00000
    27.0153     3620.00000
    27.0284     3719.00000
    27.0416     3675.00000
    27.0547     3608.00000
    27.0678     3645.00000
    27.0810     3663.00000
    27.0941     3691.00000
    27.1072     3610.00000
    27.1204     3607.00000
    27.1335     3604.00000
    27.1466     3673.00000
    27.1597     3689.00000
    27.1729     3730.00000
    27.1860     3764.00000
    27.1991     3703.00000
    27.2123     3689.00000
    27.2254     3733.00000
    27.2385     3463.00000
    27.2517     3628.00000
    27.2648     3681.00000
    27.2779     3727.00000
    27.2910     3614.00000
    27.3042     3751.00000
    27.3173     3743.00000
    27.3304     3639.00000
    27.3436     3870.00000
    27.3567     3924.00000
    27.3698     3901.00000
    27.3830     3948.00000
    27.3961     3943.00000
    27.4092     4025.00000
    27.4224     4187.00000
    27.4355     4221.00000
    27.4486     4313.00000
    27.4617     4542.00000
    27.4749     4620.00000
    27.4880     4733.00000
    27.5011     4983.00000
    27.5143     5163.00000
    27.5274     5398.00000
    27.5405     5738.00000
    27.5537     6265.00000
    27.5668     6695.00000
    27.5799     7294.00000
    27.5930     8265.00000
    27.6062     9865.00000
    27.6193    12436.00000
    27.6324    16485.00000
    27.6456    24085.00000
    27.6587    36374.00000
    27.6718    53198.00000
    27.6850    71706.00000
    27.6981    84489.00000
    27.7112    85860.00000
    27.7243    78365.00000
    27.7375    70446.00000
    27.7506    65340.00000
    27.7637    59601.00000
    27.7769    53276.00000
    27.7900    43534.00000
    27.8031    33794.00000
    27.8163    25352.00000
    27.8294    18288.00000
    27.8425    12924.00000
    27.8556     9732.00000
    27.8688     7742.00000
    27.8819     6709.00000
    27.8950     5787.00000
    27.9082     5464.00000
    27.9213     4919.00000
    27.9344     4647.00000
    27.9476     4656.00000
    27.9607     4363.00000
    27.9738     4214.00000
    27.9870     4150.00000
    28.0001     4122.00000
    28.0132     3898.00000
    28.0263     3814.00000
    28.0395     3782.00000
    28.0526     3898.00000
    28.0657     3697.00000
    28.0789     3771.00000
    28.0920     3671.00000
    28.1051     3786.00000
    28.1183     3684.00000
    28.1314     3622.00000
    28.1445     3633.00000
    28.1576     3669.00000
    28.1708     3608.00000
    28.1839     3714.00000
    28.1970     3678.00000
    28.2102     3691.00000
    28.2233     3748.00000
    28.2364     3851.00000
    28.2496     3970.00000
    28.2627     3946.00000
    28.2758     3915.00000
    28.2889     3844.00000
    28.3021     3836.00000
    28.3152     3800.00000
    28.3283     3744.00000
    28.3415     3776.00000
    28.3546     3698.00000
    28.3677     3869.00000
    28.3809     3768.00000
    28.3940     3562.00000
    28.4071     3588.00000
    28.4203     3549.00000
    28.4334     3607.00000
    28.4465     3571.00000
    28.4596     3592.00000
    28.4728     3584.00000
    28.4859     3519.00000
    28.4990     3511.00000
    28.5122     3666.00000
    28.5253     3524.00000
    28.5384     3584.00000
    28.5516     3609.00000
    28.5647     3581.00000
    28.5778     3635.00000
    28.5909     3459.00000
    28.6041     3480.00000
    28.6172     3493.00000
    28.6303     3600.00000
    28.6435     3766.00000
    28.6566     3540.00000
    28.6697     3586.00000
    28.6829     3569.00000
    28.6960     3502.00000
    28.7091     3498.00000
    28.7222     3519.00000
    28.7354     3451.00000
    28.7485     3595.00000
    28.7616     3381.00000
    28.7748     3501.00000
    28.7879     3492.00000
    28.8010     3475.00000
    28.8142     3479.00000
    28.8273     3537.00000
    28.8404     3509.00000
    28.8536     3487.00000
    28.8667     3419.00000
    28.8798     3607.00000
    28.8929     3559.00000
    28.9061     3624.00000
    28.9192     3600.00000
    28.9323     3602.00000
    28.9455     3646.00000
    28.9586     3618.00000
    28.9717     3774.00000
    28.9849     3810.00000
    28.9980     3862.00000
    29.0111     3853.00000
    29.0242     3817.00000
    29.0374     3967.00000
    29.0505     4121.00000
    29.0636     4234.00000
    29.0768     4256.00000
    29.0899     4470.00000
    29.1030     4633.00000
    29.1162     4624.00000
    29.1293     5030.00000
    29.1424     5356.00000
    29.1555     6240.00000
    29.1687     7697.00000
    29.1818    10400.00000
    29.1949    15278.00000
    29.2081    21813.00000
    29.2212    28100.00000
    29.2343    31854.00000
    29.2475    33126.00000
    29.2606    30642.00000
    29.2737    27099.00000
    29.2869    25226.00000
    29.3000    24567.00000
    29.3131    23498.00000
    29.3262    22212.00000
    29.3394    20217.00000
    29.3525    19445.00000
    29.3656    19648.00000
    29.3788    20272.00000
    29.3919    20549.00000
    29.4050    20284.00000
    29.4182    18632.00000
    29.4313    16405.00000
    29.4444    15069.00000
    29.4575    13606.00000
    29.4707    12358.00000
    29.4838    11213.00000
    29.4969     9532.00000
    29.5101     7713.00000
    29.5232     6456.00000
    29.5363     5294.00000
    29.5495     4477.00000
    29.5626     4184.00000
    29.5757     4006.00000
    29.5888     3866.00000
    29.6020     3712.00000
    29.6151     3637.00000
    29.6282     3679.00000
    29.6414     3608.00000
    29.6545     3597.00000
    29.6676     3475.00000
    29.6808     3543.00000
    29.6939     3410.00000
    29.7070     3473.00000
    29.7201     3333.00000
    29.7333     3406.00000
    29.7464     3518.00000
    29.7595     3415.00000
    29.7727     3507.00000
    29.7858     3289.00000
    29.7989     3277.00000
    29.8121     3381.00000
    29.8252     3346.00000
    29.8383     3519.00000
    29.8515     3278.00000
    29.8646     3388.00000
    29.8777     3380.00000
    29.8908     3363.00000
    29.9040     3396.00000
    29.9171     3427.00000
    29.9302     3539.00000
    29.9434     3314.00000
    29.9565     3363.00000
    29.9696     3456.00000
    29.9828     3337.00000
    29.9959     3407.00000
    30.0090     3325.00000
    30.0221     3436.00000
    30.0353     3242.00000
    30.0484     3345.00000
    30.0615     3303.00000
    30.0747     3270.00000
    30.0878     3350.00000
    30.1009     3290.00000
    30.1141     3286.00000
    30.1272     3346.00000
    30.1403     3316.00000
    30.1535     3358.00000
    30.1666     3408.00000
    30.1797     3250.00000
    30.1928     3265.00000
    30.2060     3389.00000
    30.2191     3372.00000
    30.2322     3329.00000
    30.2454     3314.00000
    30.2585     3340.00000
    30.2716     3295.00000
    30.2848     3357.00000
    30.2979     3368.00000
    30.3110     3374.00000
    30.3241     3310.00000
    30.3373     3286.00000
    30.3504     3342.00000
    30.3635     3303.00000
    30.3767     3311.00000
    30.3898     3239.00000
    30.4029     3352.00000
    30.4161     3229.00000
    30.4292     3186.00000
    30.4423     3187.00000
    30.4554     3268.00000
    30.4686     3179.00000
    30.4817     3205.00000
    30.4948     3226.00000
    30.5080     3244.00000
    30.5211     3267.00000
    30.5342     3177.00000
    30.5474     3172.00000
    30.5605     3170.00000
    30.5736     3183.00000
    30.5868     3166.00000
    30.5999     3086.00000
    30.6130     3206.00000
    30.6261     3175.00000
    30.6393     3234.00000
    30.6524     3117.00000
    30.6655     3272.00000
    30.6787     3262.00000
    30.6918     3079.00000
    30.7049     3115.00000
    30.7181     3167.00000
    30.7312     3149.00000
    30.7443     3180.00000
    30.7574     3177.00000
    30.7706     3142.00000
    30.7837     3136.00000
    30.7968     3120.00000
    30.8100     3150.00000
    30.8231     3249.00000
    30.8362     3180.00000
    30.8494     3240.00000
    30.8625     3190.00000
    30.8756     3139.00000
    30.8887     3285.00000
    30.9019     3216.00000
    30.9150     3154.00000
    30.9281     3169.00000
    30.9413     3107.00000
    30.9544     3197.00000
    30.9675     3219.00000
    30.9807     3145.00000
    30.9938     3176.00000
    31.0069     3208.00000
    31.0200     3151.00000
    31.0332     3098.00000
    31.0463     3178.00000
    31.0594     3086.00000
    31.0726     3267.00000
    31.0857     3179.00000
    31.0988     3192.00000
    31.1120     3124.00000
    31.1251     2990.00000
    31.1382     3099.00000
    31.1514     3125.00000
    31.1645     3114.00000
    31.1776     3175.00000
    31.1907     3206.00000
    31.2039     3221.00000
    31.2170     3205.00000
    31.2301     3056.00000
    31.2433     3182.00000
    31.2564     3147.00000
    31.2695     3152.00000
    31.2827     3102.00000
    31.2958     3151.00000
    31.3089     3179.00000
    31.3220     3169.00000
    31.3352     3135.00000
    31.3483     3173.00000
    31.3614     3111.00000
    31.3746     3109.00000
    31.3877     3125.00000
    31.4008     3185.00000
    31.4140     2986.00000
    31.4271     3111.00000
    31.4402     3104.00000
    31.4533     3073.00000
    31.4665     3174.00000
    31.4796     3107.00000
    31.4927     3160.00000
    31.5059     3112.00000
    31.5190     3170.00000
    31.5321     3104.00000
    31.5453     3136.00000
    31.5584     3147.00000
    31.5715     3088.00000
    31.5847     3032.00000
    31.5978     3147.00000
    31.6109     3155.00000
    31.6240     3199.00000
    31.6372     3145.00000
    31.6503     3197.00000
    31.6634     3078.00000
    31.6766     3044.00000
    31.6897     3119.00000
    31.7028     3093.00000
    31.7160     3149.00000
    31.7291     3043.00000
    31.7422     3025.00000
    31.7553     3147.00000
    31.7685     3147.00000
    31.7816     3149.00000
    31.7947     3114.00000
    31.8079     3091.00000
    31.8210     3120.00000
    31.8341     3121.00000
    31.8473     3049.00000
    31.8604     3037.00000
    31.8735     3135.00000
    31.8866     3097.00000
    31.8998     3092.00000
    31.9129     3219.00000
    31.9260     3145.00000
    31.9392     3047.00000
    31.9523     3158.00000
    31.9654     3014.00000
    31.9786     3209.00000
    31.9917     3158.00000
    32.0048     3201.00000
    32.0180     3060.00000
    32.0311     3112.00000
    32.0442     3148.00000
    32.0573     3177.00000
    32.0705     3134.00000
    32.0836     3239.00000
    32.0967     3279.00000
    32.1099     3290.00000
    32.1230     3164.00000
    32.1361     3201.00000
    32.1493     3268.00000
    32.1624     3230.00000
    32.1755     3253.00000
    32.1886     3298.00000
    32.2018     3175.00000
    32.2149     3122.00000
    32.2280     3240.00000
    32.2412     3227.00000
    32.2543     3110.00000
    32.2674     3226.00000
    32.2806     3174.00000
    32.2937     3300.00000
    32.3068     3349.00000
    32.3199     3309.00000
    32.3331     3221.00000
    32.3462     3296.00000
    32.3593     3154.00000
    32.3725     3206.00000
    32.3856     3320.00000
    32.3987     3262.00000
    32.4119     3290.00000
    32.4250     3366.00000
    32.4381     3219.00000
    32.4512     3346.00000
    32.4644     3365.00000
    32.4775     3536.00000
    32.4906     3578.00000
    32.5038     3489.00000
    32.5169     3765.00000
    32.5300     3886.00000
    32.5432     3705.00000
    32.5563     3969.00000
    32.5694     4229.00000
    32.5826     4496.00000
    32.5957     5196.00000
    32.6088     6759.00000
    32.6219     9989.00000
    32.6351    14167.00000
    32.6482    18895.00000
    32.6613    21521.00000
    32.6745    19988.00000
    32.6876    16496.00000
    32.7007    13835.00000
    32.7139    13308.00000
    32.7270    13328.00000
    32.7401    13683.00000
    32.7532    12573.00000
    32.7664    10967.00000
    32.7795     8491.00000
    32.7926     6731.00000
    32.8058     5738.00000
    32.8189     4787.00000
    32.8320     4254.00000
    32.8452     3943.00000
    32.8583     3879.00000
    32.8714     3713.00000
    32.8845     3708.00000
    32.8977     3637.00000
    32.9108     3660.00000
    32.9239     3683.00000
    32.9371     3662.00000
    32.9502     3526.00000
    32.9633     3585.00000
    32.9765     3612.00000
    32.9896     3648.00000
    33.0027     3676.00000
    33.0159     3754.00000
    33.0290     3773.00000
    33.0421     3871.00000
    33.0552     3803.00000
    33.0684     3998.00000
    33.0815     4154.00000
    33.0946     4317.00000
    33.1078     4422.00000
    33.1209     4669.00000
    33.1340     4838.00000
    33.1472     5325.00000
    33.1603     6204.00000
    33.1734     7530.00000
    33.1865    10290.00000
    33.1997    14928.00000
    33.2128    21594.00000
    33.2259    29130.00000
    33.2391    34559.00000
    33.2522    36052.00000
    33.2653    32194.00000
    33.2785    27451.00000
    33.2916    23810.00000
    33.3047    22145.00000
    33.3178    21972.00000
    33.3310    21887.00000
    33.3441    19562.00000
    33.3572    16256.00000
    33.3704    12788.00000
    33.3835     9592.00000
    33.3966     7465.00000
    33.4098     6090.00000
    33.4229     5417.00000
    33.4360     5124.00000
    33.4492     4859.00000
    33.4623     4545.00000
    33.4754     4609.00000
    33.4885     4722.00000
    33.5017     4697.00000
    33.5148     4818.00000
    33.5279     5034.00000
    33.5411     5351.00000
    33.5542     5953.00000
    33.5673     6511.00000
    33.5805     8075.00000
    33.5936    10490.00000
    33.6067    14202.00000
    33.6198    18987.00000
    33.6330    23612.00000
    33.6461    27992.00000
    33.6592    29942.00000
    33.6724    29165.00000
    33.6855    27409.00000
    33.6986    25284.00000
    33.7118    22705.00000
    33.7249    21249.00000
    33.7380    20840.00000
    33.7511    20515.00000
    33.7643    21079.00000
    33.7774    22049.00000
    33.7905    22128.00000
    33.8037    21106.00000
    33.8168    17697.00000
    33.8299    13702.00000
    33.8431    11911.00000
    33.8562    11146.00000
    33.8693    10987.00000
    33.8825    11137.00000
    33.8956    10642.00000
    33.9087     8640.00000
    33.9218     7179.00000
    33.9350     6211.00000
    33.9481     5246.00000
    33.9612     4532.00000
    33.9744     3989.00000
    33.9875     3847.00000
    34.0006     3655.00000
    34.0138     3628.00000
    34.0269     3596.00000
    34.0400     3406.00000
    34.0531     3336.00000
    34.0663     3405.00000
    34.0794     3331.00000
    34.0925     3359.00000
    34.1057     3211.00000
    34.1188     3282.00000
    34.1319     3297.00000
    34.1451     3280.00000
    34.1582     3161.00000
    34.1713     3185.00000
    34.1844     3193.00000
    34.1976     3221.00000
    34.2107     3222.00000
    34.2238     3231.00000
    34.2370     3270.00000
    34.2501     3146.00000
    34.2632     3085.00000
    34.2764     3178.00000
    34.2895     3186.00000
    34.3026     3312.00000
    34.3158     3244.00000
    34.3289     3227.00000
    34.3420     3278.00000
    34.3551     3275.00000
    34.3683     3285.00000
    34.3814     3270.00000
    34.3945     3387.00000
    34.4077     3305.00000
    34.4208     3362.00000
    34.4339     3411.00000
    34.4471     3341.00000
    34.4602     3498.00000
    34.4733     3542.00000
    34.4864     3547.00000
    34.4996     3603.00000
    34.5127     3859.00000
    34.5258     4208.00000
    34.5390     4560.00000
    34.5521     5706.00000
    34.5652     7302.00000
    34.5784     9798.00000
    34.5915    12655.00000
    34.6046    14171.00000
    34.6177    14033.00000
    34.6309    12288.00000
    34.6440    10516.00000
    34.6571     9423.00000
    34.6703     8940.00000
    34.6834     9306.00000
    34.6965     9344.00000
    34.7097     8462.00000
    34.7228     7381.00000
    34.7359     5976.00000
    34.7491     5217.00000
    34.7622     4417.00000
    34.7753     3900.00000
    34.7884     3643.00000
    34.8016     3512.00000
    34.8147     3294.00000
    34.8278     3341.00000
    34.8410     3252.00000
    34.8541     3329.00000
    34.8672     3306.00000
    34.8804     3272.00000
    34.8935     3395.00000
    34.9066     3480.00000
    34.9197     3730.00000
    34.9329     3690.00000
    34.9460     3550.00000
    34.9591     3506.00000
    34.9723     3472.00000
    34.9854     3390.00000
    34.9985     3427.00000
    35.0117     3410.00000
    35.0248     3302.00000
    35.0379     3261.00000
    35.0510     3168.00000
    35.0642     3234.00000
    35.0773     3067.00000
    35.0904     3066.00000
    35.1036     3027.00000
    35.1167     3047.00000
    35.1298     3098.00000
    35.1430     2919.00000
    35.1561     3080.00000
    35.1692     2900.00000
    35.1824     2866.00000
    35.1955     2953.00000
    35.2086     3083.00000
    35.2217     3039.00000
    35.2349     3003.00000
    35.2480     2925.00000
    35.2611     2983.00000
    35.2743     2996.00000
    35.2874     3082.00000
    35.3005     2994.00000
    35.3137     3014.00000
    35.3268     3025.00000
    35.3399     3095.00000
    35.3530     2871.00000
    35.3662     2971.00000
    35.3793     3020.00000
    35.3924     2956.00000
    35.4056     3099.00000
    35.4187     3020.00000
    35.4318     2937.00000
    35.4450     2937.00000
    35.4581     2948.00000
    35.4712     3015.00000
    35.4843     3064.00000
    35.4975     2991.00000
    35.5106     2841.00000
    35.5237     3051.00000
    35.5369     2936.00000
    35.5500     3055.00000
    35.5631     2861.00000
    35.5763     2929.00000
    35.5894     2987.00000
    35.6025     2928.00000
    35.6156     2971.00000
    35.6288     2981.00000
    35.6419     2853.00000
    35.6550     3057.00000
    35.6682     2951.00000
    35.6813     2869.00000
    35.6944     2850.00000
    35.7076     2861.00000
    35.7207     2905.00000
    35.7338     2968.00000
    35.7470     3026.00000
    35.7601     2952.00000
    35.7732     2889.00000
    35.7863     2948.00000
    35.7995     2951.00000
    35.8126     2884.00000
    35.8257     2921.00000
    35.8389     2909.00000
    35.8520     2872.00000
    35.8651     2920.00000
    35.8783     3025.00000
    35.8914     2986.00000
    35.9045     2941.00000
    35.9176     2927.00000
    35.9308     3016.00000
    35.9439     2886.00000
    35.9570     2972.00000
    35.9702     2920.00000
    35.9833     2941.00000
    35.9964     3044.00000
    36.0096     3018.00000
    36.0227     2992.00000
    36.0358     3030.00000
    36.0489     3065.00000
    36.0621     2941.00000
    36.0752     3109.00000
    36.0883     2969.00000
    36.1015     2969.00000
    36.1146     3004.00000
    36.1277     3019.00000
    36.1409     2985.00000
    36.1540     3046.00000
    36.1671     2929.00000
    36.1802     2989.00000
    36.1934     3010.00000
    36.2065     2909.00000
    36.2196     3030.00000
    36.2328     2832.00000
    36.2459     2859.00000
    36.2590     2935.00000
    36.2722     3029.00000
    36.2853     2967.00000
    36.2984     2976.00000
    36.3116     2858.00000
    36.3247     2888.00000
    36.3378     2938.00000
    36.3509     2931.00000
    36.3641     2873.00000
    36.3772     3016.00000
    36.3903     2871.00000
    36.4035     2910.00000
    36.4166     2981.00000
    36.4297     2879.00000
    36.4429     2978.00000
    36.4560     3011.00000
    36.4691     3024.00000
    36.4822     3095.00000
    36.4954     2993.00000
    36.5085     3116.00000
    36.5216     3069.00000
    36.5348     3116.00000
    36.5479     3273.00000
    36.5610     3149.00000
    36.5742     3248.00000
    36.5873     3432.00000
    36.6004     3679.00000
    36.6135     4075.00000
    36.6267     5051.00000
    36.6398     6310.00000
    36.6529     8056.00000
    36.6661     9490.00000
    36.6792     9751.00000
    36.6923     8882.00000
    36.7055     7381.00000
    36.7186     6296.00000
    36.7317     5884.00000
    36.7449     6134.00000
    36.7580     6564.00000
    36.7711     6482.00000
    36.7842     5978.00000
    36.7974     5349.00000
    36.8105     4451.00000
    36.8236     3905.00000
    36.8368     3540.00000
    36.8499     3350.00000
    36.8630     3197.00000
    36.8762     3167.00000
    36.8893     3179.00000
    36.9024     3126.00000
    36.9155     3165.00000
    36.9287     3064.00000
    36.9418     3044.00000
    36.9549     3000.00000
    36.9681     3051.00000
    36.9812     3078.00000
    36.9943     2951.00000
    37.0075     3054.00000
    37.0206     2964.00000
    37.0337     2991.00000
    37.0468     3013.00000
    37.0600     3136.00000
    37.0731     3044.00000
    37.0862     3039.00000
    37.0994     3135.00000
    37.1125     3171.00000
    37.1256     3174.00000
    37.1388     3091.00000
    37.1519     3250.00000
    37.1650     3242.00000
    37.1782     3262.00000
    37.1913     3372.00000
    37.2044     3648.00000
    37.2175     3946.00000
    37.2307     4412.00000
    37.2438     5332.00000
    37.2569     6607.00000
    37.2701     8050.00000
    37.2832     9466.00000
    37.2963    10241.00000
    37.3095    10138.00000
    37.3226     9262.00000
    37.3357     8440.00000
    37.3488     7762.00000
    37.3620     7150.00000
    37.3751     6787.00000
    37.3882     7098.00000
    37.4014     6728.00000
    37.4145     6279.00000
    37.4276     5602.00000
    37.4408     4920.00000
    37.4539     4329.00000
    37.4670     3799.00000
    37.4801     3395.00000
    37.4933     3302.00000
    37.5064     3262.00000
    37.5195     3211.00000
    37.5327     3023.00000
    37.5458     3143.00000
    37.5589     3299.00000
    37.5721     3448.00000
    37.5852     3583.00000
    37.5983     3670.00000
    37.6115     3516.00000
    37.6246     3417.00000
    37.6377     3312.00000
    37.6508     3301.00000
    37.6640     3359.00000
    37.6771     3299.00000
    37.6902     3374.00000
    37.7034     3298.00000
    37.7165     3140.00000
    37.7296     3227.00000
    37.7428     3016.00000
    37.7559     2899.00000
    37.7690     2930.00000
    37.7821     2908.00000
    37.7953     2871.00000
    37.8084     2827.00000
    37.8215     2894.00000
    37.8347     2783.00000
    37.8478     2868.00000
    37.8609     2950.00000
    37.8741     2804.00000
    37.8872     2775.00000
    37.9003     2757.00000
    37.9134     2759.00000
    37.9266     2857.00000
    37.9397     2790.00000
    37.9528     2799.00000
    37.9660     2840.00000
    37.9791     2811.00000
    37.9922     2814.00000
    38.0054     2764.00000
    38.0185     2676.00000
    38.0316     2856.00000
    38.0448     2830.00000
    38.0579     2772.00000
    38.0710     2827.00000
    38.0841     2866.00000
    38.0973     2756.00000
    38.1104     2818.00000
    38.1235     2747.00000
    38.1367     2733.00000
    38.1498     2735.00000
    38.1629     2804.00000
    38.1761     2856.00000
    38.1892     2772.00000
    38.2023     2751.00000
    38.2154     2798.00000
    38.2286     2797.00000
    38.2417     2816.00000
    38.2548     2813.00000
    38.2680     2716.00000
    38.2811     2755.00000
    38.2942     2742.00000
    38.3074     2786.00000
    38.3205     2805.00000
    38.3336     2747.00000
    38.3467     2842.00000
    38.3599     2718.00000
    38.3730     2758.00000
    38.3861     2685.00000
    38.3993     2786.00000
    38.4124     2692.00000
    38.4255     2736.00000
    38.4387     2790.00000
    38.4518     2750.00000
    38.4649     2754.00000
    38.4781     2758.00000
    38.4912     2715.00000
    38.5043     2708.00000
    38.5174     2746.00000
    38.5306     2872.00000
    38.5437     2815.00000
    38.5568     2886.00000
    38.5700     2767.00000
    38.5831     2769.00000
    38.5962     2808.00000
    38.6094     2677.00000
    38.6225     2800.00000
    38.6356     2805.00000
    38.6487     2877.00000
    38.6619     2712.00000
    38.6750     2721.00000
    38.6881     2755.00000
    38.7013     2793.00000
    38.7144     2776.00000
    38.7275     2751.00000
    38.7407     2782.00000
    38.7538     2765.00000
    38.7669     2716.00000
    38.7800     2769.00000
    38.7932     2843.00000
    38.8063     2683.00000
    38.8194     2869.00000
    38.8326     2631.00000
    38.8457     2802.00000
    38.8588     2724.00000
    38.8720     2752.00000
    38.8851     2721.00000
    38.8982     2735.00000
    38.9114     2915.00000
    38.9245     2751.00000
    38.9376     2804.00000
    38.9507     2818.00000
    38.9639     2752.00000
    38.9770     2760.00000
    38.9901     2791.00000
    39.0033     2786.00000
    39.0164     2735.00000
    39.0295     2791.00000
    39.0427     2628.00000
    39.0558     2742.00000
    39.0689     2722.00000
    39.0820     2691.00000
    39.0952     2698.00000
    39.1083     2834.00000
    39.1214     2772.00000
    39.1346     2716.00000
    39.1477     2788.00000
    39.1608     2710.00000
    39.1740     2727.00000
    39.1871     2713.00000
    39.2002     2801.00000
    39.2133     2862.00000
    39.2265     2842.00000
    39.2396     2710.00000
    39.2527     2659.00000
    39.2659     2693.00000
    39.2790     2829.00000
    39.2921     2800.00000
    39.3053     2853.00000
    39.3184     2782.00000
    39.3315     2761.00000
    39.3446     2684.00000
    39.3578     2852.00000
    39.3709     2831.00000
    39.3840     2798.00000
    39.3972     2823.00000
    39.4103     2790.00000
    39.4234     2766.00000
    39.4366     2747.00000
    39.4497     2822.00000
    39.4628     2855.00000
    39.4760     2815.00000
    39.4891     2841.00000
    39.5022     2775.00000
    39.5153     2800.00000
    39.5285     2894.00000
    39.5416     2965.00000
    39.5547     3013.00000
    39.5679     3225.00000
    39.5810     3390.00000
    39.5941     3789.00000
    39.6073     4167.00000
    39.6204     4570.00000
    39.6335     4778.00000
    39.6466     4992.00000
    39.6598     5003.00000
    39.6729     4662.00000
    39.6860     4347.00000
    39.6992     4116.00000
    39.7123     4019.00000
    39.7254     4029.00000
    39.7386     4059.00000
    39.7517     4061.00000
    39.7648     3864.00000
    39.7779     3641.00000
    39.7911     3571.00000
    39.8042     3292.00000
    39.8173     3293.00000
    39.8305     3239.00000
    39.8436     3313.00000
    39.8567     3465.00000
    39.8699     3659.00000
    39.8830     4173.00000
    39.8961     4782.00000
    39.9092     5904.00000
    39.9224     7044.00000
    39.9355     7878.00000
    39.9486     7889.00000
    39.9618     7051.00000
    39.9749     6254.00000
    39.9880     5553.00000
    40.0012     5302.00000
    40.0143     5237.00000
    40.0274     5519.00000
    40.0406     5730.00000
    40.0537     5592.00000
    40.0668     5153.00000
    40.0799     4462.00000
    40.0931     4105.00000
    40.1062     3817.00000
    40.1193     3489.00000
    40.1325     3364.00000
    40.1456     3278.00000
    40.1587     3170.00000
    40.1719     3322.00000
    40.1850     3285.00000
    40.1981     3127.00000
    40.2112     3362.00000
    40.2244     3502.00000
    40.2375     3787.00000
    40.2506     4180.00000
    40.2638     4946.00000
    40.2769     6170.00000
    40.2900     7866.00000
    40.3032     9409.00000
    40.3163    10344.00000
    40.3294     9574.00000
    40.3425     8268.00000
    40.3557     6875.00000
    40.3688     5958.00000
    40.3819     5727.00000
    40.3951     6164.00000
    40.4082     6706.00000
    40.4213     6797.00000
    40.4345     6289.00000
    40.4476     5633.00000
    40.4607     4811.00000
    40.4739     3974.00000
    40.4870     3521.00000
    40.5001     3316.00000
    40.5132     3205.00000
    40.5264     3093.00000
    40.5395     3019.00000
    40.5526     2992.00000
    40.5658     3031.00000
    40.5789     3064.00000
    40.5920     2961.00000
    40.6052     3064.00000
    40.6183     2923.00000
    40.6314     2958.00000
    40.6445     3001.00000
    40.6577     3096.00000
    40.6708     2996.00000
    40.6839     2933.00000
    40.6971     3063.00000
    40.7102     3216.00000
    40.7233     3148.00000
    40.7365     3236.00000
    40.7496     3266.00000
    40.7627     3379.00000
    40.7758     3486.00000
    40.7890     3597.00000
    40.8021     3804.00000
    40.8152     4201.00000
    40.8284     4840.00000
    40.8415     5660.00000
    40.8546     6975.00000
    40.8678     8440.00000
    40.8809    10163.00000
    40.8940    11309.00000
    40.9072    11351.00000
    40.9203    10581.00000
    40.9334     9163.00000
    40.9465     8073.00000
    40.9597     7678.00000
    40.9728     7590.00000
    40.9859     8115.00000
    40.9991     8616.00000
    41.0122     9420.00000
    41.0253    10686.00000
    41.0385    11699.00000
    41.0516    13337.00000
    41.0647    13280.00000
    41.0778    13049.00000
    41.0910    12109.00000
    41.1041    10511.00000
    41.1172     9698.00000
    41.1304     9674.00000
    41.1435    11307.00000
    41.1566    13702.00000
    41.1698    15641.00000
    41.1829    16500.00000
    41.1960    15963.00000
    41.2091    13736.00000
    41.2223    10793.00000
    41.2354     8913.00000
    41.2485     7772.00000
    41.2617     7536.00000
    41.2748     7680.00000
    41.2879     8013.00000
    41.3011     7824.00000
    41.3142     7000.00000
    41.3273     5898.00000
    41.3405     4808.00000
    41.3536     4162.00000
    41.3667     3699.00000
    41.3798     3523.00000
    41.3930     3170.00000
    41.4061     3176.00000
    41.4192     3037.00000
    41.4324     2988.00000
    41.4455     2842.00000
    41.4586     2903.00000
    41.4718     2949.00000
    41.4849     2930.00000
    41.4980     2922.00000
    41.5111     2781.00000
    41.5243     2794.00000
    41.5374     2877.00000
    41.5505     2846.00000
    41.5637     2824.00000
    41.5768     2743.00000
    41.5899     2708.00000
    41.6031     2809.00000
    41.6162     2804.00000
    41.6293     2778.00000
    41.6424     2750.00000
    41.6556     2798.00000
    41.6687     2803.00000
    41.6818     2719.00000
    41.6950     2843.00000
    41.7081     2645.00000
    41.7212     2764.00000
    41.7344     2762.00000
    41.7475     2645.00000
    41.7606     2721.00000
    41.7738     2836.00000
    41.7869     2714.00000
    41.8000     2709.00000
    41.8131     2667.00000
    41.8263     2690.00000
    41.8394     2620.00000
    41.8525     2745.00000
    41.8657     2733.00000
    41.8788     2680.00000
    41.8919     2657.00000
    41.9051     2689.00000
    41.9182     2614.00000
    41.9313     2719.00000
    41.9444     2677.00000
    41.9576     2714.00000
    41.9707     2830.00000
    41.9838     2712.00000
    41.9970     2726.00000
    42.0101     2718.00000
    42.0232     2692.00000
    42.0364     2713.00000
    42.0495     2670.00000
    42.0626     2689.00000
    42.0757     2764.00000
    42.0889     2838.00000
    42.1020     2740.00000
    42.1151     2763.00000
    42.1283     2682.00000
    42.1414     2674.00000
    42.1545     2669.00000
    42.1677     2757.00000
    42.1808     2609.00000
    42.1939     2592.00000
    42.2071     2687.00000
    42.2202     2708.00000
    42.2333     2683.00000
    42.2464     2733.00000
    42.2596     2669.00000
    42.2727     2769.00000
    42.2858     2732.00000
    42.2990     2726.00000
    42.3121     2677.00000
    42.3252     2794.00000
    42.3384     2727.00000
    42.3515     2666.00000
    42.3646     2690.00000
    42.3777     2710.00000
    42.3909     2663.00000
    42.4040     2754.00000
    42.4171     2766.00000
    42.4303     2669.00000
    42.4434     2662.00000
    42.4565     2613.00000
    42.4697     2653.00000
    42.4828     2680.00000
    42.4959     2678.00000
    42.5090     2626.00000
    42.5222     2703.00000
    42.5353     2705.00000
    42.5484     2626.00000
    42.5616     2705.00000
    42.5747     2628.00000
    42.5878     2615.00000
    42.6010     2662.00000
    42.6141     2630.00000
    42.6272     2646.00000
    42.6404     2728.00000
    42.6535     2719.00000
    42.6666     2686.00000
    42.6797     2652.00000
    42.6929     2602.00000
    42.7060     2760.00000
    42.7191     2756.00000
    42.7323     2750.00000
    42.7454     2702.00000
    42.7585     2708.00000
    42.7717     2666.00000
    42.7848     2689.00000
    42.7979     2706.00000
    42.8110     2714.00000
    42.8242     2760.00000
    42.8373     2741.00000
    42.8504     2746.00000
    42.8636     2740.00000
    42.8767     2783.00000
    42.8898     2833.00000
    42.9030     2759.00000
    42.9161     2765.00000
    42.9292     2738.00000
    42.9423     2623.00000
    42.9555     2760.00000
    42.9686     2663.00000
    42.9817     2526.00000
    42.9949     2724.00000
    43.0080     2640.00000
    43.0211     2591.00000
    43.0343     2659.00000
    43.0474     2594.00000
    43.0605     2715.00000
    43.0736     2693.00000
    43.0868     2721.00000
    43.0999     2708.00000
    43.1130     2765.00000
    43.1262     2737.00000
    43.1393     2626.00000
    43.1524     2593.00000
    43.1656     2737.00000
    43.1787     2686.00000
    43.1918     2593.00000
    43.2050     2644.00000
    43.2181     2628.00000
    43.2312     2657.00000
    43.2443     2747.00000
    43.2575     2681.00000
    43.2706     2624.00000
    43.2837     2750.00000
    43.2969     2893.00000
    43.3100     3031.00000
    43.3231     3178.00000
    43.3363     3333.00000
    43.3494     3362.00000
    43.3625     3315.00000
    43.3756     3128.00000
    43.3888     3087.00000
    43.4019     2956.00000
    43.4150     2961.00000
    43.4282     3040.00000
    43.4413     3018.00000
    43.4544     3018.00000
    43.4676     3042.00000
    43.4807     2942.00000
    43.4938     3040.00000
    43.5069     2842.00000
    43.5201     2817.00000
    43.5332     2806.00000
    43.5463     2780.00000
    43.5595     2615.00000
    43.5726     2686.00000
    43.5857     2664.00000
    43.5989     2632.00000
    43.6120     2708.00000
    43.6251     2659.00000
    43.6383     2709.00000
    43.6514     2646.00000
    43.6645     2597.00000
    43.6776     2748.00000
    43.6908     2614.00000
    43.7039     2689.00000
    43.7170     2605.00000
    43.7302     2685.00000
    43.7433     2687.00000
    43.7564     2714.00000
    43.7696     2594.00000
    43.7827     2710.00000
    43.7958     2788.00000
    43.8089     2640.00000
    43.8221     2641.00000
    43.8352     2726.00000
    43.8483     2690.00000
    43.8615     2646.00000
    43.8746     2673.00000
    43.8877     2640.00000
    43.9009     2637.00000
    43.9140     2765.00000
    43.9271     2760.00000
    43.9402     2665.00000
    43.9534     2723.00000
    43.9665     2770.00000
    43.9796     2712.00000
    43.9928     2742.00000
    44.0059     2695.00000
    44.0190     2584.00000
    44.0322     2742.00000
    44.0453     2803.00000
    44.0584     2954.00000
    44.0715     3018.00000
    44.0847     3110.00000
    44.0978     3335.00000
    44.1109     3603.00000
    44.1241     3961.00000
    44.1372     4128.00000
    44.1503     4174.00000
    44.1635     3915.00000
    44.1766     3496.00000
    44.1897     3238.00000
    44.2029     3161.00000
    44.2160     3299.00000
    44.2291     3336.00000
    44.2422     3451.00000
    44.2554     3501.00000
    44.2685     3524.00000
    44.2816     3374.00000
    44.2948     3214.00000
    44.3079     3168.00000
    44.3210     3046.00000
    44.3342     2963.00000
    44.3473     3005.00000
    44.3604     3046.00000
    44.3735     3183.00000
    44.3867     3258.00000
    44.3998     3585.00000
    44.4129     3836.00000
    44.4261     4399.00000
    44.4392     4711.00000
    44.4523     5184.00000
    44.4655     5498.00000
    44.4786     5361.00000
    44.4917     5241.00000
    44.5048     4779.00000
    44.5180     4484.00000
    44.5311     4224.00000
    44.5442     4057.00000
    44.5574     4053.00000
    44.5705     4265.00000
    44.5836     4242.00000
    44.5968     4059.00000
    44.6099     3877.00000
    44.6230     3581.00000
    44.6362     3482.00000
    44.6493     3168.00000
    44.6624     2920.00000
    44.6755     2886.00000
    44.6887     2806.00000
    44.7018     2833.00000
    44.7149     2857.00000
    44.7281     2714.00000
    44.7412     2831.00000
    44.7543     2648.00000
    44.7675     2710.00000
    44.7806     2748.00000
    44.7937     2755.00000
    44.8068     2706.00000
    44.8200     2695.00000
    44.8331     2672.00000
    44.8462     2746.00000
    44.8594     2647.00000
    44.8725     2589.00000
    44.8856     2669.00000
    44.8988     2732.00000
    44.9119     2616.00000
    44.9250     2681.00000
    44.9381     2641.00000
    44.9513     2714.00000
    44.9644     2614.00000
    44.9775     2553.00000
    44.9907     2633.00000
    45.0038     2714.00000
    45.0169     2698.00000
    45.0301     2622.00000
    45.0432     2672.00000
    45.0563     2738.00000
    45.0695     2712.00000
    45.0826     2742.00000
    45.0957     2677.00000
    45.1088     2611.00000
    45.1220     2656.00000
    45.1351     2612.00000
    45.1482     2698.00000
    45.1614     2565.00000
    45.1745     2714.00000
    45.1876     2642.00000
    45.2008     2662.00000
    45.2139     2660.00000
    45.2270     2681.00000
    45.2401     2666.00000
    45.2533     2667.00000
    45.2664     2676.00000
    45.2795     2639.00000
    45.2927     2694.00000
    45.3058     2682.00000
    45.3189     2777.00000
    45.3321     2779.00000
    45.3452     2811.00000
    45.3583     2645.00000
    45.3714     2757.00000
    45.3846     2830.00000
    45.3977     2878.00000
    45.4108     2936.00000
    45.4240     2885.00000
    45.4371     2803.00000
    45.4502     2905.00000
    45.4634     2949.00000
    45.4765     2957.00000
    45.4896     3030.00000
    45.5028     3042.00000
    45.5159     3218.00000
    45.5290     3326.00000
    45.5421     3637.00000
    45.5553     4090.00000
    45.5684     5147.00000
    45.5815     6697.00000
    45.5947     8890.00000
    45.6078    11055.00000
    45.6209    11780.00000
    45.6341    10543.00000
    45.6472     8745.00000
    45.6603     7013.00000
    45.6734     5853.00000
    45.6866     5188.00000
    45.6997     5270.00000
    45.7128     6047.00000
    45.7260     7073.00000
    45.7391     7472.00000
    45.7522     6926.00000
    45.7654     5849.00000
    45.7785     4932.00000
    45.7916     4182.00000
    45.8047     3613.00000
    45.8179     3196.00000
    45.8310     3090.00000
    45.8441     3001.00000
    45.8573     2965.00000
    45.8704     2868.00000
    45.8835     2804.00000
    45.8967     2815.00000
    45.9098     2807.00000
    45.9229     2728.00000
    45.9361     2769.00000
    45.9492     2809.00000
    45.9623     2651.00000
    45.9754     2651.00000
    45.9886     2681.00000
    46.0017     2820.00000
    46.0148     2752.00000
    46.0280     2722.00000
    46.0411     2868.00000
    46.0542     2933.00000
    46.0674     2747.00000
    46.0805     2818.00000
    46.0936     2780.00000
    46.1067     2818.00000
    46.1199     2859.00000
    46.1330     2916.00000
    46.1461     2937.00000
    46.1593     2891.00000
    46.1724     2953.00000
    46.1855     2877.00000
    46.1987     2997.00000
    46.2118     2926.00000
    46.2249     3117.00000
    46.2380     3184.00000
    46.2512     3395.00000
    46.2643     3717.00000
    46.2774     4456.00000
    46.2906     5334.00000
    46.3037     6457.00000
    46.3168     7147.00000
    46.3300     7292.00000
    46.3431     6361.00000
    46.3562     5303.00000
    46.3694     4595.00000
    46.3825     4103.00000
    46.3956     3966.00000
    46.4087     4180.00000
    46.4219     4661.00000
    46.4350     4900.00000
    46.4481     4883.00000
    46.4613     4717.00000
    46.4744     4249.00000
    46.4875     3615.00000
    46.5007     3391.00000
    46.5138     3124.00000
    46.5269     2867.00000
    46.5400     2931.00000
    46.5532     2922.00000
    46.5663     2882.00000
    46.5794     2859.00000
    46.5926     2873.00000
    46.6057     2754.00000
    46.6188     2819.00000
    46.6320     2764.00000
    46.6451     2805.00000
    46.6582     2837.00000
    46.6713     2790.00000
    46.6845     2777.00000
    46.6976     2747.00000
    46.7107     2779.00000
    46.7239     2866.00000
    46.7370     2778.00000
    46.7501     2877.00000
    46.7633     2905.00000
    46.7764     2788.00000
    46.7895     2932.00000
    46.8027     2820.00000
    46.8158     2882.00000
    46.8289     2884.00000
    46.8420     2875.00000
    46.8552     2837.00000
    46.8683     2930.00000
    46.8814     3006.00000
    46.8946     3062.00000
    46.9077     3025.00000
    46.9208     3059.00000
    46.9340     3171.00000
    46.9471     3373.00000
    46.9602     3584.00000
    46.9733     3926.00000
    46.9865     4438.00000
    46.9996     5157.00000
    47.0127     6173.00000
    47.0259     7088.00000
    47.0390     7980.00000
    47.0521     8613.00000
    47.0653     8916.00000
    47.0784     8271.00000
    47.0915     6873.00000
    47.1046     5915.00000
    47.1178     5257.00000
    47.1309     5101.00000
    47.1440     5365.00000
    47.1572     5600.00000
    47.1703     5815.00000
    47.1834     5976.00000
    47.1966     5669.00000
    47.2097     5228.00000
    47.2228     4343.00000
    47.2359     3959.00000
    47.2491     3532.00000
    47.2622     3325.00000
    47.2753     3191.00000
    47.2885     2996.00000
    47.3016     3048.00000
    47.3147     3036.00000
    47.3279     3022.00000
    47.3410     3141.00000
    47.3541     3100.00000
    47.3673     3045.00000
    47.3804     3014.00000
    47.3935     3114.00000
    47.4066     3145.00000
    47.4198     3129.00000
    47.4329     3196.00000
    47.4460     3156.00000
    47.4592     3256.00000
    47.4723     3289.00000
    47.4854     3317.00000
    47.4986     3373.00000
    47.5117     3315.00000
    47.5248     3366.00000
    47.5379     3528.00000
    47.5511     3618.00000
    47.5642     3733.00000
    47.5773     3793.00000
    47.5905     4011.00000
    47.6036     4315.00000
    47.6167     4778.00000
    47.6299     5401.00000
    47.6430     6176.00000
    47.6561     7429.00000
    47.6692     9524.00000
    47.6824    12358.00000
    47.6955    15609.00000
    47.7086    18616.00000
    47.7218    20555.00000
    47.7349    19764.00000
    47.7480    17611.00000
    47.7612    14904.00000
    47.7743    11803.00000
    47.7874    10351.00000
    47.8005    10027.00000
    47.8137    10447.00000
    47.8268    11396.00000
    47.8399    12291.00000
    47.8531    12206.00000
    47.8662    11372.00000
    47.8793     9659.00000
    47.8925     8078.00000
    47.9056     6623.00000
    47.9187     5360.00000
    47.9319     4927.00000
    47.9450     4318.00000
    47.9581     4005.00000
    47.9712     3659.00000
    47.9844     3488.00000
    47.9975     3499.00000
    48.0106     3342.00000
    48.0238     3282.00000
    48.0369     3249.00000
    48.0500     3264.00000
    48.0632     3171.00000
    48.0763     3225.00000
    48.0894     3130.00000
    48.1025     3154.00000
    48.1157     3206.00000
    48.1288     3151.00000
    48.1419     3109.00000
    48.1551     3221.00000
    48.1682     3327.00000
    48.1813     3299.00000
    48.1945     3507.00000
    48.2076     3468.00000
    48.2207     3559.00000
    48.2338     3769.00000
    48.2470     4306.00000
    48.2601     4782.00000
    48.2732     6039.00000
    48.2864     7913.00000
    48.2995     9908.00000
    48.3126    12184.00000
    48.3258    12933.00000
    48.3389    12951.00000
    48.3520    12962.00000
    48.3652    13257.00000
    48.3783    13158.00000
    48.3914    12293.00000
    48.4045    11176.00000
    48.4177    10847.00000
    48.4308    10143.00000
    48.4439     9730.00000
    48.4571     9169.00000
    48.4702     8689.00000
    48.4833     8620.00000
    48.4965     8228.00000
    48.5096     8055.00000
    48.5227     7243.00000
    48.5358     6478.00000
    48.5490     5764.00000
    48.5621     5030.00000
    48.5752     4497.00000
    48.5884     4185.00000
    48.6015     4093.00000
    48.6146     4337.00000
    48.6278     4527.00000
    48.6409     5084.00000
    48.6540     6039.00000
    48.6671     7606.00000
    48.6803     9642.00000
    48.6934    11990.00000
    48.7065    13317.00000
    48.7197    13032.00000
    48.7328    11398.00000
    48.7459     9599.00000
    48.7591     7892.00000
    48.7722     6615.00000
    48.7853     6030.00000
    48.7985     6409.00000
    48.8116     7129.00000
    48.8247     7809.00000
    48.8378     8236.00000
    48.8510     8263.00000
    48.8641     7034.00000
    48.8772     6104.00000
    48.8904     5064.00000
    48.9035     4350.00000
    48.9166     3889.00000
    48.9298     3563.00000
    48.9429     3402.00000
    48.9560     3323.00000
    48.9691     3162.00000
    48.9823     3119.00000
    48.9954     3058.00000
    49.0085     3118.00000
    49.0217     2971.00000
    49.0348     2960.00000
    49.0479     3003.00000
    49.0611     2990.00000
    49.0742     3025.00000
    49.0873     2895.00000
    49.1004     2991.00000
    49.1136     2947.00000
    49.1267     2948.00000
    49.1398     2859.00000
    49.1530     2764.00000
    49.1661     2811.00000
    49.1792     2760.00000
    49.1924     2802.00000
    49.2055     2832.00000
    49.2186     2842.00000
    49.2318     2866.00000
    49.2449     2937.00000
    49.2580     2904.00000
    49.2711     2975.00000
    49.2843     2842.00000
    49.2974     2935.00000
    49.3105     3100.00000
    49.3237     3189.00000
    49.3368     3259.00000
    49.3499     3370.00000
    49.3631     3500.00000
    49.3762     3630.00000
    49.3893     3519.00000
    49.4024     3432.00000
    49.4156     3267.00000
    49.4287     3215.00000
    49.4418     3183.00000
    49.4550     3119.00000
    49.4681     3225.00000
    49.4812     3181.00000
    49.4944     3287.00000
    49.5075     3372.00000
    49.5206     3446.00000
    49.5337     3587.00000
    49.5469     3478.00000
    49.5600     3511.00000
    49.5731     3393.00000
    49.5863     3446.00000
    49.5994     3489.00000
    49.6125     3351.00000
    49.6257     3416.00000
    49.6388     3469.00000
    49.6519     3273.00000
    49.6651     3303.00000
    49.6782     3455.00000
    49.6913     3508.00000
    49.7044     3507.00000
    49.7176     3684.00000
    49.7307     3592.00000
    49.7438     3591.00000
    49.7570     3702.00000
    49.7701     3655.00000
    49.7832     3658.00000
    49.7964     3877.00000
    49.8095     4061.00000
    49.8226     4476.00000
    49.8357     4954.00000
    49.8489     5817.00000
    49.8620     7167.00000
    49.8751     9346.00000
    49.8883    12182.00000
    49.9014    15654.00000
    49.9145    18215.00000
    49.9277    18893.00000
    49.9408    18143.00000
    49.9539    15765.00000
    49.9670    13305.00000
    49.9802    11087.00000
    49.9933     9977.00000
    50.0064     9937.00000
    50.0196    10556.00000
    50.0327    11220.00000
    50.0458    12045.00000
    50.0590    12191.00000
    50.0721    11103.00000
    50.0852     9958.00000
    50.0984     8257.00000
    50.1115     6953.00000
    50.1246     6029.00000
    50.1377     5427.00000
    50.1509     4941.00000
    50.1640     4518.00000
    50.1771     4236.00000
    50.1903     4020.00000
    50.2034     3884.00000
    50.2165     3577.00000
    50.2297     3679.00000
    50.2428     3481.00000
    50.2559     3507.00000
    50.2690     3626.00000
    50.2822     3702.00000
    50.2953     3809.00000
    50.3084     4102.00000
    50.3216     4299.00000
    50.3347     4765.00000
    50.3478     5492.00000
    50.3610     6422.00000
    50.3741     7409.00000
    50.3872     8792.00000
    50.4003    10022.00000
    50.4135    10953.00000
    50.4266    11363.00000
    50.4397    10926.00000
    50.4529     9547.00000
    50.4660     7848.00000
    50.4791     6991.00000
    50.4923     6382.00000
    50.5054     6428.00000
    50.5185     6689.00000
    50.5317     6934.00000
    50.5448     7190.00000
    50.5579     7322.00000
    50.5710     7176.00000
    50.5842     6317.00000
    50.5973     5528.00000
    50.6104     4933.00000
    50.6236     4152.00000
    50.6367     3762.00000
    50.6498     3486.00000
    50.6630     3390.00000
    50.6761     3350.00000
    50.6892     3273.00000
    50.7023     3202.00000
    50.7155     3135.00000
    50.7286     3126.00000
    50.7417     2991.00000
    50.7549     3058.00000
    50.7680     2896.00000
    50.7811     3033.00000
    50.7943     2929.00000
    50.8074     2918.00000
    50.8205     2851.00000
    50.8336     2884.00000
    50.8468     2882.00000
    50.8599     2892.00000
    50.8730     2817.00000
    50.8862     2774.00000
    50.8993     2738.00000
    50.9124     2946.00000
    50.9256     2879.00000
    50.9387     2822.00000
    50.9518     2847.00000
    50.9649     2807.00000
    50.9781     2772.00000
    50.9912     2843.00000
    51.0043     2872.00000
    51.0175     2841.00000
    51.0306     2915.00000
    51.0437     2916.00000
    51.0569     2950.00000
    51.0700     2875.00000
    51.0831     2997.00000
    51.0963     2935.00000
    51.1094     2924.00000
    51.1225     3067.00000
    51.1356     2944.00000
    51.1488     3031.00000
    51.1619     3035.00000
    51.1750     3077.00000
    51.1882     3172.00000
    51.2013     3267.00000
    51.2144     3489.00000
    51.2276     3762.00000
    51.2407     4460.00000
    51.2538     5133.00000
    51.2669     6511.00000
    51.2801     7910.00000
    51.2932     8811.00000
    51.3063     9050.00000
    51.3195     8069.00000
    51.3326     6957.00000
    51.3457     5783.00000
    51.3589     5124.00000
    51.3720     4531.00000
    51.3851     4649.00000
    51.3982     4845.00000
    51.4114     5404.00000
    51.4245     5929.00000
    51.4376     6032.00000
    51.4508     5674.00000
    51.4639     5306.00000
    51.4770     4819.00000
    51.4902     4303.00000
    51.5033     4067.00000
    51.5164     3905.00000
    51.5296     3695.00000
    51.5427     3816.00000
    51.5558     3791.00000
    51.5689     3339.00000
    51.5821     3150.00000
    51.5952     3094.00000
    51.6083     3085.00000
    51.6215     3116.00000
    51.6346     3060.00000
    51.6477     3171.00000
    51.6609     3125.00000
    51.6740     3215.00000
    51.6871     3093.00000
    51.7002     3018.00000
    51.7134     3088.00000
    51.7265     2860.00000
    51.7396     2874.00000
    51.7528     2862.00000
    51.7659     2895.00000
    51.7790     2844.00000
    51.7922     2781.00000
    51.8053     2755.00000
    51.8184     2821.00000
    51.8315     2822.00000
    51.8447     2884.00000
    51.8578     2870.00000
    51.8709     2851.00000
    51.8841     2763.00000
    51.8972     2795.00000
    51.9103     2801.00000
    51.9235     2856.00000
    51.9366     2793.00000
    51.9497     2846.00000
    51.9628     2793.00000
    51.9760     2803.00000
    51.9891     2764.00000
    52.0022     2835.00000
    52.0154     2746.00000
    52.0285     2661.00000
    52.0416     2826.00000
    52.0548     2811.00000
    52.0679     2856.00000
    52.0810     2781.00000
    52.0942     2808.00000
    52.1073     2829.00000
    52.1204     2746.00000
    52.1335     2867.00000
    52.1467     2838.00000
    52.1598     2778.00000
    52.1729     2779.00000
    52.1861     2872.00000
    52.1992     2910.00000
    52.2123     2935.00000
    52.2255     2839.00000
    52.2386     2823.00000
    52.2517     2965.00000
    52.2648     2904.00000
    52.2780     3011.00000
    52.2911     3021.00000
    52.3042     3037.00000
    52.3174     3025.00000
    52.3305     3108.00000
    52.3436     3131.00000
    52.3568     3217.00000
    52.3699     3412.00000
    52.3830     3470.00000
    52.3961     3829.00000
    52.4093     4249.00000
    52.4224     4718.00000
    52.4355     5913.00000
    52.4487     7065.00000
    52.4618     8349.00000
    52.4749     9654.00000
    52.4881    10339.00000
    52.5012    10609.00000
    52.5143    10525.00000
    52.5275     9695.00000
    52.5406     8701.00000
    52.5537     7450.00000
    52.5668     6340.00000
    52.5800     6007.00000
    52.5931     6103.00000
    52.6062     6394.00000
    52.6194     6760.00000
    52.6325     7050.00000
    52.6456     7026.00000
    52.6588     6654.00000
    52.6719     6211.00000
    52.6850     5420.00000
    52.6981     4810.00000
    52.7113     4309.00000
    52.7244     3765.00000
    52.7375     3555.00000
    52.7507     3528.00000
    52.7638     3391.00000
    52.7769     3660.00000
    52.7901     3837.00000
    52.8032     4235.00000
    52.8163     4712.00000
    52.8294     4911.00000
    52.8426     5442.00000
    52.8557     5713.00000
    52.8688     5870.00000
    52.8820     5925.00000
    52.8951     6015.00000
    52.9082     5893.00000
    52.9214     5801.00000
    52.9345     5316.00000
    52.9476     5106.00000
    52.9608     4672.00000
    52.9739     4579.00000
    52.9870     4416.00000
    53.0001     4445.00000
    53.0133     4432.00000
    53.0264     4480.00000
    53.0395     4385.00000
    53.0527     4383.00000
    53.0658     4053.00000
    53.0789     3802.00000
    53.0921     3536.00000
    53.1052     3324.00000
    53.1183     3106.00000
    53.1314     3061.00000
    53.1446     2923.00000
    53.1577     2867.00000
    53.1708     2775.00000
    53.1840     2874.00000
    53.1971     2684.00000
    53.2102     2833.00000
    53.2234     2770.00000
    53.2365     2747.00000
    53.2496     2759.00000
    53.2627     2783.00000
    53.2759     2843.00000
    53.2890     2779.00000
    53.3021     2807.00000
    53.3153     2776.00000
    53.3284     2787.00000
    53.3415     2634.00000
    53.3547     2735.00000
    53.3678     2755.00000
    53.3809     2902.00000
    53.3941     2749.00000
    53.4072     2881.00000
    53.4203     2890.00000
    53.4334     2953.00000
    53.4466     3022.00000
    53.4597     3269.00000
    53.4728     3524.00000
    53.4860     3789.00000
    53.4991     3938.00000
    53.5122     4261.00000
    53.5254     4328.00000
    53.5385     4225.00000
    53.5516     3782.00000
    53.5647     3684.00000
    53.5779     3471.00000
    53.5910     3269.00000
    53.6041     3249.00000
    53.6173     3249.00000
    53.6304     3249.00000
    53.6435     3461.00000
    53.6567     3543.00000
    53.6698     3561.00000
    53.6829     3456.00000
    53.6960     3311.00000
    53.7092     3107.00000
    53.7223     2948.00000
    53.7354     2867.00000
    53.7486     2861.00000
    53.7617     2827.00000
    53.7748     2780.00000
    53.7880     2715.00000
    53.8011     2854.00000
    53.8142     2724.00000
    53.8274     2778.00000
    53.8405     2760.00000
    53.8536     2744.00000
    53.8667     2717.00000
    53.8799     2583.00000
    53.8930     2637.00000
    53.9061     2590.00000
    53.9193     2710.00000
    53.9324     2692.00000
    53.9455     2664.00000
    53.9587     2761.00000
    53.9718     2698.00000
    53.9849     2732.00000
    53.9980     2691.00000
    54.0112     2697.00000
    54.0243     2596.00000
    54.0374     2768.00000
    54.0506     2674.00000
    54.0637     2696.00000
    54.0768     2685.00000
    54.0900     2610.00000
    54.1031     2707.00000
    54.1162     2741.00000
    54.1293     2763.00000
    54.1425     2635.00000
    54.1556     2769.00000
    54.1687     2850.00000
    54.1819     2774.00000
    54.1950     2802.00000
    54.2081     2915.00000
    54.2213     3019.00000
    54.2344     3045.00000
    54.2475     3075.00000
    54.2607     3112.00000
    54.2738     3108.00000
    54.2869     3079.00000
    54.3000     3044.00000
    54.3132     3129.00000
    54.3263     3008.00000
    54.3394     3033.00000
    54.3526     2936.00000
    54.3657     2908.00000
    54.3788     2897.00000
    54.3920     2885.00000
    54.4051     2818.00000
    54.4182     2989.00000
    54.4313     2858.00000
    54.4445     2781.00000
    54.4576     2824.00000
    54.4707     2830.00000
    54.4839     2693.00000
    54.4970     2781.00000
    54.5101     2751.00000
    54.5233     2743.00000
    54.5364     2659.00000
    54.5495     2703.00000
    54.5626     2764.00000
    54.5758     2733.00000
    54.5889     2721.00000
    54.6020     2756.00000
    54.6152     2765.00000
    54.6283     2733.00000
    54.6414     2744.00000
    54.6546     2582.00000
    54.6677     2772.00000
    54.6808     2696.00000
    54.6940     2621.00000
    54.7071     2685.00000
    54.7202     2656.00000
    54.7333     2607.00000
    54.7465     2712.00000
    54.7596     2707.00000
    54.7727     2770.00000
    54.7859     2699.00000
    54.7990     2670.00000
    54.8121     2743.00000
    54.8253     2704.00000
    54.8384     2734.00000
    54.8515     2773.00000
    54.8646     2706.00000
    54.8778     2578.00000
    54.8909     2772.00000
    54.9040     2647.00000
    54.9172     2731.00000
    54.9303     2731.00000
    54.9434     2687.00000
    54.9566     2716.00000
    54.9697     2759.00000
    54.9828     2831.00000
    54.9959     2821.00000
    55.0091     2780.00000
    55.0222     2793.00000
    55.0353     2785.00000
    55.0485     2799.00000
    55.0616     2919.00000
    55.0747     2962.00000
    55.0879     2942.00000
    55.1010     2936.00000
    55.1141     3062.00000
    55.1272     3011.00000
    55.1404     3073.00000
    55.1535     3080.00000
    55.1666     3116.00000
    55.1798     3210.00000
    55.1929     3318.00000
    55.2060     3458.00000
    55.2192     3658.00000
    55.2323     3950.00000
    55.2454     4370.00000
    55.2586     5010.00000
    55.2717     5876.00000
    55.2848     7017.00000
    55.2979     8748.00000
    55.3111    10335.00000
    55.3242    11385.00000
    55.3373    11279.00000
    55.3505    10134.00000
    55.3636     8727.00000
    55.3767     7399.00000
    55.3899     6314.00000
    55.4030     5730.00000
    55.4161     5542.00000
    55.4292     5894.00000
    55.4424     6187.00000
    55.4555     6950.00000
    55.4686     7401.00000
    55.4818     7426.00000
    55.4949     7148.00000
    55.5080     6308.00000
    55.5212     5564.00000
    55.5343     4837.00000
    55.5474     4259.00000
    55.5605     3923.00000
    55.5737     3697.00000
    55.5868     3511.00000
    55.5999     3534.00000
    55.6131     3616.00000
    55.6262     3497.00000
    55.6393     3537.00000
    55.6525     3672.00000
    55.6656     3491.00000
    55.6787     3272.00000
    55.6918     3229.00000
    55.7050     3103.00000
    55.7181     3026.00000
    55.7312     3052.00000
    55.7444     3040.00000
    55.7575     3025.00000
    55.7706     3036.00000
    55.7838     3039.00000
    55.7969     3060.00000
    55.8100     3068.00000
    55.8232     2994.00000
    55.8363     2916.00000
    55.8494     2962.00000
    55.8625     2921.00000
    55.8757     2765.00000
    55.8888     2865.00000
    55.9019     2915.00000
    55.9151     2890.00000
    55.9282     2909.00000
    55.9413     3023.00000
    55.9545     2814.00000
    55.9676     3019.00000
    55.9807     2930.00000
    55.9938     3028.00000
    56.0070     2995.00000
    56.0201     3026.00000
    56.0332     3101.00000
    56.0464     3047.00000
    56.0595     3073.00000
    56.0726     3002.00000
    56.0858     3275.00000
    56.0989     3281.00000
    56.1120     3273.00000
    56.1251     3510.00000
    56.1383     3689.00000
    56.1514     3995.00000
    56.1645     4394.00000
    56.1777     5120.00000
    56.1908     5974.00000
    56.2039     6971.00000
    56.2171     8155.00000
    56.2302     9055.00000
    56.2433    10078.00000
    56.2565    11006.00000
    56.2696    11796.00000
    56.2827    12820.00000
    56.2958    13026.00000
    56.3090    12675.00000
    56.3221    11349.00000
    56.3352    10137.00000
    56.3484     8965.00000
    56.3615     7876.00000
    56.3746     7688.00000
    56.3878     7270.00000
    56.4009     7480.00000
    56.4140     7719.00000
    56.4271     7959.00000
    56.4403     8088.00000
    56.4534     7857.00000
    56.4665     7397.00000
    56.4797     6612.00000
    56.4928     5768.00000
    56.5059     5021.00000
    56.5191     4357.00000
    56.5322     4024.00000
    56.5453     3589.00000
    56.5584     3537.00000
    56.5716     3320.00000
    56.5847     3268.00000
    56.5978     3312.00000
    56.6110     3162.00000
    56.6241     3100.00000
    56.6372     3048.00000
    56.6504     3125.00000
    56.6635     3119.00000
    56.6766     3009.00000
    56.6898     3039.00000
    56.7029     3057.00000
    56.7160     3022.00000
    56.7291     2993.00000
    56.7423     3004.00000
    56.7554     3101.00000
    56.7685     3110.00000
    56.7817     3079.00000
    56.7948     3207.00000
    56.8079     3119.00000
    56.8211     3189.00000
    56.8342     3291.00000
    56.8473     3350.00000
    56.8604     3305.00000
    56.8736     3624.00000
    56.8867     3949.00000
    56.8998     4168.00000
    56.9130     4695.00000
    56.9261     5409.00000
    56.9392     6145.00000
    56.9524     7140.00000
    56.9655     7743.00000
    56.9786     8271.00000
    56.9917     8781.00000
    57.0049     9135.00000
    57.0180     9363.00000
    57.0311     9261.00000
    57.0443     9561.00000
    57.0574     8976.00000
    57.0705     8406.00000
    57.0837     7691.00000
    57.0968     6993.00000
    57.1099     6607.00000
    57.1231     6712.00000
    57.1362     6833.00000
    57.1493     7012.00000
    57.1624     7331.00000
    57.1756     7651.00000
    57.1887     8372.00000
    57.2018     8581.00000
    57.2150     9099.00000
    57.2281     8986.00000
    57.2412     8551.00000
    57.2544     7441.00000
    57.2675     6580.00000
    57.2806     5687.00000
    57.2937     5158.00000
    57.3069     4560.00000
    57.3200     4433.00000
    57.3331     4323.00000
    57.3463     4453.00000
    57.3594     4664.00000
    57.3725     4807.00000
    57.3857     5084.00000
    57.3988     4882.00000
    57.4119     4707.00000
    57.4250     4387.00000
    57.4382     4059.00000
    57.4513     3641.00000
    57.4644     3433.00000
    57.4776     3407.00000
    57.4907     3258.00000
    57.5038     3231.00000
    57.5170     3018.00000
    57.5301     3036.00000
    57.5432     3041.00000
    57.5564     3054.00000
    57.5695     3078.00000
    57.5826     2975.00000
    57.5957     3062.00000
    57.6089     3102.00000
    57.6220     2999.00000
    57.6351     3093.00000
    57.6483     3214.00000
    57.6614     3094.00000
    57.6745     3104.00000
    57.6877     3243.00000
    57.7008     3372.00000
    57.7139     3406.00000
    57.7270     3621.00000
    57.7402     3781.00000
    57.7533     4134.00000
    57.7664     4505.00000
    57.7796     5264.00000
    57.7927     6050.00000
    57.8058     7393.00000
    57.8190     8148.00000
    57.8321     8992.00000
    57.8452     8867.00000
    57.8583     7966.00000
    57.8715     6898.00000
    57.8846     5968.00000
    57.8977     5388.00000
    57.9109     5014.00000
    57.9240     4866.00000
    57.9371     5184.00000
    57.9503     5725.00000
    57.9634     6408.00000
    57.9765     7084.00000
    57.9897     7071.00000
    58.0028     6983.00000
    58.0159     6341.00000
    58.0290     5674.00000
    58.0422     5058.00000
    58.0553     4496.00000
    58.0684     4165.00000
    58.0816     3769.00000
    58.0947     3723.00000
    58.1078     3688.00000
    58.1210     3792.00000
    58.1341     3650.00000
    58.1472     3696.00000
    58.1603     3725.00000
    58.1735     3456.00000
    58.1866     3500.00000
    58.1997     3425.00000
    58.2129     3308.00000
    58.2260     3343.00000
    58.2391     3356.00000
    58.2523     3233.00000
    58.2654     3198.00000
    58.2785     3211.00000
    58.2916     3248.00000
    58.3048     3345.00000
    58.3179     3369.00000
    58.3310     3565.00000
    58.3442     3662.00000
    58.3573     3905.00000
    58.3704     4158.00000
    58.3836     4700.00000
    58.3967     5129.00000
    58.4098     6004.00000
    58.4230     6990.00000
    58.4361     7555.00000
    58.4492     8391.00000
    58.4623     8765.00000
    58.4755     8582.00000
    58.4886     8018.00000
    58.5017     7107.00000
    58.5149     6399.00000
    58.5280     5589.00000
    58.5411     5260.00000
    58.5543     5302.00000
    58.5674     5553.00000
    58.5805     5832.00000
    58.5936     6316.00000
    58.6068     7066.00000
    58.6199     7658.00000
    58.6330     8460.00000
    58.6462     9224.00000
    58.6593     9959.00000
    58.6724    10255.00000
    58.6856    10343.00000
    58.6987     9625.00000
    58.7118     8369.00000
    58.7249     6947.00000
    58.7381     5839.00000
    58.7512     5177.00000
    58.7643     4854.00000
    58.7775     4885.00000
    58.7906     5050.00000
    58.8037     5306.00000
    58.8169     5957.00000
    58.8300     6587.00000
    58.8431     6899.00000
    58.8562     7227.00000
    58.8694     7120.00000
    58.8825     7077.00000
    58.8956     7367.00000
    58.9088     7786.00000
    58.9219     8630.00000
    58.9350     9259.00000
    58.9482     9423.00000
    58.9613     9466.00000
    58.9744     8720.00000
    58.9876     7801.00000
    59.0007     6826.00000
    59.0138     5763.00000
    59.0269     5055.00000
    59.0401     5065.00000
    59.0532     5084.00000
    59.0663     5230.00000
    59.0795     5708.00000
    59.0926     5846.00000
    59.1057     6192.00000
    59.1189     6127.00000
    59.1320     5813.00000
    59.1451     5374.00000
    59.1582     4731.00000
    59.1714     4296.00000
    59.1845     4089.00000
    59.1976     3693.00000
    59.2108     3404.00000
    59.2239     3230.00000
    59.2370     3152.00000
    59.2502     3194.00000
    59.2633     3084.00000
    59.2764     2892.00000
    59.2895     3075.00000
    59.3027     3095.00000
    59.3158     3066.00000
    59.3289     2978.00000
    59.3421     3123.00000
    59.3552     3028.00000
    59.3683     3114.00000
    59.3815     3089.00000
    59.3946     3021.00000
    59.4077     2918.00000
    59.4208     3051.00000
    59.4340     3117.00000
    59.4471     3148.00000
    59.4602     3280.00000
    59.4734     3387.00000
    59.4865     3752.00000
    59.4996     4217.00000
    59.5128     4550.00000
    59.5259     5350.00000
    59.5390     5924.00000
    59.5522     6540.00000
    59.5653     7498.00000
    59.5784     7975.00000
    59.5915     8165.00000
    59.6047     8216.00000
    59.6178     7833.00000
    59.6309     7227.00000
    59.6441     6522.00000
    59.6572     5849.00000
    59.6703     5454.00000
    59.6835     5194.00000
    59.6966     5247.00000
    59.7097     5767.00000
    59.7228     6389.00000
    59.7360     7044.00000
    59.7491     7529.00000
    59.7622     8297.00000
    59.7754     8578.00000
    59.7885     8588.00000
    59.8016     8770.00000
    59.8148     8952.00000
    59.8279     9444.00000
    59.8410    10471.00000
    59.8541    11360.00000
    59.8673    11381.00000
    59.8804    10735.00000
    59.8935     9218.00000
    59.9067     7906.00000
    59.9198     6775.00000
    59.9329     6071.00000
    59.9461     5778.00000
    59.9592     5618.00000
    59.9723     5754.00000
    59.9855     5864.00000
    59.9986     6228.00000
    60.0117     6747.00000
    60.0248     7063.00000
    60.0380     6901.00000
    60.0511     6094.00000
    60.0642     5283.00000
    60.0774     4597.00000
    60.0905     4155.00000
    60.1036     3714.00000
    60.1168     3501.00000
    60.1299     3379.00000
    60.1430     3224.00000
    60.1561     3081.00000
    60.1693     3052.00000
    60.1824     3104.00000
    60.1955     2969.00000
    60.2087     3112.00000
    60.2218     2967.00000
    60.2349     3024.00000
    60.2481     2762.00000
    60.2612     2943.00000
    60.2743     2932.00000
    60.2874     2965.00000
    60.3006     2850.00000
    60.3137     3078.00000
    60.3268     3021.00000
    60.3400     3088.00000
    60.3531     3161.00000
    60.3662     3068.00000
    60.3794     3030.00000
    60.3925     3109.00000
    60.4056     3277.00000
    60.4188     3091.00000
    60.4319     3154.00000
    60.4450     3264.00000
    60.4581     3338.00000
    60.4713     3415.00000
    60.4844     3563.00000
    60.4975     3757.00000
    60.5107     3977.00000
    60.5238     4471.00000
    60.5369     4977.00000
    60.5501     5708.00000
    60.5632     6847.00000
    60.5763     8498.00000
    60.5894    10314.00000
    60.6026    11977.00000
    60.6157    13441.00000
    60.6288    13812.00000
    60.6420    13345.00000
    60.6551    12535.00000
    60.6682    11063.00000
    60.6814     9592.00000
    60.6945     8447.00000
    60.7076     7664.00000
    60.7207     7221.00000
    60.7339     7106.00000
    60.7470     7612.00000
    60.7601     8632.00000
    60.7733     9449.00000
    60.7864     9792.00000
    60.7995    10106.00000
    60.8127     9799.00000
    60.8258     8963.00000
    60.8389     8392.00000
    60.8521     7492.00000
    60.8652     6868.00000
    60.8783     6140.00000
    60.8914     5731.00000
    60.9046     5252.00000
    60.9177     5065.00000
    60.9308     4799.00000
    60.9440     5019.00000
    60.9571     5056.00000
    60.9702     5426.00000
    60.9834     5501.00000
    60.9965     5625.00000
    61.0096     5619.00000
    61.0227     5632.00000
    61.0359     5540.00000
    61.0490     5257.00000
    61.0621     4830.00000
    61.0753     4406.00000
    61.0884     4021.00000
    61.1015     3888.00000
    61.1147     3692.00000
    61.1278     3809.00000
    61.1409     3745.00000
    61.1540     3692.00000
    61.1672     3847.00000
    61.1803     3669.00000
    61.1934     3751.00000
    61.2066     3723.00000
    61.2197     3598.00000
    61.2328     3357.00000
    61.2460     3200.00000
    61.2591     3082.00000
    61.2722     2938.00000
    61.2854     2754.00000
    61.2985     2753.00000
    61.3116     2858.00000
    61.3247     2678.00000
    61.3379     2757.00000
    61.3510     2671.00000
    61.3641     2607.00000
    61.3773     2693.00000
    61.3904     2657.00000
    61.4035     2642.00000
    61.4167     2629.00000
    61.4298     2541.00000
    61.4429     2618.00000
    61.4560     2614.00000
    61.4692     2562.00000
    61.4823     2542.00000
    61.4954     2585.00000
    61.5086     2496.00000
    61.5217     2620.00000
    61.5348     2615.00000
    61.5480     2576.00000
    61.5611     2579.00000
    61.5742     2627.00000
    61.5873     2628.00000
    61.6005     2549.00000
    61.6136     2629.00000
    61.6267     2528.00000
    61.6399     2634.00000
    61.6530     2639.00000
    61.6661     2650.00000
    61.6793     2532.00000
    61.6924     2603.00000
    61.7055     2563.00000
    61.7187     2587.00000
    61.7318     2557.00000
    61.7449     2619.00000
    61.7580     2565.00000
    61.7712     2566.00000
    61.7843     2576.00000
    61.7974     2613.00000
    61.8106     2638.00000
    61.8237     2588.00000
    61.8368     2603.00000
    61.8500     2557.00000
    61.8631     2594.00000
    61.8762     2583.00000
    61.8893     2556.00000
    61.9025     2542.00000
    61.9156     2591.00000
    61.9287     2513.00000
    61.9419     2623.00000
    61.9550     2577.00000
    61.9681     2533.00000
    61.9813     2468.00000
    61.9944     2503.00000
    62.0075     2509.00000
    62.0206     2493.00000
    62.0338     2555.00000
    62.0469     2565.00000
    62.0600     2515.00000
    62.0732     2518.00000
    62.0863     2525.00000
    62.0994     2462.00000
    62.1126     2516.00000
    62.1257     2490.00000
    62.1388     2567.00000
    62.1520     2480.00000
    62.1651     2487.00000
    62.1782     2476.00000
    62.1913     2571.00000
    62.2045     2572.00000
    62.2176     2510.00000
    62.2307     2566.00000
    62.2439     2603.00000
    62.2570     2554.00000
    62.2701     2597.00000
    62.2833     2532.00000
    62.2964     2566.00000
    62.3095     2528.00000
    62.3226     2565.00000
    62.3358     2574.00000
    62.3489     2599.00000
    62.3620     2589.00000
    62.3752     2653.00000
    62.3883     2575.00000
    62.4014     2612.00000
    62.4146     2599.00000
    62.4277     2542.00000
    62.4408     2551.00000
    62.4539     2520.00000
    62.4671     2591.00000
    62.4802     2536.00000
    62.4933     2524.00000
    62.5065     2472.00000
    62.5196     2447.00000
    62.5327     2513.00000
    62.5459     2526.00000
    62.5590     2454.00000
    62.5721     2542.00000
    62.5852     2511.00000
    62.5984     2482.00000
    62.6115     2552.00000
    62.6246     2444.00000
    62.6378     2595.00000
    62.6509     2549.00000
    62.6640     2549.00000
    62.6772     2418.00000
    62.6903     2594.00000
    62.7034     2474.00000
    62.7166     2451.00000
    62.7297     2616.00000
    62.7428     2414.00000
    62.7559     2453.00000
    62.7691     2512.00000
    62.7822     2489.00000
    62.7953     2626.00000
    62.8085     2597.00000
    62.8216     2505.00000
    62.8347     2480.00000
    62.8479     2469.00000
    62.8610     2457.00000
    62.8741     2490.00000
    62.8872     2447.00000
    62.9004     2521.00000
    62.9135     2557.00000
    62.9266     2432.00000
    62.9398     2481.00000
    62.9529     2566.00000
    62.9660     2405.00000
    62.9792     2563.00000
    62.9923     2444.00000
    63.0054     2526.00000
    63.0185     2476.00000
    63.0317     2537.00000
    63.0448     2531.00000
    63.0579     2525.00000
    63.0711     2391.00000
    63.0842     2451.00000
    63.0973     2554.00000
    63.1105     2452.00000
    63.1236     2453.00000
    63.1367     2668.00000
    63.1499     2527.00000
    63.1630     2425.00000
    63.1761     2523.00000
    63.1892     2597.00000
    63.2024     2566.00000
    63.2155     2533.00000
    63.2286     2602.00000
    63.2418     2557.00000
    63.2549     2633.00000
    63.2680     2574.00000
    63.2812     2589.00000
    63.2943     2623.00000
    63.3074     2655.00000
    63.3205     2662.00000
    63.3337     2769.00000
    63.3468     2803.00000
    63.3599     2780.00000
    63.3731     2747.00000
    63.3862     2862.00000
    63.3993     2869.00000
    63.4125     2870.00000
    63.4256     2961.00000
    63.4387     3130.00000
    63.4518     3250.00000
    63.4650     3469.00000
    63.4781     3482.00000
    63.4912     3788.00000
    63.5044     4100.00000
    63.5175     4166.00000
    63.5306     3974.00000
    63.5438     3696.00000
    63.5569     3637.00000
    63.5700     3280.00000
    63.5831     3205.00000
    63.5963     3001.00000
    63.6094     2908.00000
    63.6225     2946.00000
    63.6357     2988.00000
    63.6488     3160.00000
    63.6619     3239.00000
    63.6751     3253.00000
    63.6882     3357.00000
    63.7013     3290.00000
    63.7145     3296.00000
    63.7276     3030.00000
    63.7407     2991.00000
    63.7538     2927.00000
    63.7670     2774.00000
    63.7801     2879.00000
    63.7932     2808.00000
    63.8064     2891.00000
    63.8195     2777.00000
    63.8326     2952.00000
    63.8458     2873.00000
    63.8589     3072.00000
    63.8720     3239.00000
    63.8851     3374.00000
    63.8983     3606.00000
    63.9114     3904.00000
    63.9245     4325.00000
    63.9377     4289.00000
    63.9508     4255.00000
    63.9639     4152.00000
    63.9771     3794.00000
    63.9902     3579.00000
    64.0033     3396.00000
    64.0164     3313.00000
    64.0296     3231.00000
    64.0427     3409.00000
    64.0558     3542.00000
    64.0690     3644.00000
    64.0821     3955.00000
    64.0952     4186.00000
    64.1084     4403.00000
    64.1215     4737.00000
    64.1346     4632.00000
    64.1478     4569.00000
    64.1609     4179.00000
    64.1740     3986.00000
    64.1871     3646.00000
    64.2003     3268.00000
    64.2134     3060.00000
    64.2265     3025.00000
    64.2397     3018.00000
    64.2528     3039.00000
    64.2659     3033.00000
    64.2791     3092.00000
    64.2922     3168.00000
    64.3053     3148.00000
    64.3184     3126.00000
    64.3316     3116.00000
    64.3447     3027.00000
    64.3578     2911.00000
    64.3710     2785.00000
    64.3841     2653.00000
    64.3972     2653.00000
    64.4104     2582.00000
    64.4235     2568.00000
    64.4366     2500.00000
    64.4498     2490.00000
    64.4629     2516.00000
    64.4760     2508.00000
    64.4891     2409.00000
    64.5023     2510.00000
    64.5154     2519.00000
    64.5285     2528.00000
    64.5417     2470.00000
    64.5548     2472.00000
    64.5679     2501.00000
    64.5811     2565.00000
    64.5942     2494.00000
    64.6073     2445.00000
    64.6204     2507.00000
    64.6336     2494.00000
    64.6467     2520.00000
    64.6598     2545.00000
    64.6730     2515.00000
    64.6861     2434.00000
    64.6992     2569.00000
    64.7124     2578.00000
    64.7255     2595.00000
    64.7386     2708.00000
    64.7517     2729.00000
    64.7649     2629.00000
    64.7780     2686.00000
    64.7911     2669.00000
    64.8043     2664.00000
    64.8174     2744.00000
    64.8305     2737.00000
    64.8437     2805.00000
    64.8568     2791.00000
    64.8699     2676.00000
    64.8830     2653.00000
    64.8962     2804.00000
    64.9093     2624.00000
    64.9224     2719.00000
    64.9356     2764.00000
    64.9487     2818.00000
    64.9618     2794.00000
    64.9750     2787.00000
    64.9881     2773.00000
    65.0012     2716.00000
    65.0144     2780.00000
    65.0275     2630.00000
    65.0406     2692.00000
    65.0537     2667.00000
    65.0669     2501.00000
    65.0800     2457.00000
    65.0931     2541.00000
    65.1063     2590.00000
    65.1194     2597.00000
    65.1325     2450.00000
    65.1457     2536.00000
    65.1588     2519.00000
    65.1719     2606.00000
    65.1850     2444.00000
    65.1982     2497.00000
    65.2113     2406.00000
    65.2244     2406.00000
    65.2376     2435.00000
    65.2507     2434.00000
    65.2638     2453.00000
    65.2770     2472.00000
    65.2901     2335.00000
    65.3032     2437.00000
    65.3163     2415.00000
    65.3295     2415.00000
    65.3426     2425.00000
    65.3557     2436.00000
    65.3689     2428.00000
    65.3820     2408.00000
    65.3951     2466.00000
    65.4083     2395.00000
    65.4214     2401.00000
    65.4345     2460.00000
    65.4476     2437.00000
    65.4608     2437.00000
    65.4739     2410.00000
    65.4870     2405.00000
    65.5002     2391.00000
    65.5133     2443.00000
    65.5264     2491.00000
    65.5396     2412.00000
    65.5527     2360.00000
    65.5658     2409.00000
    65.5790     2313.00000
    65.5921     2457.00000
    65.6052     2409.00000
    65.6183     2448.00000
    65.6315     2386.00000
    65.6446     2427.00000
    65.6577     2415.00000
    65.6709     2451.00000
    65.6840     2395.00000
    65.6971     2370.00000
    65.7103     2477.00000
    65.7234     2438.00000
    65.7365     2529.00000
    65.7496     2513.00000
    65.7628     2432.00000
    65.7759     2520.00000
    65.7890     2439.00000
    65.8022     2432.00000
    65.8153     2468.00000
    65.8284     2345.00000
    65.8416     2453.00000
    65.8547     2474.00000
    65.8678     2478.00000
    65.8810     2403.00000
    65.8941     2440.00000
    65.9072     2384.00000
    65.9203     2280.00000
    65.9335     2367.00000
    65.9466     2437.00000
    65.9597     2418.00000
    65.9729     2409.00000
    65.9860     2303.00000
    65.9991     2448.00000
    66.0123     2300.00000
    66.0254     2301.00000
    66.0385     2391.00000
    66.0516     2349.00000
    66.0648     2362.00000
    66.0779     2400.00000
    66.0910     2353.00000
    66.1042     2454.00000
    66.1173     2449.00000
    66.1304     2398.00000
    66.1436     2460.00000
    66.1567     2404.00000
    66.1698     2385.00000
    66.1829     2405.00000
    66.1961     2419.00000
    66.2092     2362.00000
    66.2223     2388.00000
    66.2355     2456.00000
    66.2486     2446.00000
    66.2617     2412.00000
    66.2749     2510.00000
    66.2880     2473.00000
    66.3011     2422.00000
    66.3142     2483.00000
    66.3274     2566.00000
    66.3405     2542.00000
    66.3536     2428.00000
    66.3668     2587.00000
    66.3799     2556.00000
    66.3930     2463.00000
    66.4062     2427.00000
    66.4193     2396.00000
    66.4324     2496.00000
    66.4455     2427.00000
    66.4587     2309.00000
    66.4718     2430.00000
    66.4849     2433.00000
    66.4981     2427.00000
    66.5112     2432.00000
    66.5243     2563.00000
    66.5375     2439.00000
    66.5506     2596.00000
    66.5637     2506.00000
    66.5769     2413.00000
    66.5900     2389.00000
    66.6031     2437.00000
    66.6162     2570.00000
    66.6294     2466.00000
    66.6425     2544.00000
    66.6556     2498.00000
    66.6688     2707.00000
    66.6819     2584.00000
    66.6950     2410.00000
    66.7082     2434.00000
    66.7213     2399.00000
    66.7344     2484.00000
    66.7476     2407.00000
    66.7607     2440.00000
    66.7738     2483.00000
    66.7869     2459.00000
    66.8001     2478.00000
    66.8132     2529.00000
    66.8263     2429.00000
    66.8395     2372.00000
    66.8526     2416.00000
    66.8657     2434.00000
    66.8789     2463.00000
    66.8920     2359.00000
    66.9051     2444.00000
    66.9182     2300.00000
    66.9314     2516.00000
    66.9445     2417.00000
    66.9576     2377.00000
    66.9708     2431.00000
    66.9839     2425.00000
    66.9970     2475.00000
    67.0102     2315.00000
    67.0233     2446.00000
    67.0364     2343.00000
    67.0495     2413.00000
    67.0627     2317.00000
    67.0758     2405.00000
    67.0889     2339.00000
    67.1021     2380.00000
    67.1152     2484.00000
    67.1283     2456.00000
    67.1415     2384.00000
    67.1546     2426.00000
    67.1677     2426.00000
    67.1808     2374.00000
    67.1940     2417.00000
    67.2071     2388.00000
    67.2202     2421.00000
    67.2334     2422.00000
    67.2465     2398.00000
    67.2596     2490.00000
    67.2728     2461.00000
    67.2859     2430.00000
    67.2990     2412.00000
    67.3121     2399.00000
    67.3253     2428.00000
    67.3384     2356.00000
    67.3515     2442.00000
    67.3647     2406.00000
    67.3778     2423.00000
    67.3909     2456.00000
    67.4041     2334.00000
    67.4172     2524.00000
    67.4303     2439.00000
    67.4435     2524.00000
    67.4566     2477.00000
    67.4697     2430.00000
    67.4828     2415.00000
    67.4960     2429.00000
    67.5091     2391.00000
    67.5222     2439.00000
    67.5354     2441.00000
    67.5485     2381.00000
    67.5616     2478.00000
    67.5748     2389.00000
    67.5879     2539.00000
    67.6010     2496.00000
    67.6142     2425.00000
    67.6273     2432.00000
    67.6404     2345.00000
    67.6535     2409.00000
    67.6667     2448.00000
    67.6798     2494.00000
    67.6929     2440.00000
    67.7061     2440.00000
    67.7192     2450.00000
    67.7323     2561.00000
    67.7455     2433.00000
    67.7586     2422.00000
    67.7717     2540.00000
    67.7848     2469.00000
    67.7980     2513.00000
    67.8111     2388.00000
    67.8242     2400.00000
    67.8374     2464.00000
    67.8505     2498.00000
    67.8636     2556.00000
    67.8768     2482.00000
    67.8899     2513.00000
    67.9030     2536.00000
    67.9161     2590.00000
    67.9293     2654.00000
    67.9424     2804.00000
    67.9555     2849.00000
    67.9687     3090.00000
    67.9818     3392.00000
    67.9949     3526.00000
    68.0081     3641.00000
    68.0212     3769.00000
    68.0343     3745.00000
    68.0474     3420.00000
    68.0606     3349.00000
    68.0737     3084.00000
    68.0868     2914.00000
    68.1000     2906.00000
    68.1131     2908.00000
    68.1262     2894.00000
    68.1394     3151.00000
    68.1525     3253.00000
    68.1656     3415.00000
    68.1787     3434.00000
    68.1919     3442.00000
    68.2050     3512.00000
    68.2181     3534.00000
    68.2313     3264.00000
    68.2444     3374.00000
    68.2575     2951.00000
    68.2707     2935.00000
    68.2838     2790.00000
    68.2969     2794.00000
    68.3101     2905.00000
    68.3232     2853.00000
    68.3363     2870.00000
    68.3494     2947.00000
    68.3626     2979.00000
    68.3757     3006.00000
    68.3888     3320.00000
    68.4020     3477.00000
    68.4151     3847.00000
    68.4282     4347.00000
    68.4414     4805.00000
    68.4545     5298.00000
    68.4676     5299.00000
    68.4807     4984.00000
    68.4939     4450.00000
    68.5070     3975.00000
    68.5201     3541.00000
    68.5333     3202.00000
    68.5464     2962.00000
    68.5595     3050.00000
    68.5727     2868.00000
    68.5858     3007.00000
    68.5989     3099.00000
    68.6120     3179.00000
    68.6252     3494.00000
    68.6383     3659.00000
    68.6514     3894.00000
    68.6646     3860.00000
    68.6777     3667.00000
    68.6908     3428.00000
    68.7040     3169.00000
    68.7171     2983.00000
    68.7302     2796.00000
    68.7434     2780.00000
    68.7565     2627.00000
    68.7696     2536.00000
    68.7827     2591.00000
    68.7959     2522.00000
    68.8090     2632.00000
    68.8221     2523.00000
    68.8353     2483.00000
    68.8484     2496.00000
    68.8615     2580.00000
    68.8747     2688.00000
    68.8878     2521.00000
    68.9009     2568.00000
    68.9140     2582.00000
    68.9272     2505.00000
    68.9403     2519.00000
    68.9534     2595.00000
    68.9666     2520.00000
    68.9797     2536.00000
    68.9928     2537.00000
    69.0060     2565.00000
    69.0191     2530.00000
    69.0322     2582.00000
    69.0453     2549.00000
    69.0585     2621.00000
    69.0716     2602.00000
    69.0847     2669.00000
    69.0979     2664.00000
    69.1110     2639.00000
    69.1241     2832.00000
    69.1373     2839.00000
    69.1504     2996.00000
    69.1635     3268.00000
    69.1767     3584.00000
    69.1898     3777.00000
    69.2029     3951.00000
    69.2160     4007.00000
    69.2292     4107.00000
    69.2423     4046.00000
    69.2554     3856.00000
    69.2686     3940.00000
    69.2817     4022.00000
    69.2948     3883.00000
    69.3080     3836.00000
    69.3211     3858.00000
    69.3342     3852.00000
    69.3473     3839.00000
    69.3605     4059.00000
    69.3736     3924.00000
    69.3867     3837.00000
    69.3999     3811.00000
    69.4130     3642.00000
    69.4261     3540.00000
    69.4393     3479.00000
    69.4524     3497.00000
    69.4655     3301.00000
    69.4786     3415.00000
    69.4918     3406.00000
    69.5049     3389.00000
    69.5180     3296.00000
    69.5312     3337.00000
    69.5443     3372.00000
    69.5574     3378.00000
    69.5706     3373.00000
    69.5837     3502.00000
    69.5968     3556.00000
    69.6099     3598.00000
    69.6231     3561.00000
    69.6362     3568.00000
    69.6493     3432.00000
    69.6625     3331.00000
    69.6756     3313.00000
    69.6887     3336.00000
    69.7019     3320.00000
    69.7150     3467.00000
    69.7281     3736.00000
    69.7413     4033.00000
    69.7544     4513.00000
    69.7675     5061.00000
    69.7806     5648.00000
    69.7938     6326.00000
    69.8069     7006.00000
    69.8200     7316.00000
    69.8332     7565.00000
    69.8463     7070.00000
    69.8594     6378.00000
    69.8726     5947.00000
    69.8857     5604.00000
    69.8988     5159.00000
    69.9119     4892.00000
    69.9251     4833.00000
    69.9382     4905.00000
    69.9513     4948.00000
    69.9645     4832.00000
    69.9776     4740.00000
    69.9907     5035.00000
    70.0039     5270.00000
    70.0170     5306.00000
    70.0301     5409.00000
    70.0433     4985.00000
    70.0564     4791.00000
    70.0695     4703.00000
    70.0826     4471.00000
    70.0958     4392.00000
    70.1089     4167.00000
    70.1220     4002.00000
    70.1352     3825.00000
    70.1483     3495.00000
    70.1614     3568.00000
    70.1746     3206.00000
    70.1877     3214.00000
    70.2008     3115.00000
    70.2139     3004.00000
    70.2271     2913.00000
    70.2402     3014.00000
    70.2533     2982.00000
    70.2665     3043.00000
    70.2796     3023.00000
    70.2927     3063.00000
    70.3059     3153.00000
    70.3190     3146.00000
    70.3321     3152.00000
    70.3452     3280.00000
    70.3584     3475.00000
    70.3715     3590.00000
    70.3846     3890.00000
    70.3978     4170.00000
    70.4109     4738.00000
    70.4240     5166.00000
    70.4372     5488.00000
    70.4503     5408.00000
    70.4634     5135.00000
    70.4765     4752.00000
    70.4897     4125.00000
    70.5028     3841.00000
    70.5159     3611.00000
    70.5291     3363.00000
    70.5422     3253.00000
    70.5553     3307.00000
    70.5685     3446.00000
    70.5816     3378.00000
    70.5947     3539.00000
    70.6078     3901.00000
    70.6210     3964.00000
    70.6341     4078.00000
    70.6472     4381.00000
    70.6604     4423.00000
    70.6735     4265.00000
    70.6866     4178.00000
    70.6998     4057.00000
    70.7129     4195.00000
    70.7260     4199.00000
    70.7392     4356.00000
    70.7523     4551.00000
    70.7654     4563.00000
    70.7785     4423.00000
    70.7917     4518.00000
    70.8048     4357.00000
    70.8179     4314.00000
    70.8311     4208.00000
    70.8442     4185.00000
    70.8573     3891.00000
    70.8705     3763.00000
    70.8836     3541.00000
    70.8967     3532.00000
    70.9099     3517.00000
    70.9230     3408.00000
    70.9361     3452.00000
    70.9492     3503.00000
    70.9624     3681.00000
    70.9755     3674.00000
    70.9886     3716.00000
    71.0018     3693.00000
    71.0149     3743.00000
    71.0280     3689.00000
    71.0412     3875.00000
    71.0543     3834.00000
    71.0674     4093.00000
    71.0805     4293.00000
    71.0937     4844.00000
    71.1068     5238.00000
    71.1199     5303.00000
    71.1331     5039.00000
    71.1462     4644.00000
    71.1593     4062.00000
    71.1725     3493.00000
    71.1856     3177.00000
    71.1987     3077.00000
    71.2118     2930.00000
    71.2250     2982.00000
    71.2381     2969.00000
    71.2512     3052.00000
    71.2644     3091.00000
    71.2775     3324.00000
    71.2906     3396.00000
    71.3038     3694.00000
    71.3169     3968.00000
    71.3300     3846.00000
    71.3431     3585.00000
    71.3563     3384.00000
    71.3694     3343.00000
    71.3825     3027.00000
    71.3957     2918.00000
    71.4088     2913.00000
    71.4219     2864.00000
    71.4351     2744.00000
    71.4482     2831.00000
    71.4613     2831.00000
    71.4744     2807.00000
    71.4876     2757.00000
    71.5007     2838.00000
    71.5138     3017.00000
    71.5270     2978.00000
    71.5401     3153.00000
    71.5532     3302.00000
    71.5664     3421.00000
    71.5795     3722.00000
    71.5926     4110.00000
    71.6058     4284.00000
    71.6189     4523.00000
    71.6320     4370.00000
    71.6451     4098.00000
    71.6583     4177.00000
    71.6714     3875.00000
    71.6845     3916.00000
    71.6977     3900.00000
    71.7108     3761.00000
    71.7239     3913.00000
    71.7371     3900.00000
    71.7502     3847.00000
    71.7633     3874.00000
    71.7764     3866.00000
    71.7896     3919.00000
    71.8027     3858.00000
    71.8158     3876.00000
    71.8290     3742.00000
    71.8421     3659.00000
    71.8552     3465.00000
    71.8684     3424.00000
    71.8815     3271.00000
    71.8946     3282.00000
    71.9078     3131.00000
    71.9209     3137.00000
    71.9340     3130.00000
    71.9471     3094.00000
    71.9603     3099.00000
    71.9734     2976.00000
    71.9865     2824.00000
    71.9997     2820.00000
    72.0128     2861.00000
    72.0259     2656.00000
    72.0391     2702.00000
    72.0522     2722.00000
    72.0653     2568.00000
    72.0784     2595.00000
    72.0916     2595.00000
    72.1047     2577.00000
    72.1178     2549.00000
    72.1310     2573.00000
    72.1441     2463.00000
    72.1572     2480.00000
    72.1704     2629.00000
    72.1835     2526.00000
    72.1966     2538.00000
    72.2097     2434.00000
    72.2229     2560.00000
    72.2360     2586.00000
    72.2491     2578.00000
    72.2623     2550.00000
    72.2754     2627.00000
    72.2885     2560.00000
    72.3017     2602.00000
    72.3148     2673.00000
    72.3279     2761.00000
    72.3410     2651.00000
    72.3542     2603.00000
    72.3673     2619.00000
    72.3804     2838.00000
    72.3936     2848.00000
    72.4067     3039.00000
    72.4198     3103.00000
    72.4330     3364.00000
    72.4461     3600.00000
    72.4592     3806.00000
    72.4724     4007.00000
    72.4855     4146.00000
    72.4986     4305.00000
    72.5117     4038.00000
    72.5249     3950.00000
    72.5380     3616.00000
    72.5511     3273.00000
    72.5643     3109.00000
    72.5774     3050.00000
    72.5905     2954.00000
    72.6037     2902.00000
    72.6168     2919.00000
    72.6299     2999.00000
    72.6430     3094.00000
    72.6562     3189.00000
    72.6693     3314.00000
    72.6824     3320.00000
    72.6956     3411.00000
    72.7087     3331.00000
    72.7218     3346.00000
    72.7350     3161.00000
    72.7481     3012.00000
    72.7612     2954.00000
    72.7743     2814.00000
    72.7875     2700.00000
    72.8006     2672.00000
    72.8137     2627.00000
    72.8269     2661.00000
    72.8400     2716.00000
    72.8531     2726.00000
    72.8663     2652.00000
    72.8794     2709.00000
    72.8925     2772.00000
    72.9057     2889.00000
    72.9188     3064.00000
    72.9319     3101.00000
    72.9450     3360.00000
    72.9582     3592.00000
    72.9713     3781.00000
    72.9844     4164.00000
    72.9976     4341.00000
    73.0107     4389.00000
    73.0238     4343.00000
    73.0370     4287.00000
    73.0501     4007.00000
    73.0632     3771.00000
    73.0763     3498.00000
    73.0895     3350.00000
    73.1026     3129.00000
    73.1157     3057.00000
    73.1289     2953.00000
    73.1420     2945.00000
    73.1551     3134.00000
    73.1683     3258.00000
    73.1814     3274.00000
    73.1945     3615.00000
    73.2076     3652.00000
    73.2208     3834.00000
    73.2339     3927.00000
    73.2470     3852.00000
    73.2602     3991.00000
    73.2733     3846.00000
    73.2864     3935.00000
    73.2996     3779.00000
    73.3127     3883.00000
    73.3258     3987.00000
    73.3390     3923.00000
    73.3521     3874.00000
    73.3652     3681.00000
    73.3783     3604.00000
    73.3915     3401.00000
    73.4046     3298.00000
    73.4177     3133.00000
    73.4309     3238.00000
    73.4440     3271.00000
    73.4571     3257.00000
    73.4703     3387.00000
    73.4834     3572.00000
    73.4965     3621.00000
    73.5096     3668.00000
    73.5228     3566.00000
    73.5359     3601.00000
    73.5490     3499.00000
    73.5622     3493.00000
    73.5753     3280.00000
    73.5884     3164.00000
    73.6016     3111.00000
    73.6147     3042.00000
    73.6278     3042.00000
    73.6409     2928.00000
    73.6541     3045.00000
    73.6672     3183.00000
    73.6803     3071.00000
    73.6935     3283.00000
    73.7066     3404.00000
    73.7197     3541.00000
    73.7329     3819.00000
    73.7460     4063.00000
    73.7591     4494.00000
    73.7722     4842.00000
    73.7854     5102.00000
    73.7985     5319.00000
    73.8116     5605.00000
    73.8248     5587.00000
    73.8379     5603.00000
    73.8510     5509.00000
    73.8642     5406.00000
    73.8773     5423.00000
    73.8904     5277.00000
    73.9035     4841.00000
    73.9167     4449.00000
    73.9298     4087.00000
    73.9429     3853.00000
    73.9561     3822.00000
    73.9692     3788.00000
    73.9823     3879.00000
    73.9955     3941.00000
    74.0086     4145.00000
    74.0217     4028.00000
    74.0349     3982.00000
    74.0480     4035.00000
    74.0611     4077.00000
    74.0742     3878.00000
    74.0874     3863.00000
    74.1005     3864.00000
    74.1136     3608.00000
    74.1268     3468.00000
    74.1399     3210.00000
    74.1530     3043.00000
    74.1662     2800.00000
    74.1793     2791.00000
    74.1924     2661.00000
    74.2056     2648.00000
    74.2187     2650.00000
    74.2318     2586.00000
    74.2449     2506.00000
    74.2581     2545.00000
    74.2712     2536.00000
    74.2843     2480.00000
    74.2975     2418.00000
    74.3106     2522.00000
    74.3237     2549.00000
    74.3369     2457.00000
    74.3500     2479.00000
    74.3631     2494.00000
    74.3762     2574.00000
    74.3894     2443.00000
    74.4025     2435.00000
    74.4156     2459.00000
    74.4288     2485.00000
    74.4419     2516.00000
    74.4550     2444.00000
    74.4682     2387.00000
    74.4813     2428.00000
    74.4944     2565.00000
    74.5075     2448.00000
    74.5207     2433.00000
    74.5338     2433.00000
    74.5469     2413.00000
    74.5601     2471.00000
    74.5732     2437.00000
    74.5863     2436.00000
    74.5995     2437.00000
    74.6126     2485.00000
    74.6257     2411.00000
    74.6388     2411.00000
    74.6520     2468.00000
    74.6651     2509.00000
    74.6782     2305.00000
    74.6914     2400.00000
    74.7045     2518.00000
    74.7176     2401.00000
    74.7308     2335.00000
    74.7439     2392.00000
    74.7570     2404.00000
    74.7701     2371.00000
    74.7833     2439.00000
    74.7964     2467.00000
    74.8095     2370.00000
    74.8227     2450.00000
    74.8358     2390.00000
    74.8489     2339.00000
    74.8621     2434.00000
    74.8752     2399.00000
    74.8883     2391.00000
    74.9015     2468.00000
    74.9146     2353.00000
    74.9277     2500.00000
    74.9408     2383.00000
    74.9540     2406.00000
    74.9671     2398.00000
    74.9802     2368.00000
    74.9934     2336.00000
    75.0065     2445.00000
    75.0196     2331.00000
    75.0328     2465.00000
    75.0459     2362.00000
    75.0590     2379.00000
    75.0722     2414.00000
    75.0853     2418.00000
    75.0984     2539.00000
    75.1115     2460.00000
    75.1247     2336.00000
    75.1378     2467.00000
    75.1509     2450.00000
    75.1641     2357.00000
    75.1772     2436.00000
    75.1903     2528.00000
    75.2035     2487.00000
    75.2166     2448.00000
    75.2297     2430.00000
    75.2428     2467.00000
    75.2560     2325.00000
    75.2691     2467.00000
    75.2822     2461.00000
    75.2954     2491.00000
    75.3085     2588.00000
    75.3216     2425.00000
    75.3348     2494.00000
    75.3479     2369.00000
    75.3610     2523.00000
    75.3741     2554.00000
    75.3873     2594.00000
    75.4004     2597.00000
    75.4135     2555.00000
    75.4267     2402.00000
    75.4398     2515.00000
    75.4529     2492.00000
    75.4661     2662.00000
    75.4792     2565.00000
    75.4923     2570.00000
    75.5054     2447.00000
    75.5186     2501.00000
    75.5317     2576.00000
    75.5448     2487.00000
    75.5580     2493.00000
    75.5711     2573.00000
    75.5842     2482.00000
    75.5974     2482.00000
    75.6105     2590.00000
    75.6236     2483.00000
    75.6367     2456.00000
    75.6499     2590.00000
    75.6630     2546.00000
    75.6761     2512.00000
    75.6893     2452.00000
    75.7024     2528.00000
    75.7155     2432.00000
    75.7287     2429.00000
    75.7418     2318.00000
    75.7549     2520.00000
    75.7681     2469.00000
    75.7812     2500.00000
    75.7943     2557.00000
    75.8074     2540.00000
    75.8206     2677.00000
    75.8337     2615.00000
    75.8468     2533.00000
    75.8600     2591.00000
    75.8731     2572.00000
    75.8862     2640.00000
    75.8994     2592.00000
    75.9125     2643.00000
    75.9256     2781.00000
    75.9387     2784.00000
    75.9519     2873.00000
    75.9650     2896.00000
    75.9781     2928.00000
    75.9913     2987.00000
    76.0044     2921.00000
    76.0175     2965.00000
    76.0307     3042.00000
    76.0438     3090.00000
    76.0569     3157.00000
    76.0701     3141.00000
    76.0832     3127.00000
    76.0963     3129.00000
    76.1094     3393.00000
    76.1226     3518.00000
    76.1357     3694.00000
    76.1488     3913.00000
    76.1620     4355.00000
    76.1751     4514.00000
    76.1882     4627.00000
    76.2014     4828.00000
    76.2145     4865.00000
    76.2276     4826.00000
    76.2407     4509.00000
    76.2539     4322.00000
    76.2670     4113.00000
    76.2801     3869.00000
    76.2933     3670.00000
    76.3064     3526.00000
    76.3195     3261.00000
    76.3327     3275.00000
    76.3458     3204.00000
    76.3589     3192.00000
    76.3720     3336.00000
    76.3852     3311.00000
    76.3983     3630.00000
    76.4114     3641.00000
    76.4246     3534.00000
    76.4377     3628.00000
    76.4508     3539.00000
    76.4640     3430.00000
    76.4771     3426.00000
    76.4902     3123.00000
    76.5033     3049.00000
    76.5165     3084.00000
    76.5296     2842.00000
    76.5427     2815.00000
    76.5559     2787.00000
    76.5690     2774.00000
    76.5821     2742.00000
    76.5953     2746.00000
    76.6084     2706.00000
    76.6215     2619.00000
    76.6347     2600.00000
    76.6478     2818.00000
    76.6609     2791.00000
    76.6740     2825.00000
    76.6872     2855.00000
    76.7003     2935.00000
    76.7134     3165.00000
    76.7266     3267.00000
    76.7397     3400.00000
    76.7528     3566.00000
    76.7660     3801.00000
    76.7791     3873.00000
    76.7922     4071.00000
    76.8053     4373.00000
    76.8185     4354.00000
    76.8316     4381.00000
    76.8447     4506.00000
    76.8579     4455.00000
    76.8710     4089.00000
    76.8841     3956.00000
    76.8973     3777.00000
    76.9104     3509.00000
    76.9235     3324.00000
    76.9366     3252.00000
    76.9498     3133.00000
    76.9629     3187.00000
    76.9760     3231.00000
    76.9892     3247.00000
    77.0023     3291.00000
    77.0154     3345.00000
    77.0286     3431.00000
    77.0417     3507.00000
    77.0548     3390.00000
    77.0679     3454.00000
    77.0811     3454.00000
    77.0942     3299.00000
    77.1073     3263.00000
    77.1205     3034.00000
    77.1336     2828.00000
    77.1467     2841.00000
    77.1599     2742.00000
    77.1730     2642.00000
    77.1861     2577.00000
    77.1993     2607.00000
    77.2124     2598.00000
    77.2255     2641.00000
    77.2386     2536.00000
    77.2518     2551.00000
    77.2649     2514.00000
    77.2780     2536.00000
    77.2912     2589.00000
    77.3043     2550.00000
    77.3174     2583.00000
    77.3306     2530.00000
    77.3437     2614.00000
    77.3568     2580.00000
    77.3699     2508.00000
    77.3831     2547.00000
    77.3962     2603.00000
    77.4093     2607.00000
    77.4225     2615.00000
    77.4356     2669.00000
    77.4487     2759.00000
    77.4619     2858.00000
    77.4750     2862.00000
    77.4881     2931.00000
    77.5013     3159.00000
    77.5144     3205.00000
    77.5275     3189.00000
    77.5406     3254.00000
    77.5538     3047.00000
    77.5669     2926.00000
    77.5800     2926.00000
    77.5932     2716.00000
    77.6063     2709.00000
    77.6194     2600.00000
    77.6326     2639.00000
    77.6457     2630.00000
    77.6588     2644.00000
    77.6719     2603.00000
    77.6851     2702.00000
    77.6982     2748.00000
    77.7113     2779.00000
    77.7245     2981.00000
    77.7376     2830.00000
    77.7507     2827.00000
    77.7639     2832.00000
    77.7770     2747.00000
    77.7901     2797.00000
    77.8032     2673.00000
    77.8164     2610.00000
    77.8295     2602.00000
    77.8426     2657.00000
    77.8558     2549.00000
    77.8689     2611.00000
    77.8820     2625.00000
    77.8952     2560.00000
    77.9083     2586.00000
    77.9214     2672.00000
    77.9345     2648.00000
    77.9477     2774.00000
    77.9608     2716.00000
    77.9739     2763.00000
    77.9871     2787.00000
    78.0002     2843.00000
    78.0133     2967.00000
    78.0265     2866.00000
    78.0396     2789.00000
    78.0527     2830.00000
    78.0658     2609.00000
    78.0790     2638.00000
    78.0921     2680.00000
    78.1052     2610.00000
    78.1184     2660.00000
    78.1315     2662.00000
    78.1446     2658.00000
    78.1578     2749.00000
    78.1709     2841.00000
    78.1840     2842.00000
    78.1972     2957.00000
    78.2103     3086.00000
    78.2234     3227.00000
    78.2365     3357.00000
    78.2497     3417.00000
    78.2628     3653.00000
    78.2759     3411.00000
    78.2891     3444.00000
    78.3022     3471.00000
    78.3153     3464.00000
    78.3285     3540.00000
    78.3416     3546.00000
    78.3547     3557.00000
    78.3679     3439.00000
    78.3810     3437.00000
    78.3941     3341.00000
    78.4072     3179.00000
    78.4204     3138.00000
    78.4335     3202.00000
    78.4466     3196.00000
    78.4598     3260.00000
    78.4729     3410.00000
    78.4860     3332.00000
    78.4992     3456.00000
    78.5123     3597.00000
    78.5254     3740.00000
    78.5385     3948.00000
    78.5517     4042.00000
    78.5648     4327.00000
    78.5779     4399.00000
    78.5911     4364.00000
    78.6042     4594.00000
    78.6173     4483.00000
    78.6305     4409.00000
    78.6436     4395.00000
    78.6567     4139.00000
    78.6698     4137.00000
    78.6830     4283.00000
    78.6961     4063.00000
    78.7092     4136.00000
    78.7224     3984.00000
    78.7355     4242.00000
    78.7486     4071.00000
    78.7618     4156.00000
    78.7749     4198.00000
    78.7880     4118.00000
    78.8011     4077.00000
    78.8143     4069.00000
    78.8274     4069.00000
    78.8405     3861.00000
    78.8537     3733.00000
    78.8668     3713.00000
    78.8799     3654.00000
    78.8931     3425.00000
    78.9062     3377.00000
    78.9193     3380.00000
    78.9324     3326.00000
    78.9456     3266.00000
    78.9587     3383.00000
    78.9718     3280.00000
    78.9850     3219.00000
    78.9981     3272.00000
    79.0112     3144.00000
    79.0244     3134.00000
    79.0375     2995.00000
    79.0506     2966.00000
    79.0638     3036.00000
    79.0769     2915.00000
    79.0900     2916.00000
    79.1031     2805.00000
    79.1163     2814.00000
    79.1294     2718.00000
    79.1425     2860.00000
    79.1557     2684.00000
    79.1688     2779.00000
    79.1819     2814.00000
    79.1951     2817.00000
    79.2082     2879.00000
    79.2213     3118.00000
    79.2345     3086.00000
    79.2476     3266.00000
    79.2607     3607.00000
    79.2738     3824.00000
    79.2870     3966.00000
    79.3001     3955.00000
    79.3132     4143.00000
    79.3264     3989.00000
    79.3395     3975.00000
    79.3526     3698.00000
    79.3658     3430.00000
    79.3789     3325.00000
    79.3920     3229.00000
    79.4051     3067.00000
    79.4183     3104.00000
    79.4314     3085.00000
    79.4445     3040.00000
    79.4577     3225.00000
    79.4708     3199.00000
    79.4839     3303.00000
    79.4971     3429.00000
    79.5102     3681.00000
    79.5233     3632.00000
    79.5364     3735.00000
    79.5496     3648.00000
    79.5627     3479.00000
    79.5758     3440.00000
    79.5890     3199.00000
    79.6021     3072.00000
    79.6152     3030.00000
    79.6284     2899.00000
    79.6415     2844.00000
    79.6546     2876.00000
    79.6677     2944.00000
    79.6809     2896.00000
    79.6940     2817.00000
    79.7071     2888.00000
    79.7203     2897.00000
    79.7334     2887.00000
    79.7465     2862.00000
    79.7597     2868.00000
    79.7728     2988.00000
    79.7859     2990.00000
    79.7990     2956.00000
    79.8122     2919.00000
    79.8253     3059.00000
    79.8384     3106.00000
    79.8516     3137.00000
    79.8647     3312.00000
    79.8778     3464.00000
    79.8910     3518.00000
    79.9041     3588.00000
    79.9172     3796.00000
    79.9304     4110.00000
    79.9435     4350.00000
    79.9566     4664.00000
    79.9697     4714.00000
    79.9829     4688.00000
    79.9960     4884.00000
    80.0091     4737.00000
    80.0223     4506.00000
    80.0354     4307.00000
    80.0485     4114.00000
    80.0617     4010.00000
    80.0748     3868.00000
    80.0879     3752.00000
    80.1010     3667.00000
    80.1142     3642.00000
    80.1273     3740.00000
    80.1404     3887.00000
    80.1536     4071.00000
    80.1667     4291.00000
    80.1798     4669.00000
    80.1930     5054.00000
    80.2061     5450.00000
    80.2192     5872.00000
    80.2323     6031.00000
    80.2455     6221.00000
    80.2586     6666.00000
    80.2717     6785.00000
    80.2849     6835.00000
    80.2980     6748.00000
    80.3111     6779.00000
    80.3243     6259.00000
    80.3374     5709.00000
    80.3505     5247.00000
    80.3637     4864.00000
    80.3768     4547.00000
    80.3899     4202.00000
    80.4030     4179.00000
    80.4162     4178.00000
    80.4293     4463.00000
    80.4424     4580.00000
    80.4556     4926.00000
    80.4687     5281.00000
    80.4818     5436.00000
    80.4950     5417.00000
    80.5081     5501.00000
    80.5212     5451.00000
    80.5343     5307.00000
    80.5475     5230.00000
    80.5606     4848.00000
    80.5737     4718.00000
    80.5869     4409.00000
    80.6000     4266.00000
    80.6131     4140.00000
    80.6263     4168.00000
    80.6394     3900.00000
    80.6525     3964.00000
    80.6656     4046.00000
    80.6788     4031.00000
    80.6919     4044.00000
    80.7050     4047.00000
    80.7182     3706.00000
    80.7313     3916.00000
    80.7444     3607.00000
    80.7576     3540.00000
    80.7707     3371.00000
    80.7838     3327.00000
    80.7970     3209.00000
    80.8101     3326.00000
    80.8232     3266.00000
    80.8363     3444.00000
    80.8495     3431.00000
    80.8626     3484.00000
    80.8757     3542.00000
    80.8889     3678.00000
    80.9020     3574.00000
    80.9151     3588.00000
    80.9283     3594.00000
    80.9414     3654.00000
    80.9545     3590.00000
    80.9676     3491.00000
    80.9808     3534.00000
    80.9939     3466.00000
    81.0070     3414.00000
    81.0202     3461.00000
    81.0333     3372.00000
    81.0464     3423.00000
    81.0596     3337.00000
    81.0727     3305.00000
    81.0858     3042.00000
    81.0989     3013.00000
    81.1121     2953.00000
    81.1252     2968.00000
    81.1383     2913.00000
    81.1515     2974.00000
    81.1646     2869.00000
    81.1777     2902.00000
    81.1909     2955.00000
    81.2040     2867.00000
    81.2171     2945.00000
    81.2302     2919.00000
    81.2434     2967.00000
    81.2565     2798.00000
    81.2696     2809.00000
    81.2828     2917.00000
    81.2959     2807.00000
    81.3090     2781.00000
    81.3222     2745.00000
    81.3353     2671.00000
    81.3484     2585.00000
    81.3616     2697.00000
    81.3747     2517.00000
    81.3878     2591.00000
    81.4009     2661.00000
    81.4141     2521.00000
    81.4272     2555.00000
    81.4403     2624.00000
    81.4535     2486.00000
    81.4666     2548.00000
    81.4797     2532.00000
    81.4929     2515.00000
    81.5060     2429.00000
    81.5191     2607.00000
    81.5322     2555.00000
    81.5454     2546.00000
    81.5585     2516.00000
    81.5716     2505.00000
    81.5848     2584.00000
    81.5979     2523.00000
    81.6110     2541.00000
    81.6242     2596.00000
    81.6373     2603.00000
    81.6504     2670.00000
    81.6636     2651.00000
    81.6767     2600.00000
    81.6898     2626.00000
    81.7029     2702.00000
    81.7161     2791.00000
    81.7292     2866.00000
    81.7423     3041.00000
    81.7555     2975.00000
    81.7686     3075.00000
    81.7817     3301.00000
    81.7949     3263.00000
    81.8080     3389.00000
    81.8211     3654.00000
    81.8342     3794.00000
    81.8474     3697.00000
    81.8605     3707.00000
    81.8736     3820.00000
    81.8868     3596.00000
    81.8999     3415.00000
    81.9130     3433.00000
    81.9262     3290.00000
    81.9393     3239.00000
    81.9524     3039.00000
    81.9655     3046.00000
    81.9787     3013.00000
    81.9918     3071.00000
    82.0049     3058.00000
    82.0181     3290.00000
    82.0312     3215.00000
    82.0443     3359.00000
    82.0575     3541.00000
    82.0706     3509.00000
    82.0837     3587.00000
    82.0968     3547.00000
    82.1100     3672.00000
    82.1231     3563.00000
    82.1362     3433.00000
    82.1494     3391.00000
    82.1625     3282.00000
    82.1756     3173.00000
    82.1888     3056.00000
    82.2019     2926.00000
    82.2150     2867.00000
    82.2281     2799.00000
    82.2413     2798.00000
    82.2544     2769.00000
    82.2675     2796.00000
    82.2807     2796.00000
    82.2938     2708.00000
    82.3069     2712.00000
    82.3201     2746.00000
    82.3332     2869.00000
    82.3463     2777.00000
    82.3595     2866.00000
    82.3726     2846.00000
    82.3857     2883.00000
    82.3988     3046.00000
    82.4120     2956.00000
    82.4251     3138.00000
    82.4382     3271.00000
    82.4514     3434.00000
    82.4645     3684.00000
    82.4776     3788.00000
    82.4908     3823.00000
    82.5039     3598.00000
    82.5170     3444.00000
    82.5302     3116.00000
    82.5433     2971.00000
    82.5564     2898.00000
    82.5695     2810.00000
    82.5827     2704.00000
    82.5958     2720.00000
    82.6089     2594.00000
    82.6221     2656.00000
    82.6352     2603.00000
    82.6483     2647.00000
    82.6615     2757.00000
    82.6746     2839.00000
    82.6877     2797.00000
    82.7008     2860.00000
    82.7140     2979.00000
    82.7271     3104.00000
    82.7402     3025.00000
    82.7534     2980.00000
    82.7665     2945.00000
    82.7796     2770.00000
    82.7928     2642.00000
    82.8059     2642.00000
    82.8190     2640.00000
    82.8321     2627.00000
    82.8453     2516.00000
    82.8584     2464.00000
    82.8715     2645.00000
    82.8847     2497.00000
    82.8978     2533.00000
    82.9109     2570.00000
    82.9241     2485.00000
    82.9372     2509.00000
    82.9503     2468.00000
    82.9634     2558.00000
    82.9766     2513.00000
    82.9897     2505.00000
    83.0028     2438.00000
    83.0160     2517.00000
    83.0291     2508.00000
    83.0422     2473.00000
    83.0554     2559.00000
    83.0685     2560.00000
    83.0816     2626.00000
    83.0947     2690.00000
    83.1079     2559.00000
    83.1210     2710.00000
    83.1341     2733.00000
    83.1473     2755.00000
    83.1604     2684.00000
    83.1735     2784.00000
    83.1867     2813.00000
    83.1998     2768.00000
    83.2129     2787.00000
    83.2261     2800.00000
    83.2392     2761.00000
    83.2523     2693.00000
    83.2654     2654.00000
    83.2786     2759.00000
    83.2917     2755.00000
    83.3048     2682.00000
    83.3180     2715.00000
    83.3311     2753.00000
    83.3442     2711.00000
    83.3574     2804.00000
    83.3705     2781.00000
    83.3836     2845.00000
    83.3967     2938.00000
    83.4099     3072.00000
    83.4230     3060.00000
    83.4361     3090.00000
    83.4493     3365.00000
    83.4624     3455.00000
    83.4755     3522.00000
    83.4887     3500.00000
    83.5018     3358.00000
    83.5149     3301.00000
    83.5281     3203.00000
    83.5412     3038.00000
    83.5543     2855.00000
    83.5674     2735.00000
    83.5806     2770.00000
    83.5937     2617.00000
    83.6068     2734.00000
    83.6200     2592.00000
    83.6331     2653.00000
    83.6462     2633.00000
    83.6594     2605.00000
    83.6725     2762.00000
    83.6856     2687.00000
    83.6987     2781.00000
    83.7119     2902.00000
    83.7250     2929.00000
    83.7381     2918.00000
    83.7513     2855.00000
    83.7644     2911.00000
    83.7775     2700.00000
    83.7907     2659.00000
    83.8038     2556.00000
    83.8169     2551.00000
    83.8300     2500.00000
    83.8432     2456.00000
    83.8563     2496.00000
    83.8694     2490.00000
    83.8826     2527.00000
    83.8957     2306.00000
    83.9088     2390.00000
    83.9220     2431.00000
    83.9351     2436.00000
    83.9482     2431.00000
    83.9613     2471.00000
    83.9745     2428.00000
    83.9876     2446.00000
    84.0007     2518.00000
    84.0139     2395.00000
    84.0270     2389.00000
    84.0401     2436.00000
    84.0533     2397.00000
    84.0664     2359.00000
    84.0795     2415.00000
    84.0927     2366.00000
    84.1058     2413.00000
    84.1189     2327.00000
    84.1320     2408.00000
    84.1452     2522.00000
    84.1583     2386.00000
    84.1714     2440.00000
    84.1846     2355.00000
    84.1977     2342.00000
    84.2108     2450.00000
    84.2240     2365.00000
    84.2371     2459.00000
    84.2502     2447.00000
    84.2633     2398.00000
    84.2765     2443.00000
    84.2896     2597.00000
    84.3027     2558.00000
    84.3159     2590.00000
    84.3290     2601.00000
    84.3421     2463.00000
    84.3553     2529.00000
    84.3684     2618.00000
    84.3815     2592.00000
    84.3946     2580.00000
    84.4078     2616.00000
    84.4209     2527.00000
    84.4340     2652.00000
    84.4472     2516.00000
    84.4603     2532.00000
    84.4734     2588.00000
    84.4866     2510.00000
    84.4997     2535.00000
    84.5128     2551.00000
    84.5260     2497.00000
    84.5391     2495.00000
    84.5522     2403.00000
    84.5653     2460.00000
    84.5785     2428.00000
    84.5916     2508.00000
    84.6047     2400.00000
    84.6179     2575.00000
    84.6310     2463.00000
    84.6441     2473.00000
    84.6573     2421.00000
    84.6704     2588.00000
    84.6835     2510.00000
    84.6966     2548.00000
    84.7098     2496.00000
    84.7229     2610.00000
    84.7360     2570.00000
    84.7492     2542.00000
    84.7623     2514.00000
    84.7754     2508.00000
    84.7886     2451.00000
    84.8017     2467.00000
    84.8148     2466.00000
    84.8279     2462.00000
    84.8411     2535.00000
    84.8542     2448.00000
    84.8673     2430.00000
    84.8805     2518.00000
    84.8936     2476.00000
    84.9067     2538.00000
    84.9199     2500.00000
    84.9330     2519.00000
    84.9461     2438.00000
    84.9593     2473.00000
    84.9724     2487.00000
    84.9855     2502.00000
    84.9986     2524.00000
    85.0118     2500.00000
    85.0249     2537.00000
    85.0380     2588.00000
    85.0512     2719.00000
    85.0643     2688.00000
    85.0774     2718.00000
    85.0906     2741.00000
    85.1037     2850.00000
    85.1168     2798.00000
    85.1299     2880.00000
    85.1431     2836.00000
    85.1562     2944.00000
    85.1693     2865.00000
    85.1825     2942.00000
    85.1956     3011.00000
    85.2087     3094.00000
    85.2219     3082.00000
    85.2350     3160.00000
    85.2481     3291.00000
    85.2612     3244.00000
    85.2744     3197.00000
    85.2875     3183.00000
    85.3006     3100.00000
    85.3138     3147.00000
    85.3269     3271.00000
    85.3400     3506.00000
    85.3532     3593.00000
    85.3663     3630.00000
    85.3794     3686.00000
    85.3925     3634.00000
    85.4057     3908.00000
    85.4188     3987.00000
    85.4319     4179.00000
    85.4451     4383.00000
    85.4582     4368.00000
    85.4713     4408.00000
    85.4845     4371.00000
    85.4976     4187.00000
    85.5107     3968.00000
    85.5238     3799.00000
    85.5370     3502.00000
    85.5501     3441.00000
    85.5632     3309.00000
    85.5764     3252.00000
    85.5895     3379.00000
    85.6026     3389.00000
    85.6158     3426.00000
    85.6289     3313.00000
    85.6420     3389.00000
    85.6552     3242.00000
    85.6683     3331.00000
    85.6814     3245.00000
    85.6945     3335.00000
    85.7077     3396.00000
    85.7208     3293.00000
    85.7339     3359.00000
    85.7471     3260.00000
    85.7602     3163.00000
    85.7733     3012.00000
    85.7865     2894.00000
    85.7996     2961.00000
    85.8127     2887.00000
    85.8259     2742.00000
    85.8390     2704.00000
    85.8521     2755.00000
    85.8652     2737.00000
    85.8784     2618.00000
    85.8915     2735.00000
    85.9046     2633.00000
    85.9178     2582.00000
    85.9309     2559.00000
    85.9440     2666.00000
    85.9572     2531.00000
    85.9703     2560.00000
    85.9834     2569.00000
    85.9965     2598.00000
    86.0097     2424.00000
    86.0228     2515.00000
    86.0359     2563.00000
    86.0491     2585.00000
    86.0622     2676.00000
    86.0753     2544.00000
    86.0885     2690.00000
    86.1016     2590.00000
    86.1147     2667.00000
    86.1278     2694.00000
    86.1410     2881.00000
    86.1541     2975.00000
    86.1672     2904.00000
    86.1804     3078.00000
    86.1935     3058.00000
    86.2066     3065.00000
    86.2198     3011.00000
    86.2329     2957.00000
    86.2460     2912.00000
    86.2591     2846.00000
    86.2723     2797.00000
    86.2854     2738.00000
    86.2985     2609.00000
    86.3117     2615.00000
    86.3248     2611.00000
    86.3379     2665.00000
    86.3511     2617.00000
    86.3642     2715.00000
    86.3773     2602.00000
    86.3904     2616.00000
    86.4036     2630.00000
    86.4167     2689.00000
    86.4298     2756.00000
    86.4430     2832.00000
    86.4561     2807.00000
    86.4692     2796.00000
    86.4824     2820.00000
    86.4955     2738.00000
    86.5086     2806.00000
    86.5218     2743.00000
    86.5349     2790.00000
    86.5480     2696.00000
    86.5611     2754.00000
    86.5743     2648.00000
    86.5874     2671.00000
    86.6005     2699.00000
    86.6137     2792.00000
    86.6268     2835.00000
    86.6399     2930.00000
    86.6531     3068.00000
    86.6662     3125.00000
    86.6793     3209.00000
    86.6925     3236.00000
    86.7056     3360.00000
    86.7187     3306.00000
    86.7318     3208.00000
    86.7450     3187.00000
    86.7581     3009.00000
    86.7712     2996.00000
    86.7844     2787.00000
    86.7975     2723.00000
    86.8106     2725.00000
    86.8238     2828.00000
    86.8369     2719.00000
    86.8500     2668.00000
    86.8631     2652.00000
    86.8763     2750.00000
    86.8894     2654.00000
    86.9025     2686.00000
    86.9157     2738.00000
    86.9288     2712.00000
    86.9419     2857.00000
    86.9551     2875.00000
    86.9682     3007.00000
    86.9813     2964.00000
    86.9944     2945.00000
    87.0076     2907.00000
    87.0207     2746.00000
    87.0338     2811.00000
    87.0470     2781.00000
    87.0601     2727.00000
    87.0732     2760.00000
    87.0864     2855.00000
    87.0995     2910.00000
    87.1126     2955.00000
    87.1257     3014.00000
    87.1389     3060.00000
    87.1520     3134.00000
    87.1651     3184.00000
    87.1783     3331.00000
    87.1914     3269.00000
    87.2045     3294.00000
    87.2177     3422.00000
    87.2308     3455.00000
    87.2439     3403.00000
    87.2570     3304.00000
    87.2702     3275.00000
    87.2833     3147.00000
    87.2964     3093.00000
    87.3096     2888.00000
    87.3227     2822.00000
    87.3358     2748.00000
    87.3490     2767.00000
    87.3621     2795.00000
    87.3752     2878.00000
    87.3884     2714.00000
    87.4015     2804.00000
    87.4146     2806.00000
    87.4277     2855.00000
    87.4409     2811.00000
    87.4540     2882.00000
    87.4671     2932.00000
    87.4803     2949.00000
    87.4934     3078.00000
    87.5065     3080.00000
    87.5197     2962.00000
    87.5328     2859.00000
    87.5459     2897.00000
    87.5590     2886.00000
    87.5722     2866.00000
    87.5853     2878.00000
    87.5984     2880.00000
    87.6116     2814.00000
    87.6247     3031.00000
    87.6378     2962.00000
    87.6510     3093.00000
    87.6641     3089.00000
    87.6772     3208.00000
    87.6904     3269.00000
    87.7035     3460.00000
    87.7166     3648.00000
    87.7297     3538.00000
    87.7429     3506.00000
    87.7560     3365.00000
    87.7691     3231.00000
    87.7823     3038.00000
    87.7954     3081.00000
    87.8085     2949.00000
    87.8217     2904.00000
    87.8348     2825.00000
    87.8479     2852.00000
    87.8610     2756.00000
    87.8742     2872.00000
    87.8873     2864.00000
    87.9004     2791.00000
    87.9136     2731.00000
    87.9267     2857.00000
    87.9398     2763.00000
    87.9530     2879.00000
    87.9661     2994.00000
    87.9792     3131.00000
    87.9923     3084.00000
    88.0055     3128.00000
    88.0186     3130.00000
    88.0317     2999.00000
    88.0449     3043.00000
    88.0580     2983.00000
    88.0711     2766.00000
    88.0843     2999.00000
    88.0974     2994.00000
    88.1105     3144.00000
    88.1236     3260.00000
    88.1368     3332.00000
    88.1499     3457.00000
    88.1630     3579.00000
    88.1762     3646.00000
    88.1893     3722.00000
    88.2024     3839.00000
    88.2156     3850.00000
    88.2287     3732.00000
    88.2418     3716.00000
    88.2550     3649.00000
    88.2681     3340.00000
    88.2812     3320.00000
    88.2943     3251.00000
    88.3075     3003.00000
    88.3206     2974.00000
    88.3337     3041.00000
    88.3469     2977.00000
    88.3600     3071.00000
    88.3731     2941.00000
    88.3863     3088.00000
    88.3994     3021.00000
    88.4125     3002.00000
    88.4256     3099.00000
    88.4388     3109.00000
    88.4519     3014.00000
    88.4650     3159.00000
    88.4782     3147.00000
    88.4913     3183.00000
    88.5044     3035.00000
    88.5176     3083.00000
    88.5307     2983.00000
    88.5438     2951.00000
    88.5569     2795.00000
    88.5701     2861.00000
    88.5832     2722.00000
    88.5963     2721.00000
    88.6095     2624.00000
    88.6226     2588.00000
    88.6357     2660.00000
    88.6489     2666.00000
    88.6620     2597.00000
    88.6751     2720.00000
    88.6882     2649.00000
    88.7014     2638.00000
    88.7145     2621.00000
    88.7276     2569.00000
    88.7408     2595.00000
    88.7539     2514.00000
    88.7670     2555.00000
    88.7802     2573.00000
    88.7933     2496.00000
    88.8064     2597.00000
    88.8196     2581.00000
    88.8327     2568.00000
    88.8458     2607.00000
    88.8589     2748.00000
    88.8721     2735.00000
    88.8852     2815.00000
    88.8983     2953.00000
    88.9115     3131.00000
    88.9246     3134.00000
    88.9377     3285.00000
    88.9509     3402.00000
    88.9640     3251.00000
    88.9771     3201.00000
    88.9902     3141.00000
    89.0034     3023.00000
    89.0165     3042.00000
    89.0296     2864.00000
    89.0428     2761.00000
    89.0559     2762.00000
    89.0690     2792.00000
    89.0822     2752.00000
    89.0953     2697.00000
    89.1084     2674.00000
    89.1216     2770.00000
    89.1347     2755.00000
    89.1478     2760.00000
    89.1609     2751.00000
    89.1741     2843.00000
    89.1872     2870.00000
    89.2003     2892.00000
    89.2135     2837.00000
    89.2266     2834.00000
    89.2397     2934.00000
    89.2529     2976.00000
    89.2660     2972.00000
    89.2791     2800.00000
    89.2922     2729.00000
    89.3054     2777.00000
    89.3185     2710.00000
    89.3316     2667.00000
    89.3448     2767.00000
    89.3579     2776.00000
    89.3710     2905.00000
    89.3842     2821.00000
    89.3973     2904.00000
    89.4104     2917.00000
    89.4235     2884.00000
    89.4367     2856.00000
    89.4498     2913.00000
    89.4629     2828.00000
    89.4761     2831.00000
    89.4892     2747.00000
    89.5023     2720.00000
    89.5155     2738.00000
    89.5286     2587.00000
    89.5417     2586.00000
    89.5548     2590.00000
    89.5680     2651.00000
    89.5811     2511.00000
    89.5942     2610.00000
    89.6074     2572.00000
    89.6205     2649.00000
    89.6336     2685.00000
    89.6468     2669.00000
    89.6599     2702.00000
    89.6730     2792.00000
    89.6861     2846.00000
    89.6993     3012.00000
    89.7124     2926.00000
    89.7255     3102.00000
    89.7387     3232.00000
    89.7518     3338.00000
    89.7649     3438.00000
    89.7781     3692.00000
    89.7912     3643.00000
    89.8043     3553.00000
    89.8175     3545.00000
    89.8306     3372.00000
    89.8437     3191.00000
    89.8568     3096.00000
    89.8700     3125.00000
    89.8831     3021.00000
    89.8962     2931.00000
    89.9094     2964.00000
    89.9225     2938.00000
    89.9356     3008.00000
    89.9488     2898.00000
    89.9619     3153.00000
    89.9750     3192.00000
    89.9882     3234.00000
    90.0013     3364.00000
    90.0144     3387.00000
    90.0275     3618.00000
    90.0407     3871.00000
    90.0538     3850.00000
    90.0669     3978.00000
    90.0801     3816.00000
    90.0932     3716.00000
    90.1063     3610.00000
    90.1195     3397.00000
    90.1326     3433.00000
    90.1457     3280.00000
    90.1588     3271.00000
    90.1720     3215.00000
    90.1851     3157.00000
    90.1982     3128.00000
    90.2114     3141.00000
    90.2245     3047.00000
    90.2376     3051.00000
    90.2508     2917.00000
    90.2639     2896.00000
    90.2770     2906.00000
    90.2901     2970.00000
    90.3033     2906.00000
    90.3164     3063.00000
    90.3295     2996.00000
    90.3427     3132.00000
    90.3558     3198.00000
    90.3689     3103.00000
    90.3821     3076.00000
    90.3952     3245.00000
    90.4083     3210.00000
    90.4214     3304.00000
    90.4346     3333.00000
    90.4477     3513.00000
    90.4608     3521.00000
    90.4740     3443.00000
    90.4871     3407.00000
    90.5002     3207.00000
    90.5134     3143.00000
    90.5265     2952.00000
    90.5396     2897.00000
    90.5527     2882.00000
    90.5659     2793.00000
    90.5790     2801.00000
    90.5921     2637.00000
    90.6053     2876.00000
    90.6184     2828.00000
    90.6315     2863.00000
    90.6447     2854.00000
    90.6578     2911.00000
    90.6709     2843.00000
    90.6841     2909.00000
    90.6972     2847.00000
    90.7103     3013.00000
    90.7234     2981.00000
    90.7366     2948.00000
    90.7497     2971.00000
    90.7628     3001.00000
    90.7760     2950.00000
    90.7891     2966.00000
    90.8022     2981.00000
    90.8154     2970.00000
    90.8285     2882.00000
    90.8416     3002.00000
    90.8548     2931.00000
    90.8679     3168.00000
    90.8810     3137.00000
    90.8941     3159.00000
    90.9073     3242.00000
    90.9204     3056.00000
    90.9335     3080.00000
    90.9467     2969.00000
    90.9598     3006.00000
    90.9729     2989.00000
    90.9861     2851.00000
    90.9992     2797.00000
    91.0123     2829.00000
    91.0254     2897.00000
    91.0386     2749.00000
    91.0517     2887.00000
    91.0648     2808.00000
    91.0780     2912.00000
    91.0911     3048.00000
    91.1042     3140.00000
    91.1174     3213.00000
    91.1305     3338.00000
    91.1436     3462.00000
    91.1567     3584.00000
    91.1699     3684.00000
    91.1830     3679.00000
    91.1961     3846.00000
    91.2093     3741.00000
    91.2224     3775.00000
    91.2355     3696.00000
    91.2487     3572.00000
    91.2618     3508.00000
    91.2749     3388.00000
    91.2880     3225.00000
    91.3012     3199.00000
    91.3143     3000.00000
    91.3274     2951.00000
    91.3406     2825.00000
    91.3537     2866.00000
    91.3668     2873.00000
    91.3800     2827.00000
    91.3931     2904.00000
    91.4062     3009.00000
    91.4193     2972.00000
    91.4325     3112.00000
    91.4456     3162.00000
    91.4587     3301.00000
    91.4719     3369.00000
    91.4850     3465.00000
    91.4981     3593.00000
    91.5113     3694.00000
    91.5244     3846.00000
    91.5375     4066.00000
    91.5507     4116.00000
    91.5638     4270.00000
    91.5769     4365.00000
    91.5900     4196.00000
    91.6032     3968.00000
    91.6163     3774.00000
    91.6294     3554.00000
    91.6426     3454.00000
    91.6557     3362.00000
    91.6688     3124.00000
    91.6820     3084.00000
    91.6951     2864.00000
    91.7082     2898.00000
    91.7213     2874.00000
    91.7345     2928.00000
    91.7476     2970.00000
    91.7607     2789.00000
    91.7739     2917.00000
    91.7870     2884.00000
    91.8001     2990.00000
    91.8133     2889.00000
    91.8264     3122.00000
    91.8395     3123.00000
    91.8526     3265.00000
    91.8658     3357.00000
    91.8789     3271.00000
    91.8920     3314.00000
    91.9052     3227.00000
    91.9183     3087.00000
    91.9314     2880.00000
    91.9446     2939.00000
    91.9577     2892.00000
    91.9708     2830.00000
    91.9840     2801.00000
    91.9971     2632.00000
    92.0102     2692.00000
    92.0233     2765.00000
    92.0365     2644.00000
    92.0496     2752.00000
    92.0627     2751.00000
    92.0759     2610.00000
    92.0890     2661.00000
    92.1021     2715.00000
    92.1153     2654.00000
    92.1284     2759.00000
    92.1415     2714.00000
    92.1546     2775.00000
    92.1678     2802.00000
    92.1809     2941.00000
    92.1940     2949.00000
    92.2072     3005.00000
    92.2203     2933.00000
    92.2334     2952.00000
    92.2466     3006.00000
    92.2597     2984.00000
    92.2728     2938.00000
    92.2859     2845.00000
    92.2991     2936.00000
    92.3122     3059.00000
    92.3253     2906.00000
    92.3385     2887.00000
    92.3516     2981.00000
    92.3647     2910.00000
    92.3779     2882.00000
    92.3910     3003.00000
    92.4041     2953.00000
    92.4173     3003.00000
    92.4304     3029.00000
    92.4435     3055.00000
    92.4566     3113.00000
    92.4698     3258.00000
    92.4829     3166.00000
    92.4960     3307.00000
    92.5092     3559.00000
    92.5223     3781.00000
    92.5354     3773.00000
    92.5486     3860.00000
    92.5617     3881.00000
    92.5748     3755.00000
    92.5879     3589.00000
    92.6011     3492.00000
    92.6142     3379.00000
    92.6273     3262.00000
    92.6405     2986.00000
    92.6536     3051.00000
    92.6667     2982.00000
    92.6799     2864.00000
    92.6930     2876.00000
    92.7061     2872.00000
    92.7192     2836.00000
    92.7324     2756.00000
    92.7455     2870.00000
    92.7586     2833.00000
    92.7718     2799.00000
    92.7849     2792.00000
    92.7980     2950.00000
    92.8112     2975.00000
    92.8243     3043.00000
    92.8374     3120.00000
    92.8505     3055.00000
    92.8637     3123.00000
    92.8768     3026.00000
    92.8899     3022.00000
    92.9031     2881.00000
    92.9162     2784.00000
    92.9293     2659.00000
    92.9425     2724.00000
    92.9556     2648.00000
    92.9687     2535.00000
    92.9819     2599.00000
    92.9950     2534.00000
    93.0081     2584.00000
    93.0212     2455.00000
    93.0344     2425.00000
    93.0475     2424.00000
    93.0606     2511.00000
    93.0738     2481.00000
    93.0869     2509.00000
    93.1000     2519.00000
    93.1132     2470.00000
    93.1263     2400.00000
    93.1394     2458.00000
    93.1525     2494.00000
    93.1657     2471.00000
    93.1788     2448.00000
    93.1919     2465.00000
    93.2051     2413.00000
    93.2182     2425.00000
    93.2313     2408.00000
    93.2445     2425.00000
    93.2576     2377.00000
    93.2707     2362.00000
    93.2839     2401.00000
    93.2970     2465.00000
    93.3101     2337.00000
    93.3232     2406.00000
    93.3364     2371.00000
    93.3495     2424.00000
    93.3626     2332.00000
    93.3758     2390.00000
    93.3889     2441.00000
    93.4020     2414.00000
    93.4152     2421.00000
    93.4283     2418.00000
    93.4414     2384.00000
    93.4545     2410.00000
    93.4677     2422.00000
    93.4808     2480.00000
    93.4939     2457.00000
    93.5071     2466.00000
    93.5202     2492.00000
    93.5333     2497.00000
    93.5465     2457.00000
    93.5596     2573.00000
    93.5727     2594.00000
    93.5858     2551.00000
    93.5990     2631.00000
    93.6121     2745.00000
    93.6252     2718.00000
    93.6384     2847.00000
    93.6515     2950.00000
    93.6646     3046.00000
    93.6778     3299.00000
    93.6909     3182.00000
    93.7040     3083.00000
    93.7171     3098.00000
    93.7303     3020.00000
    93.7434     2910.00000
    93.7565     2754.00000
    93.7697     2813.00000
    93.7828     2716.00000
    93.7959     2850.00000
    93.8091     2815.00000
    93.8222     2749.00000
    93.8353     2805.00000
    93.8484     2776.00000
    93.8616     2877.00000
    93.8747     2846.00000
    93.8878     2902.00000
    93.9010     2842.00000
    93.9141     2893.00000
    93.9272     3007.00000
    93.9404     2890.00000
    93.9535     3027.00000
    93.9666     2972.00000
    93.9798     3018.00000
    93.9929     2971.00000
    94.0060     2984.00000
    94.0191     2924.00000
    94.0323     2953.00000
    94.0454     2816.00000
    94.0585     2755.00000
    94.0717     2811.00000
    94.0848     2656.00000
    94.0979     2635.00000
    94.1111     2710.00000
    94.1242     2585.00000
    94.1373     2579.00000
    94.1505     2659.00000
    94.1636     2492.00000
    94.1767     2662.00000
    94.1898     2637.00000
    94.2030     2640.00000
    94.2161     2633.00000
    94.2292     2702.00000
    94.2424     2704.00000
    94.2555     2601.00000
    94.2686     2561.00000
    94.2818     2680.00000
    94.2949     2634.00000
    94.3080     2662.00000
    94.3211     2758.00000
    94.3343     2793.00000
    94.3474     2771.00000
    94.3605     2723.00000
    94.3737     2915.00000
    94.3868     3066.00000
    94.3999     3055.00000
    94.4131     3078.00000
    94.4262     3239.00000
    94.4393     3132.00000
    94.4524     3179.00000
    94.4656     3219.00000
    94.4787     3203.00000
    94.4918     3400.00000
    94.5050     3351.00000
    94.5181     3413.00000
    94.5312     3383.00000
    94.5444     3358.00000
    94.5575     3153.00000
    94.5706     3146.00000
    94.5837     3001.00000
    94.5969     2919.00000
    94.6100     2806.00000
    94.6231     2849.00000
    94.6363     2738.00000
    94.6494     2759.00000
    94.6625     2793.00000
    94.6757     2734.00000
    94.6888     2733.00000
    94.7019     2796.00000
    94.7150     2722.00000
    94.7282     2798.00000
    94.7413     2883.00000
    94.7544     2865.00000
    94.7676     2886.00000
    94.7807     2820.00000
    94.7938     2926.00000
    94.8070     2838.00000
    94.8201     2908.00000
    94.8332     2851.00000
    94.8464     2982.00000
    94.8595     2887.00000
    94.8726     2759.00000
    94.8857     2784.00000
    94.8989     2736.00000
    94.9120     2634.00000
    94.9251     2612.00000
    94.9383     2457.00000
    94.9514     2531.00000
    94.9645     2559.00000
    94.9777     2460.00000
    94.9908     2372.00000
    95.0039     2384.00000
    95.0170     2469.00000
    95.0302     2536.00000
    95.0433     2512.00000
    95.0564     2497.00000
    95.0696     2430.00000
    95.0827     2435.00000
    95.0958     2405.00000
    95.1090     2354.00000
    95.1221     2421.00000
    95.1352     2470.00000
    95.1484     2441.00000
    95.1615     2320.00000
    95.1746     2422.00000
    95.1877     2479.00000
    95.2009     2379.00000
    95.2140     2482.00000
    95.2271     2554.00000
    95.2403     2372.00000
    95.2534     2473.00000
    95.2665     2502.00000
    95.2797     2512.00000
    95.2928     2413.00000
    95.3059     2456.00000
    95.3190     2247.00000
    95.3322     2355.00000
    95.3453     2298.00000
    95.3584     2414.00000
    95.3716     2448.00000
    95.3847     2394.00000
    95.3978     2452.00000
    95.4110     2407.00000
    95.4241     2442.00000
    95.4372     2447.00000
    95.4503     2393.00000
    95.4635     2241.00000
    95.4766     2420.00000
    95.4897     2481.00000
    95.5029     2342.00000
    95.5160     2402.00000
    95.5291     2419.00000
    95.5423     2405.00000
    95.5554     2336.00000
    95.5685     2418.00000
    95.5816     2398.00000
    95.5948     2398.00000
    95.6079     2367.00000
    95.6210     2369.00000
    95.6342     2437.00000
    95.6473     2375.00000
    95.6604     2430.00000
    95.6736     2346.00000
    95.6867     2443.00000
    95.6998     2334.00000
    95.7130     2280.00000
    95.7261     2344.00000
    95.7392     2311.00000
    95.7523     2434.00000
    95.7655     2382.00000
    95.7786     2418.00000
    95.7917     2454.00000
    95.8049     2541.00000
    95.8180     2402.00000
    95.8311     2406.00000
    95.8443     2462.00000
    95.8574     2440.00000
    95.8705     2534.00000
    95.8836     2523.00000
    95.8968     2553.00000
    95.9099     2589.00000
    95.9230     2476.00000
    95.9362     2606.00000
    95.9493     2569.00000
    95.9624     2624.00000
    95.9756     2535.00000
    95.9887     2613.00000
    96.0018     2446.00000
    96.0149     2502.00000
    96.0281     2480.00000
    96.0412     2447.00000
    96.0543     2443.00000
    96.0675     2452.00000
    96.0806     2371.00000
    96.0937     2416.00000
    96.1069     2452.00000
    96.1200     2421.00000
    96.1331     2528.00000
    96.1463     2429.00000
    96.1594     2424.00000
    96.1725     2444.00000
    96.1856     2429.00000
    96.1988     2497.00000
    96.2119     2602.00000
    96.2250     2471.00000
    96.2382     2441.00000
    96.2513     2468.00000
    96.2644     2584.00000
    96.2776     2548.00000
    96.2907     2560.00000
    96.3038     2532.00000
    96.3169     2488.00000
    96.3301     2595.00000
    96.3432     2559.00000
    96.3563     2649.00000
    96.3695     2709.00000
    96.3826     2717.00000
    96.3957     2777.00000
    96.4089     2832.00000
    96.4220     2909.00000
    96.4351     2926.00000
    96.4482     3155.00000
    96.4614     3369.00000
    96.4745     3515.00000
    96.4876     3617.00000
    96.5008     3665.00000
    96.5139     3697.00000
    96.5270     3571.00000
    96.5402     3621.00000
    96.5533     3445.00000
    96.5664     3371.00000
    96.5796     3329.00000
    96.5927     3191.00000
    96.6058     3057.00000
    96.6189     3157.00000
    96.6321     3112.00000
    96.6452     3091.00000
    96.6583     3185.00000
    96.6715     3191.00000
    96.6846     3224.00000
    96.6977     3344.00000
    96.7109     3331.00000
    96.7240     3339.00000
    96.7371     3486.00000
    96.7502     3482.00000
    96.7634     3516.00000
    96.7765     3474.00000
    96.7896     3506.00000
    96.8028     3403.00000
    96.8159     3356.00000
    96.8290     3283.00000
    96.8422     3310.00000
    96.8553     3269.00000
    96.8684     3166.00000
    96.8815     3105.00000
    96.8947     3040.00000
    96.9078     2901.00000
    96.9209     2927.00000
    96.9341     2789.00000
    96.9472     2789.00000
    96.9603     2794.00000
    96.9735     2793.00000
    96.9866     2768.00000
    96.9997     2854.00000
    97.0128     2928.00000
    97.0260     2835.00000
    97.0391     2880.00000
    97.0522     2805.00000
    97.0654     2887.00000
    97.0785     2865.00000
    97.0916     2803.00000
    97.1048     2691.00000
    97.1179     2710.00000
    97.1310     2637.00000
    97.1442     2647.00000
    97.1573     2644.00000
    97.1704     2597.00000
    97.1835     2589.00000
    97.1967     2516.00000
    97.2098     2532.00000
    97.2229     2606.00000
    97.2361     2591.00000
    97.2492     2526.00000
    97.2623     2495.00000
    97.2755     2544.00000
    97.2886     2607.00000
    97.3017     2601.00000
    97.3148     2669.00000
    97.3280     2675.00000
    97.3411     2800.00000
    97.3542     2872.00000
    97.3674     2916.00000
    97.3805     3134.00000
    97.3936     3157.00000
    97.4068     3097.00000
    97.4199     3413.00000
    97.4330     3324.00000
    97.4462     3484.00000
    97.4593     3563.00000
    97.4724     3479.00000
    97.4855     3454.00000
    97.4987     3498.00000
    97.5118     3337.00000
    97.5249     3338.00000
    97.5381     3077.00000
    97.5512     3102.00000
    97.5643     2931.00000
    97.5775     2734.00000
    97.5906     2761.00000
    97.6037     2686.00000
    97.6168     2744.00000
    97.6300     2676.00000
    97.6431     2704.00000
    97.6562     2633.00000
    97.6694     2664.00000
    97.6825     2741.00000
    97.6956     2784.00000
    97.7088     2849.00000
    97.7219     2791.00000
    97.7350     2912.00000
    97.7481     2941.00000
    97.7613     2897.00000
    97.7744     2991.00000
    97.7875     2999.00000
    97.8007     3032.00000
    97.8138     3051.00000
    97.8269     2960.00000
    97.8401     2846.00000
    97.8532     2880.00000
    97.8663     2782.00000
    97.8794     2690.00000
    97.8926     2729.00000
    97.9057     2622.00000
    97.9188     2587.00000
    97.9320     2543.00000
    97.9451     2476.00000
    97.9582     2565.00000
    97.9714     2418.00000
    97.9845     2430.00000
    97.9976     2436.00000
    98.0107     2472.00000
    98.0239     2532.00000
    98.0370     2540.00000
    98.0501     2462.00000
    98.0633     2573.00000
    98.0764     2475.00000
    98.0895     2531.00000
    98.1027     2431.00000
    98.1158     2420.00000
    98.1289     2448.00000
    98.1421     2517.00000
    98.1552     2568.00000
    98.1683     2485.00000
    98.1814     2515.00000
    98.1946     2506.00000
    98.2077     2609.00000
    98.2208     2544.00000
    98.2340     2737.00000
    98.2471     2600.00000
    98.2602     2674.00000
    98.2734     2660.00000
    98.2865     2758.00000
    98.2996     2819.00000
    98.3128     2920.00000
    98.3259     2991.00000
    98.3390     3078.00000
    98.3521     3175.00000
    98.3653     3222.00000
    98.3784     3388.00000
    98.3915     3231.00000
    98.4047     3479.00000
    98.4178     3529.00000
    98.4309     3417.00000
    98.4441     3705.00000
    98.4572     3596.00000
    98.4703     3659.00000
    98.4834     3737.00000
    98.4966     3708.00000
    98.5097     3835.00000
    98.5228     3844.00000
    98.5360     3790.00000
    98.5491     3802.00000
    98.5622     3748.00000
    98.5754     3556.00000
    98.5885     3550.00000
    98.6016     3498.00000
    98.6147     3243.00000
    98.6279     3263.00000
    98.6410     3147.00000
    98.6541     3174.00000
    98.6673     3305.00000
    98.6804     3257.00000
    98.6935     3312.00000
    98.7067     3278.00000
    98.7198     3262.00000
    98.7329     3301.00000
    98.7460     3273.00000
    98.7592     3409.00000
    98.7723     3473.00000
    98.7854     3498.00000
    98.7986     3586.00000
    98.8117     3558.00000
    98.8248     3732.00000
    98.8380     3890.00000
    98.8511     3899.00000
    98.8642     4033.00000
    98.8773     4155.00000
    98.8905     4276.00000
    98.9036     4127.00000
    98.9167     4011.00000
    98.9299     3998.00000
    98.9430     3901.00000
    98.9561     3956.00000
    98.9693     3845.00000
    98.9824     3824.00000
    98.9955     4025.00000
    99.0087     4180.00000
    99.0218     4296.00000
    99.0349     4377.00000
    99.0480     4479.00000
    99.0612     4577.00000
    99.0743     4592.00000
    99.0874     4541.00000
    99.1006     4350.00000
    99.1137     4400.00000
    99.1268     4382.00000
    99.1400     4169.00000
    99.1531     4139.00000
    99.1662     4075.00000
    99.1793     4032.00000
    99.1925     3946.00000
    99.2056     3964.00000
    99.2187     3905.00000
    99.2319     3834.00000
    99.2450     3837.00000
    99.2581     3788.00000
    99.2713     3703.00000
    99.2844     3565.00000
    99.2975     3726.00000
    99.3107     3570.00000
    99.3238     3437.00000
    99.3369     3539.00000
    99.3500     3469.00000
    99.3632     3505.00000
    99.3763     3565.00000
    99.3894     3502.00000
    99.4026     3392.00000
    99.4157     3385.00000
    99.4288     3508.00000
    99.4420     3453.00000
    99.4551     3424.00000
    99.4682     3247.00000
    99.4813     3247.00000
    99.4945     3124.00000
    99.5076     3126.00000
    99.5207     3027.00000
    99.5339     3072.00000
    99.5470     2935.00000
    99.5601     2993.00000
    99.5733     2934.00000
    99.5864     2944.00000
    99.5995     2914.00000
    99.6126     2820.00000
    99.6258     2737.00000
    99.6389     2799.00000
    99.6520     2778.00000
    99.6652     2884.00000
    99.6783     2764.00000
    99.6914     2742.00000
    99.7046     2717.00000
    99.7177     2857.00000
    99.7308     2687.00000
    99.7439     2877.00000
    99.7571     2869.00000
    99.7702     2936.00000
    99.7833     3134.00000
    99.7965     3235.00000
    99.8096     3373.00000
    99.8227     3333.00000
    99.8359     3406.00000
    99.8490     3191.00000
    99.8621     3118.00000
    99.8753     3072.00000
    99.8884     3022.00000
    99.9015     2854.00000
    99.9146     2778.00000
    99.9278     2867.00000
    99.9409     2803.00000
    99.9540     2739.00000
    99.9672     2853.00000
    99.9803     2801.00000
    99.9934     2757.00000
