! Initial file:   D:\ZAKARY_OUAIL\MA_THESE\Deuxième_année_de_thèse\DRX\Manips_DRX\1st_NaTaO2F2_XRK900\NaTaO2F2-Lent_240°C.xrdml
! Initial format:  58
! WAVE (A):      1.54060     1.54060     1.00000
! REM : data have been multiplied by     1.0000
! X_data : 2 Theta (deg.)                                                                                                                                                                                                                                                  
! Y_data : Intensity (arb. units)                                                                                                                                                                                                                                          
!     X         Y
!--------------------------------------------------------------------------------
    10.0116     6552.00000
    10.0247     6490.00000
    10.0379     6550.00000
    10.0510     6551.00000
    10.0641     6355.00000
    10.0772     6425.00000
    10.0904     6537.00000
    10.1035     6474.00000
    10.1166     6232.00000
    10.1298     6479.00000
    10.1429     6291.00000
    10.1560     6413.00000
    10.1692     6299.00000
    10.1823     6448.00000
    10.1954     6350.00000
    10.2086     6373.00000
    10.2217     6381.00000
    10.2348     6379.00000
    10.2479     6195.00000
    10.2611     6312.00000
    10.2742     6437.00000
    10.2873     6422.00000
    10.3005     6292.00000
    10.3136     6297.00000
    10.3267     6243.00000
    10.3399     6252.00000
    10.3530     6268.00000
    10.3661     6248.00000
    10.3792     6164.00000
    10.3924     6315.00000
    10.4055     6284.00000
    10.4186     6336.00000
    10.4318     6258.00000
    10.4449     6356.00000
    10.4580     6473.00000
    10.4712     6215.00000
    10.4843     6306.00000
    10.4974     6230.00000
    10.5105     6323.00000
    10.5237     6172.00000
    10.5368     6187.00000
    10.5499     6216.00000
    10.5631     6331.00000
    10.5762     6222.00000
    10.5893     6215.00000
    10.6025     6315.00000
    10.6156     6367.00000
    10.6287     6210.00000
    10.6418     6106.00000
    10.6550     6252.00000
    10.6681     6204.00000
    10.6812     6112.00000
    10.6944     6094.00000
    10.7075     6229.00000
    10.7206     6341.00000
    10.7338     6231.00000
    10.7469     6381.00000
    10.7600     6350.00000
    10.7732     6362.00000
    10.7863     6366.00000
    10.7994     6428.00000
    10.8125     6502.00000
    10.8257     6531.00000
    10.8388     6291.00000
    10.8519     6497.00000
    10.8651     6395.00000
    10.8782     6454.00000
    10.8913     6708.00000
    10.9045     6831.00000
    10.9176     6854.00000
    10.9307     6940.00000
    10.9438     7186.00000
    10.9570     7444.00000
    10.9701     7926.00000
    10.9832     8500.00000
    10.9964     9326.00000
    11.0095    10706.00000
    11.0226    12391.00000
    11.0358    15166.00000
    11.0489    19678.00000
    11.0620    24691.00000
    11.0751    31266.00000
    11.0883    40707.00000
    11.1014    48168.00000
    11.1145    49999.00000
    11.1277    47514.00000
    11.1408    40494.00000
    11.1539    33715.00000
    11.1671    27211.00000
    11.1802    20500.00000
    11.1933    15906.00000
    11.2065    12280.00000
    11.2196     9648.00000
    11.2327     8640.00000
    11.2458     7696.00000
    11.2590     7068.00000
    11.2721     6796.00000
    11.2852     6659.00000
    11.2984     6491.00000
    11.3115     6384.00000
    11.3246     6169.00000
    11.3378     6143.00000
    11.3509     6023.00000
    11.3640     6138.00000
    11.3771     6019.00000
    11.3903     6063.00000
    11.4034     6060.00000
    11.4165     6147.00000
    11.4297     6122.00000
    11.4428     6056.00000
    11.4559     5826.00000
    11.4691     6028.00000
    11.4822     5949.00000
    11.4953     5996.00000
    11.5084     5983.00000
    11.5216     5939.00000
    11.5347     5944.00000
    11.5478     5825.00000
    11.5610     5850.00000
    11.5741     5897.00000
    11.5872     5903.00000
    11.6004     5998.00000
    11.6135     5998.00000
    11.6266     5784.00000
    11.6398     5746.00000
    11.6529     5753.00000
    11.6660     5824.00000
    11.6791     5804.00000
    11.6923     5820.00000
    11.7054     5764.00000
    11.7185     5674.00000
    11.7317     5814.00000
    11.7448     5854.00000
    11.7579     5858.00000
    11.7711     5745.00000
    11.7842     5800.00000
    11.7973     5782.00000
    11.8104     5715.00000
    11.8236     5712.00000
    11.8367     5751.00000
    11.8498     5923.00000
    11.8630     5927.00000
    11.8761     5728.00000
    11.8892     5736.00000
    11.9024     5782.00000
    11.9155     5733.00000
    11.9286     5734.00000
    11.9417     5741.00000
    11.9549     5672.00000
    11.9680     5705.00000
    11.9811     5571.00000
    11.9943     5707.00000
    12.0074     5641.00000
    12.0205     5738.00000
    12.0337     5696.00000
    12.0468     5767.00000
    12.0599     5777.00000
    12.0731     5690.00000
    12.0862     5557.00000
    12.0993     5721.00000
    12.1124     5654.00000
    12.1256     5793.00000
    12.1387     5621.00000
    12.1518     5509.00000
    12.1650     5681.00000
    12.1781     5694.00000
    12.1912     5551.00000
    12.2044     5688.00000
    12.2175     5591.00000
    12.2306     5724.00000
    12.2437     5730.00000
    12.2569     5554.00000
    12.2700     5724.00000
    12.2831     5541.00000
    12.2963     5500.00000
    12.3094     5777.00000
    12.3225     5527.00000
    12.3357     5488.00000
    12.3488     5702.00000
    12.3619     5545.00000
    12.3750     5512.00000
    12.3882     5481.00000
    12.4013     5578.00000
    12.4144     5576.00000
    12.4276     5559.00000
    12.4407     5480.00000
    12.4538     5448.00000
    12.4670     5593.00000
    12.4801     5309.00000
    12.4932     5450.00000
    12.5063     5534.00000
    12.5195     5477.00000
    12.5326     5616.00000
    12.5457     5559.00000
    12.5589     5561.00000
    12.5720     5486.00000
    12.5851     5580.00000
    12.5983     5577.00000
    12.6114     5563.00000
    12.6245     5473.00000
    12.6377     5449.00000
    12.6508     5437.00000
    12.6639     5434.00000
    12.6770     5538.00000
    12.6902     5449.00000
    12.7033     5440.00000
    12.7164     5547.00000
    12.7296     5424.00000
    12.7427     5447.00000
    12.7558     5447.00000
    12.7690     5439.00000
    12.7821     5448.00000
    12.7952     5367.00000
    12.8083     5345.00000
    12.8215     5437.00000
    12.8346     5463.00000
    12.8477     5481.00000
    12.8609     5392.00000
    12.8740     5459.00000
    12.8871     5306.00000
    12.9003     5389.00000
    12.9134     5346.00000
    12.9265     5333.00000
    12.9396     5496.00000
    12.9528     5311.00000
    12.9659     5338.00000
    12.9790     5402.00000
    12.9922     5375.00000
    13.0053     5389.00000
    13.0184     5200.00000
    13.0316     5486.00000
    13.0447     5464.00000
    13.0578     5354.00000
    13.0710     5340.00000
    13.0841     5272.00000
    13.0972     5378.00000
    13.1103     5353.00000
    13.1235     5272.00000
    13.1366     5264.00000
    13.1497     5253.00000
    13.1629     5296.00000
    13.1760     5395.00000
    13.1891     5226.00000
    13.2023     5355.00000
    13.2154     5318.00000
    13.2285     5186.00000
    13.2416     5361.00000
    13.2548     5258.00000
    13.2679     5232.00000
    13.2810     5255.00000
    13.2942     5374.00000
    13.3073     5204.00000
    13.3204     5314.00000
    13.3336     5367.00000
    13.3467     5156.00000
    13.3598     5342.00000
    13.3729     5379.00000
    13.3861     5378.00000
    13.3992     5238.00000
    13.4123     5204.00000
    13.4255     5252.00000
    13.4386     5181.00000
    13.4517     5324.00000
    13.4649     5328.00000
    13.4780     5410.00000
    13.4911     5368.00000
    13.5043     5343.00000
    13.5174     5222.00000
    13.5305     5163.00000
    13.5436     5018.00000
    13.5568     5163.00000
    13.5699     5194.00000
    13.5830     5083.00000
    13.5962     5244.00000
    13.6093     5180.00000
    13.6224     5296.00000
    13.6356     5201.00000
    13.6487     5184.00000
    13.6618     5088.00000
    13.6749     5212.00000
    13.6881     5309.00000
    13.7012     5114.00000
    13.7143     5071.00000
    13.7275     5187.00000
    13.7406     5232.00000
    13.7537     5198.00000
    13.7669     5132.00000
    13.7800     5158.00000
    13.7931     5137.00000
    13.8062     5137.00000
    13.8194     5174.00000
    13.8325     5058.00000
    13.8456     5161.00000
    13.8588     5236.00000
    13.8719     5237.00000
    13.8850     5130.00000
    13.8982     4956.00000
    13.9113     5164.00000
    13.9244     5197.00000
    13.9376     5115.00000
    13.9507     5149.00000
    13.9638     5121.00000
    13.9769     4911.00000
    13.9901     5016.00000
    14.0032     5081.00000
    14.0163     5043.00000
    14.0295     5235.00000
    14.0426     5197.00000
    14.0557     5107.00000
    14.0689     5187.00000
    14.0820     4957.00000
    14.0951     5040.00000
    14.1082     5005.00000
    14.1214     4960.00000
    14.1345     4977.00000
    14.1476     5001.00000
    14.1608     5198.00000
    14.1739     5014.00000
    14.1870     5096.00000
    14.2002     5070.00000
    14.2133     5070.00000
    14.2264     4994.00000
    14.2395     5009.00000
    14.2527     5006.00000
    14.2658     5017.00000
    14.2789     4938.00000
    14.2921     4979.00000
    14.3052     4965.00000
    14.3183     5119.00000
    14.3315     5017.00000
    14.3446     5053.00000
    14.3577     5009.00000
    14.3708     5200.00000
    14.3840     5022.00000
    14.3971     4972.00000
    14.4102     4909.00000
    14.4234     5019.00000
    14.4365     4950.00000
    14.4496     4933.00000
    14.4628     4856.00000
    14.4759     5150.00000
    14.4890     4941.00000
    14.5022     4981.00000
    14.5153     4903.00000
    14.5284     4898.00000
    14.5415     4963.00000
    14.5547     4870.00000
    14.5678     4905.00000
    14.5809     4865.00000
    14.5941     4883.00000
    14.6072     4902.00000
    14.6203     4849.00000
    14.6335     5012.00000
    14.6466     4929.00000
    14.6597     4846.00000
    14.6728     4898.00000
    14.6860     4954.00000
    14.6991     4936.00000
    14.7122     4901.00000
    14.7254     4939.00000
    14.7385     4868.00000
    14.7516     4921.00000
    14.7648     4894.00000
    14.7779     4880.00000
    14.7910     4859.00000
    14.8041     5046.00000
    14.8173     4966.00000
    14.8304     4910.00000
    14.8435     4811.00000
    14.8567     4786.00000
    14.8698     4849.00000
    14.8829     4963.00000
    14.8961     4930.00000
    14.9092     4785.00000
    14.9223     4833.00000
    14.9355     4921.00000
    14.9486     4810.00000
    14.9617     4834.00000
    14.9748     4898.00000
    14.9880     4720.00000
    15.0011     4901.00000
    15.0142     4801.00000
    15.0274     4875.00000
    15.0405     4861.00000
    15.0536     4900.00000
    15.0668     4789.00000
    15.0799     4924.00000
    15.0930     4949.00000
    15.1061     4716.00000
    15.1193     4797.00000
    15.1324     4772.00000
    15.1455     4727.00000
    15.1587     4777.00000
    15.1718     4876.00000
    15.1849     4938.00000
    15.1981     4801.00000
    15.2112     4723.00000
    15.2243     4780.00000
    15.2374     4824.00000
    15.2506     4792.00000
    15.2637     4926.00000
    15.2768     4765.00000
    15.2900     4743.00000
    15.3031     4858.00000
    15.3162     4660.00000
    15.3294     4799.00000
    15.3425     4847.00000
    15.3556     4804.00000
    15.3688     4663.00000
    15.3819     4736.00000
    15.3950     4735.00000
    15.4081     4592.00000
    15.4213     4728.00000
    15.4344     4867.00000
    15.4475     4698.00000
    15.4607     4757.00000
    15.4738     4686.00000
    15.4869     4711.00000
    15.5001     4720.00000
    15.5132     4792.00000
    15.5263     4607.00000
    15.5394     4701.00000
    15.5526     4749.00000
    15.5657     4796.00000
    15.5788     4712.00000
    15.5920     4690.00000
    15.6051     4642.00000
    15.6182     4879.00000
    15.6314     4708.00000
    15.6445     4702.00000
    15.6576     4717.00000
    15.6707     4683.00000
    15.6839     4814.00000
    15.6970     4596.00000
    15.7101     4738.00000
    15.7233     4685.00000
    15.7364     4741.00000
    15.7495     4721.00000
    15.7627     4700.00000
    15.7758     4766.00000
    15.7889     4737.00000
    15.8021     4684.00000
    15.8152     4723.00000
    15.8283     4642.00000
    15.8414     4728.00000
    15.8546     4776.00000
    15.8677     4580.00000
    15.8808     4614.00000
    15.8940     4645.00000
    15.9071     4592.00000
    15.9202     4690.00000
    15.9334     4691.00000
    15.9465     4742.00000
    15.9596     4718.00000
    15.9727     4705.00000
    15.9859     4694.00000
    15.9990     4708.00000
    16.0121     4711.00000
    16.0253     4719.00000
    16.0384     4703.00000
    16.0515     4766.00000
    16.0647     4850.00000
    16.0778     4772.00000
    16.0909     4657.00000
    16.1040     4664.00000
    16.1172     4770.00000
    16.1303     4819.00000
    16.1434     4770.00000
    16.1566     4857.00000
    16.1697     4867.00000
    16.1828     4750.00000
    16.1960     4805.00000
    16.2091     4717.00000
    16.2222     4823.00000
    16.2353     4766.00000
    16.2485     5009.00000
    16.2616     4737.00000
    16.2747     4897.00000
    16.2879     4766.00000
    16.3010     4796.00000
    16.3141     4861.00000
    16.3273     4640.00000
    16.3404     4798.00000
    16.3535     4881.00000
    16.3667     4824.00000
    16.3798     4763.00000
    16.3929     4835.00000
    16.4060     4767.00000
    16.4192     4680.00000
    16.4323     4812.00000
    16.4454     4825.00000
    16.4586     4707.00000
    16.4717     4732.00000
    16.4848     4694.00000
    16.4980     4632.00000
    16.5111     4633.00000
    16.5242     4725.00000
    16.5373     4647.00000
    16.5505     4811.00000
    16.5636     4655.00000
    16.5767     4632.00000
    16.5899     4500.00000
    16.6030     4611.00000
    16.6161     4569.00000
    16.6293     4637.00000
    16.6424     4631.00000
    16.6555     4615.00000
    16.6686     4490.00000
    16.6818     4623.00000
    16.6949     4553.00000
    16.7080     4424.00000
    16.7212     4496.00000
    16.7343     4537.00000
    16.7474     4660.00000
    16.7606     4519.00000
    16.7737     4438.00000
    16.7868     4515.00000
    16.8000     4567.00000
    16.8131     4449.00000
    16.8262     4650.00000
    16.8393     4485.00000
    16.8525     4573.00000
    16.8656     4532.00000
    16.8787     4547.00000
    16.8919     4413.00000
    16.9050     4475.00000
    16.9181     4397.00000
    16.9313     4490.00000
    16.9444     4562.00000
    16.9575     4471.00000
    16.9706     4554.00000
    16.9838     4432.00000
    16.9969     4537.00000
    17.0100     4598.00000
    17.0232     4629.00000
    17.0363     4581.00000
    17.0494     4536.00000
    17.0626     4492.00000
    17.0757     4526.00000
    17.0888     4534.00000
    17.1019     4451.00000
    17.1151     4448.00000
    17.1282     4568.00000
    17.1413     4581.00000
    17.1545     4579.00000
    17.1676     4428.00000
    17.1807     4533.00000
    17.1939     4549.00000
    17.2070     4630.00000
    17.2201     4557.00000
    17.2333     4596.00000
    17.2464     4786.00000
    17.2595     4657.00000
    17.2726     4666.00000
    17.2858     4487.00000
    17.2989     4627.00000
    17.3120     4566.00000
    17.3252     4506.00000
    17.3383     4383.00000
    17.3514     4385.00000
    17.3646     4405.00000
    17.3777     4561.00000
    17.3908     4559.00000
    17.4039     4381.00000
    17.4171     4313.00000
    17.4302     4523.00000
    17.4433     4417.00000
    17.4565     4377.00000
    17.4696     4463.00000
    17.4827     4366.00000
    17.4959     4356.00000
    17.5090     4342.00000
    17.5221     4258.00000
    17.5352     4428.00000
    17.5484     4449.00000
    17.5615     4434.00000
    17.5746     4460.00000
    17.5878     4519.00000
    17.6009     4436.00000
    17.6140     4374.00000
    17.6272     4391.00000
    17.6403     4445.00000
    17.6534     4433.00000
    17.6666     4447.00000
    17.6797     4460.00000
    17.6928     4631.00000
    17.7059     4679.00000
    17.7191     4730.00000
    17.7322     4644.00000
    17.7453     4777.00000
    17.7585     4628.00000
    17.7716     4604.00000
    17.7847     4378.00000
    17.7979     4530.00000
    17.8110     4487.00000
    17.8241     4514.00000
    17.8372     4455.00000
    17.8504     4507.00000
    17.8635     4325.00000
    17.8766     4320.00000
    17.8898     4475.00000
    17.9029     4407.00000
    17.9160     4332.00000
    17.9292     4325.00000
    17.9423     4429.00000
    17.9554     4321.00000
    17.9685     4345.00000
    17.9817     4338.00000
    17.9948     4344.00000
    18.0079     4351.00000
    18.0211     4333.00000
    18.0342     4270.00000
    18.0473     4292.00000
    18.0605     4297.00000
    18.0736     4286.00000
    18.0867     4257.00000
    18.0998     4283.00000
    18.1130     4168.00000
    18.1261     4273.00000
    18.1392     4345.00000
    18.1524     4281.00000
    18.1655     4243.00000
    18.1786     4303.00000
    18.1918     4159.00000
    18.2049     4312.00000
    18.2180     4219.00000
    18.2312     4180.00000
    18.2443     4200.00000
    18.2574     4141.00000
    18.2705     4168.00000
    18.2837     4305.00000
    18.2968     4222.00000
    18.3099     4251.00000
    18.3231     4341.00000
    18.3362     4333.00000
    18.3493     4191.00000
    18.3625     4248.00000
    18.3756     4275.00000
    18.3887     4215.00000
    18.4018     4357.00000
    18.4150     4335.00000
    18.4281     4303.00000
    18.4412     4272.00000
    18.4544     4213.00000
    18.4675     4229.00000
    18.4806     4213.00000
    18.4938     4216.00000
    18.5069     4238.00000
    18.5200     4199.00000
    18.5331     4217.00000
    18.5463     4394.00000
    18.5594     4188.00000
    18.5725     4143.00000
    18.5857     4287.00000
    18.5988     4238.00000
    18.6119     4319.00000
    18.6251     4272.00000
    18.6382     4315.00000
    18.6513     4398.00000
    18.6645     4229.00000
    18.6776     4286.00000
    18.6907     4158.00000
    18.7038     4269.00000
    18.7170     4385.00000
    18.7301     4231.00000
    18.7432     4251.00000
    18.7564     4155.00000
    18.7695     4120.00000
    18.7826     4089.00000
    18.7958     4125.00000
    18.8089     4157.00000
    18.8220     4188.00000
    18.8351     4252.00000
    18.8483     4214.00000
    18.8614     4154.00000
    18.8745     4140.00000
    18.8877     4164.00000
    18.9008     4186.00000
    18.9139     4160.00000
    18.9271     4311.00000
    18.9402     4201.00000
    18.9533     4301.00000
    18.9664     4214.00000
    18.9796     4432.00000
    18.9927     4517.00000
    19.0058     4482.00000
    19.0190     4579.00000
    19.0321     4522.00000
    19.0452     4509.00000
    19.0584     4553.00000
    19.0715     4579.00000
    19.0846     4617.00000
    19.0978     4605.00000
    19.1109     4494.00000
    19.1240     4674.00000
    19.1371     4524.00000
    19.1503     4608.00000
    19.1634     4584.00000
    19.1765     4669.00000
    19.1897     4565.00000
    19.2028     4715.00000
    19.2159     4520.00000
    19.2291     4570.00000
    19.2422     4763.00000
    19.2553     4537.00000
    19.2684     4579.00000
    19.2816     4673.00000
    19.2947     4653.00000
    19.3078     4723.00000
    19.3210     4679.00000
    19.3341     4694.00000
    19.3472     4873.00000
    19.3604     4871.00000
    19.3735     4790.00000
    19.3866     5011.00000
    19.3997     5098.00000
    19.4129     5282.00000
    19.4260     5381.00000
    19.4391     5564.00000
    19.4523     5838.00000
    19.4654     5875.00000
    19.4785     6138.00000
    19.4917     6456.00000
    19.5048     6900.00000
    19.5179     7792.00000
    19.5311     9048.00000
    19.5442    10974.00000
    19.5573    14084.00000
    19.5704    18753.00000
    19.5836    26398.00000
    19.5967    39497.00000
    19.6098    59634.00000
    19.6230    83912.00000
    19.6361   106487.00000
    19.6492   123801.00000
    19.6624   124039.00000
    19.6755   115410.00000
    19.6886   105047.00000
    19.7017    91938.00000
    19.7149    73159.00000
    19.7280    54932.00000
    19.7411    39604.00000
    19.7543    27820.00000
    19.7674    19594.00000
    19.7805    14507.00000
    19.7937    10844.00000
    19.8068     8588.00000
    19.8199     7334.00000
    19.8330     6541.00000
    19.8462     6002.00000
    19.8593     5992.00000
    19.8724     5530.00000
    19.8856     5193.00000
    19.8987     5157.00000
    19.9118     4963.00000
    19.9250     4799.00000
    19.9381     4755.00000
    19.9512     4643.00000
    19.9643     4621.00000
    19.9775     4598.00000
    19.9906     4480.00000
    20.0037     4598.00000
    20.0169     4528.00000
    20.0300     4416.00000
    20.0431     4394.00000
    20.0563     4314.00000
    20.0694     4431.00000
    20.0825     4457.00000
    20.0957     4339.00000
    20.1088     4378.00000
    20.1219     4551.00000
    20.1350     4420.00000
    20.1482     4486.00000
    20.1613     4606.00000
    20.1744     4621.00000
    20.1876     4482.00000
    20.2007     4459.00000
    20.2138     4512.00000
    20.2270     4477.00000
    20.2401     4364.00000
    20.2532     4399.00000
    20.2663     4253.00000
    20.2795     4201.00000
    20.2926     4188.00000
    20.3057     4155.00000
    20.3189     4270.00000
    20.3320     4102.00000
    20.3451     4192.00000
    20.3583     4263.00000
    20.3714     4208.00000
    20.3845     4177.00000
    20.3976     4216.00000
    20.4108     4132.00000
    20.4239     4093.00000
    20.4370     4189.00000
    20.4502     4135.00000
    20.4633     4176.00000
    20.4764     4057.00000
    20.4896     4029.00000
    20.5027     4027.00000
    20.5158     4026.00000
    20.5290     4129.00000
    20.5421     4150.00000
    20.5552     4173.00000
    20.5683     4228.00000
    20.5815     4119.00000
    20.5946     4049.00000
    20.6077     4019.00000
    20.6209     4067.00000
    20.6340     3891.00000
    20.6471     3999.00000
    20.6603     4085.00000
    20.6734     4057.00000
    20.6865     4067.00000
    20.6996     3916.00000
    20.7128     3998.00000
    20.7259     4050.00000
    20.7390     4083.00000
    20.7522     4081.00000
    20.7653     4069.00000
    20.7784     3956.00000
    20.7916     4007.00000
    20.8047     3992.00000
    20.8178     4016.00000
    20.8309     3977.00000
    20.8441     4054.00000
    20.8572     4076.00000
    20.8703     4046.00000
    20.8835     4081.00000
    20.8966     3927.00000
    20.9097     3993.00000
    20.9229     3855.00000
    20.9360     3903.00000
    20.9491     4014.00000
    20.9623     3970.00000
    20.9754     3934.00000
    20.9885     3991.00000
    21.0016     4067.00000
    21.0148     3945.00000
    21.0279     3991.00000
    21.0410     3936.00000
    21.0542     3980.00000
    21.0673     3969.00000
    21.0804     3892.00000
    21.0936     3950.00000
    21.1067     3908.00000
    21.1198     3861.00000
    21.1329     3953.00000
    21.1461     4110.00000
    21.1592     3945.00000
    21.1723     4010.00000
    21.1855     3910.00000
    21.1986     3862.00000
    21.2117     3818.00000
    21.2249     4036.00000
    21.2380     3841.00000
    21.2511     3860.00000
    21.2642     3938.00000
    21.2774     4034.00000
    21.2905     3869.00000
    21.3036     3938.00000
    21.3168     3892.00000
    21.3299     3981.00000
    21.3430     3854.00000
    21.3562     3956.00000
    21.3693     3936.00000
    21.3824     3835.00000
    21.3956     3912.00000
    21.4087     3912.00000
    21.4218     3786.00000
    21.4349     3851.00000
    21.4481     3774.00000
    21.4612     3872.00000
    21.4743     3839.00000
    21.4875     3831.00000
    21.5006     3746.00000
    21.5137     3744.00000
    21.5269     3839.00000
    21.5400     3894.00000
    21.5531     3827.00000
    21.5662     3793.00000
    21.5794     3898.00000
    21.5925     3830.00000
    21.6056     3925.00000
    21.6188     3946.00000
    21.6319     3830.00000
    21.6450     3801.00000
    21.6582     3859.00000
    21.6713     3839.00000
    21.6844     3939.00000
    21.6975     4009.00000
    21.7107     3945.00000
    21.7238     3885.00000
    21.7369     3896.00000
    21.7501     4042.00000
    21.7632     4031.00000
    21.7763     4123.00000
    21.7895     4011.00000
    21.8026     4256.00000
    21.8157     4301.00000
    21.8288     4131.00000
    21.8420     4212.00000
    21.8551     4183.00000
    21.8682     3996.00000
    21.8814     4026.00000
    21.8945     4006.00000
    21.9076     4001.00000
    21.9208     3929.00000
    21.9339     3869.00000
    21.9470     3900.00000
    21.9602     3901.00000
    21.9733     3983.00000
    21.9864     3977.00000
    21.9995     3993.00000
    22.0127     4009.00000
    22.0258     4050.00000
    22.0389     3852.00000
    22.0521     3807.00000
    22.0652     3823.00000
    22.0783     3873.00000
    22.0915     3982.00000
    22.1046     3932.00000
    22.1177     3881.00000
    22.1308     3976.00000
    22.1440     3951.00000
    22.1571     4007.00000
    22.1702     3961.00000
    22.1834     4118.00000
    22.1965     4007.00000
    22.2096     4233.00000
    22.2228     4225.00000
    22.2359     4618.00000
    22.2490     4842.00000
    22.2621     5425.00000
    22.2753     6471.00000
    22.2884     7800.00000
    22.3015    10378.00000
    22.3147    14302.00000
    22.3278    17570.00000
    22.3409    19368.00000
    22.3541    18425.00000
    22.3672    17478.00000
    22.3803    16524.00000
    22.3935    16011.00000
    22.4066    13516.00000
    22.4197    10531.00000
    22.4328     8266.00000
    22.4460     7176.00000
    22.4591     5991.00000
    22.4722     5114.00000
    22.4854     4521.00000
    22.4985     4243.00000
    22.5116     4087.00000
    22.5248     4016.00000
    22.5379     4038.00000
    22.5510     3913.00000
    22.5641     3908.00000
    22.5773     3878.00000
    22.5904     3844.00000
    22.6035     3773.00000
    22.6167     3727.00000
    22.6298     3868.00000
    22.6429     3633.00000
    22.6561     3816.00000
    22.6692     3815.00000
    22.6823     3759.00000
    22.6954     3633.00000
    22.7086     3686.00000
    22.7217     3747.00000
    22.7348     3834.00000
    22.7480     3879.00000
    22.7611     3928.00000
    22.7742     3871.00000
    22.7874     3723.00000
    22.8005     3929.00000
    22.8136     3851.00000
    22.8268     3811.00000
    22.8399     3795.00000
    22.8530     3872.00000
    22.8661     3610.00000
    22.8793     3707.00000
    22.8924     3686.00000
    22.9055     3858.00000
    22.9187     3719.00000
    22.9318     3666.00000
    22.9449     3720.00000
    22.9581     3744.00000
    22.9712     3583.00000
    22.9843     3751.00000
    22.9974     3743.00000
    23.0106     3692.00000
    23.0237     3675.00000
    23.0368     3758.00000
    23.0500     3765.00000
    23.0631     3616.00000
    23.0762     3593.00000
    23.0894     3651.00000
    23.1025     3671.00000
    23.1156     3706.00000
    23.1287     3759.00000
    23.1419     3697.00000
    23.1550     3766.00000
    23.1681     3698.00000
    23.1813     3585.00000
    23.1944     3632.00000
    23.2075     3587.00000
    23.2207     3750.00000
    23.2338     3673.00000
    23.2469     3641.00000
    23.2601     3661.00000
    23.2732     3687.00000
    23.2863     3656.00000
    23.2994     3668.00000
    23.3126     3668.00000
    23.3257     3761.00000
    23.3388     3732.00000
    23.3520     3776.00000
    23.3651     3703.00000
    23.3782     3710.00000
    23.3914     3807.00000
    23.4045     3702.00000
    23.4176     3740.00000
    23.4307     3780.00000
    23.4439     3803.00000
    23.4570     3804.00000
    23.4701     3870.00000
    23.4833     3814.00000
    23.4964     3788.00000
    23.5095     3776.00000
    23.5227     3851.00000
    23.5358     3891.00000
    23.5489     3815.00000
    23.5620     3928.00000
    23.5752     3974.00000
    23.5883     3846.00000
    23.6014     3947.00000
    23.6146     3794.00000
    23.6277     3891.00000
    23.6408     3910.00000
    23.6540     4029.00000
    23.6671     3817.00000
    23.6802     3861.00000
    23.6933     3915.00000
    23.7065     3800.00000
    23.7196     4080.00000
    23.7327     3998.00000
    23.7459     3880.00000
    23.7590     3932.00000
    23.7721     3990.00000
    23.7853     3933.00000
    23.7984     3908.00000
    23.8115     3966.00000
    23.8247     3940.00000
    23.8378     4084.00000
    23.8509     3947.00000
    23.8640     3962.00000
    23.8772     4187.00000
    23.8903     4091.00000
    23.9034     4176.00000
    23.9166     4314.00000
    23.9297     4232.00000
    23.9428     4341.00000
    23.9560     4305.00000
    23.9691     4378.00000
    23.9822     4440.00000
    23.9953     4469.00000
    24.0085     4559.00000
    24.0216     4625.00000
    24.0347     4893.00000
    24.0479     4872.00000
    24.0610     5248.00000
    24.0741     5638.00000
    24.0873     6077.00000
    24.1004     7099.00000
    24.1135     8846.00000
    24.1266    12132.00000
    24.1398    16601.00000
    24.1529    23758.00000
    24.1660    31911.00000
    24.1792    39493.00000
    24.1923    44076.00000
    24.2054    45129.00000
    24.2186    42376.00000
    24.2317    38924.00000
    24.2448    35152.00000
    24.2580    33532.00000
    24.2711    28595.00000
    24.2842    22791.00000
    24.2973    19960.00000
    24.3105    21071.00000
    24.3236    25250.00000
    24.3367    32096.00000
    24.3499    37946.00000
    24.3630    43746.00000
    24.3761    48237.00000
    24.3893    48271.00000
    24.4024    44191.00000
    24.4155    40867.00000
    24.4286    36878.00000
    24.4418    31199.00000
    24.4549    24707.00000
    24.4680    18662.00000
    24.4812    14723.00000
    24.4943    11115.00000
    24.5074     8223.00000
    24.5206     6469.00000
    24.5337     5470.00000
    24.5468     5064.00000
    24.5599     4757.00000
    24.5731     4396.00000
    24.5862     4350.00000
    24.5993     4253.00000
    24.6125     4178.00000
    24.6256     4148.00000
    24.6387     3982.00000
    24.6519     3912.00000
    24.6650     3851.00000
    24.6781     3890.00000
    24.6913     3796.00000
    24.7044     3826.00000
    24.7175     3775.00000
    24.7306     3922.00000
    24.7438     3764.00000
    24.7569     3680.00000
    24.7700     3814.00000
    24.7832     3713.00000
    24.7963     3785.00000
    24.8094     3619.00000
    24.8226     3647.00000
    24.8357     3759.00000
    24.8488     3725.00000
    24.8619     3646.00000
    24.8751     3771.00000
    24.8882     3741.00000
    24.9013     3773.00000
    24.9145     3642.00000
    24.9276     3804.00000
    24.9407     3766.00000
    24.9539     3895.00000
    24.9670     3863.00000
    24.9801     4076.00000
    24.9932     3975.00000
    25.0064     3947.00000
    25.0195     3822.00000
    25.0326     3799.00000
    25.0458     3775.00000
    25.0589     3658.00000
    25.0720     3661.00000
    25.0852     3557.00000
    25.0983     3640.00000
    25.1114     3639.00000
    25.1246     3640.00000
    25.1377     3697.00000
    25.1508     3736.00000
    25.1639     3640.00000
    25.1771     3728.00000
    25.1902     3627.00000
    25.2033     3556.00000
    25.2165     3664.00000
    25.2296     3609.00000
    25.2427     3670.00000
    25.2559     3701.00000
    25.2690     3568.00000
    25.2821     3550.00000
    25.2952     3600.00000
    25.3084     3549.00000
    25.3215     3552.00000
    25.3346     3642.00000
    25.3478     3572.00000
    25.3609     3639.00000
    25.3740     3733.00000
    25.3872     3600.00000
    25.4003     3539.00000
    25.4134     3658.00000
    25.4265     3677.00000
    25.4397     3572.00000
    25.4528     3601.00000
    25.4659     3700.00000
    25.4791     3712.00000
    25.4922     3598.00000
    25.5053     3522.00000
    25.5185     3502.00000
    25.5316     3511.00000
    25.5447     3545.00000
    25.5579     3457.00000
    25.5710     3593.00000
    25.5841     3517.00000
    25.5972     3595.00000
    25.6104     3395.00000
    25.6235     3508.00000
    25.6366     3618.00000
    25.6498     3540.00000
    25.6629     3462.00000
    25.6760     3475.00000
    25.6892     3548.00000
    25.7023     3506.00000
    25.7154     3614.00000
    25.7285     3462.00000
    25.7417     3366.00000
    25.7548     3516.00000
    25.7679     3456.00000
    25.7811     3571.00000
    25.7942     3525.00000
    25.8073     3440.00000
    25.8205     3471.00000
    25.8336     3564.00000
    25.8467     3487.00000
    25.8598     3483.00000
    25.8730     3429.00000
    25.8861     3552.00000
    25.8992     3439.00000
    25.9124     3613.00000
    25.9255     3575.00000
    25.9386     3538.00000
    25.9518     3496.00000
    25.9649     3515.00000
    25.9780     3430.00000
    25.9911     3476.00000
    26.0043     3545.00000
    26.0174     3469.00000
    26.0305     3612.00000
    26.0437     3552.00000
    26.0568     3614.00000
    26.0699     3645.00000
    26.0831     3686.00000
    26.0962     3660.00000
    26.1093     3761.00000
    26.1225     3843.00000
    26.1356     3822.00000
    26.1487     3891.00000
    26.1618     3811.00000
    26.1750     3736.00000
    26.1881     3825.00000
    26.2012     3622.00000
    26.2144     3682.00000
    26.2275     3730.00000
    26.2406     3645.00000
    26.2538     3502.00000
    26.2669     3505.00000
    26.2800     3629.00000
    26.2931     3540.00000
    26.3063     3443.00000
    26.3194     3597.00000
    26.3325     3449.00000
    26.3457     3502.00000
    26.3588     3653.00000
    26.3719     3601.00000
    26.3851     3538.00000
    26.3982     3419.00000
    26.4113     3511.00000
    26.4244     3494.00000
    26.4376     3570.00000
    26.4507     3449.00000
    26.4638     3416.00000
    26.4770     3443.00000
    26.4901     3470.00000
    26.5032     3427.00000
    26.5164     3532.00000
    26.5295     3518.00000
    26.5426     3551.00000
    26.5558     3493.00000
    26.5689     3516.00000
    26.5820     3472.00000
    26.5951     3383.00000
    26.6083     3340.00000
    26.6214     3257.00000
    26.6345     3392.00000
    26.6477     3403.00000
    26.6608     3395.00000
    26.6739     3432.00000
    26.6871     3367.00000
    26.7002     3506.00000
    26.7133     3571.00000
    26.7264     3499.00000
    26.7396     3555.00000
    26.7527     3474.00000
    26.7658     3651.00000
    26.7790     3590.00000
    26.7921     3635.00000
    26.8052     3660.00000
    26.8184     3695.00000
    26.8315     3625.00000
    26.8446     3591.00000
    26.8577     3747.00000
    26.8709     3637.00000
    26.8840     3592.00000
    26.8971     3761.00000
    26.9103     3700.00000
    26.9234     3696.00000
    26.9365     3727.00000
    26.9497     3610.00000
    26.9628     3650.00000
    26.9759     3683.00000
    26.9891     3622.00000
    27.0022     3526.00000
    27.0153     3492.00000
    27.0284     3577.00000
    27.0416     3580.00000
    27.0547     3680.00000
    27.0678     3568.00000
    27.0810     3584.00000
    27.0941     3628.00000
    27.1072     3676.00000
    27.1204     3545.00000
    27.1335     3643.00000
    27.1466     3687.00000
    27.1597     3714.00000
    27.1729     3680.00000
    27.1860     3759.00000
    27.1991     3629.00000
    27.2123     3642.00000
    27.2254     3594.00000
    27.2385     3760.00000
    27.2517     3639.00000
    27.2648     3744.00000
    27.2779     3816.00000
    27.2910     3734.00000
    27.3042     3688.00000
    27.3173     3782.00000
    27.3304     3755.00000
    27.3436     3773.00000
    27.3567     3712.00000
    27.3698     3945.00000
    27.3830     3911.00000
    27.3961     3917.00000
    27.4092     3971.00000
    27.4224     4131.00000
    27.4355     4212.00000
    27.4486     4389.00000
    27.4617     4549.00000
    27.4749     4692.00000
    27.4880     4771.00000
    27.5011     4976.00000
    27.5143     5339.00000
    27.5274     5325.00000
    27.5405     5947.00000
    27.5537     6303.00000
    27.5668     6799.00000
    27.5799     7666.00000
    27.5930     8800.00000
    27.6062    10694.00000
    27.6193    13767.00000
    27.6324    19316.00000
    27.6456    28300.00000
    27.6587    42336.00000
    27.6718    61018.00000
    27.6850    77207.00000
    27.6981    85355.00000
    27.7112    82857.00000
    27.7243    74351.00000
    27.7375    68166.00000
    27.7506    63840.00000
    27.7637    57928.00000
    27.7769    50009.00000
    27.7900    40430.00000
    27.8031    30807.00000
    27.8163    22594.00000
    27.8294    16271.00000
    27.8425    11666.00000
    27.8556     8952.00000
    27.8688     7296.00000
    27.8819     6473.00000
    27.8950     5671.00000
    27.9082     5281.00000
    27.9213     5008.00000
    27.9344     4571.00000
    27.9476     4528.00000
    27.9607     4345.00000
    27.9738     4113.00000
    27.9870     4012.00000
    28.0001     3929.00000
    28.0132     3830.00000
    28.0263     3873.00000
    28.0395     3827.00000
    28.0526     3823.00000
    28.0657     3701.00000
    28.0789     3756.00000
    28.0920     3676.00000
    28.1051     3629.00000
    28.1183     3596.00000
    28.1314     3688.00000
    28.1445     3487.00000
    28.1576     3627.00000
    28.1708     3747.00000
    28.1839     3602.00000
    28.1970     3630.00000
    28.2102     3750.00000
    28.2233     3829.00000
    28.2364     3966.00000
    28.2496     3755.00000
    28.2627     4005.00000
    28.2758     3903.00000
    28.2889     3824.00000
    28.3021     3852.00000
    28.3152     3799.00000
    28.3283     3719.00000
    28.3415     3698.00000
    28.3546     3641.00000
    28.3677     3803.00000
    28.3809     3659.00000
    28.3940     3650.00000
    28.4071     3636.00000
    28.4203     3535.00000
    28.4334     3606.00000
    28.4465     3632.00000
    28.4596     3635.00000
    28.4728     3628.00000
    28.4859     3501.00000
    28.4990     3537.00000
    28.5122     3574.00000
    28.5253     3587.00000
    28.5384     3606.00000
    28.5516     3652.00000
    28.5647     3604.00000
    28.5778     3557.00000
    28.5909     3629.00000
    28.6041     3600.00000
    28.6172     3573.00000
    28.6303     3661.00000
    28.6435     3599.00000
    28.6566     3656.00000
    28.6697     3585.00000
    28.6829     3448.00000
    28.6960     3560.00000
    28.7091     3607.00000
    28.7222     3562.00000
    28.7354     3557.00000
    28.7485     3551.00000
    28.7616     3599.00000
    28.7748     3469.00000
    28.7879     3576.00000
    28.8010     3540.00000
    28.8142     3591.00000
    28.8273     3478.00000
    28.8404     3537.00000
    28.8536     3599.00000
    28.8667     3602.00000
    28.8798     3592.00000
    28.8929     3605.00000
    28.9061     3598.00000
    28.9192     3645.00000
    28.9323     3599.00000
    28.9455     3720.00000
    28.9586     3763.00000
    28.9717     3666.00000
    28.9849     3797.00000
    28.9980     3852.00000
    29.0111     3826.00000
    29.0242     4025.00000
    29.0374     4022.00000
    29.0505     4017.00000
    29.0636     4274.00000
    29.0768     4365.00000
    29.0899     4375.00000
    29.1030     4600.00000
    29.1162     4878.00000
    29.1293     5055.00000
    29.1424     5739.00000
    29.1555     6598.00000
    29.1687     8520.00000
    29.1818    11969.00000
    29.1949    16937.00000
    29.2081    23965.00000
    29.2212    29789.00000
    29.2343    32820.00000
    29.2475    32036.00000
    29.2606    29246.00000
    29.2737    26309.00000
    29.2869    25495.00000
    29.3000    24218.00000
    29.3131    23243.00000
    29.3262    22078.00000
    29.3394    20258.00000
    29.3525    20089.00000
    29.3656    20336.00000
    29.3788    21027.00000
    29.3919    21163.00000
    29.4050    19605.00000
    29.4182    17611.00000
    29.4313    15633.00000
    29.4444    14648.00000
    29.4575    13206.00000
    29.4707    12026.00000
    29.4838    10603.00000
    29.4969     8708.00000
    29.5101     6951.00000
    29.5232     5804.00000
    29.5363     4903.00000
    29.5495     4211.00000
    29.5626     4165.00000
    29.5757     3900.00000
    29.5888     3764.00000
    29.6020     3723.00000
    29.6151     3639.00000
    29.6282     3540.00000
    29.6414     3509.00000
    29.6545     3462.00000
    29.6676     3494.00000
    29.6808     3419.00000
    29.6939     3504.00000
    29.7070     3490.00000
    29.7201     3468.00000
    29.7333     3320.00000
    29.7464     3344.00000
    29.7595     3413.00000
    29.7727     3272.00000
    29.7858     3319.00000
    29.7989     3370.00000
    29.8121     3415.00000
    29.8252     3430.00000
    29.8383     3263.00000
    29.8515     3515.00000
    29.8646     3376.00000
    29.8777     3314.00000
    29.8908     3361.00000
    29.9040     3383.00000
    29.9171     3381.00000
    29.9302     3345.00000
    29.9434     3482.00000
    29.9565     3421.00000
    29.9696     3398.00000
    29.9828     3490.00000
    29.9959     3316.00000
    30.0090     3343.00000
    30.0221     3391.00000
    30.0353     3329.00000
    30.0484     3438.00000
    30.0615     3281.00000
    30.0747     3184.00000
    30.0878     3221.00000
    30.1009     3331.00000
    30.1141     3291.00000
    30.1272     3287.00000
    30.1403     3271.00000
    30.1535     3205.00000
    30.1666     3316.00000
    30.1797     3273.00000
    30.1928     3202.00000
    30.2060     3268.00000
    30.2191     3235.00000
    30.2322     3320.00000
    30.2454     3229.00000
    30.2585     3223.00000
    30.2716     3279.00000
    30.2848     3354.00000
    30.2979     3317.00000
    30.3110     3218.00000
    30.3241     3369.00000
    30.3373     3376.00000
    30.3504     3326.00000
    30.3635     3299.00000
    30.3767     3221.00000
    30.3898     3304.00000
    30.4029     3298.00000
    30.4161     3275.00000
    30.4292     3299.00000
    30.4423     3185.00000
    30.4554     3245.00000
    30.4686     3288.00000
    30.4817     3291.00000
    30.4948     3319.00000
    30.5080     3227.00000
    30.5211     3239.00000
    30.5342     3324.00000
    30.5474     3310.00000
    30.5605     3219.00000
    30.5736     3275.00000
    30.5868     3303.00000
    30.5999     3134.00000
    30.6130     3189.00000
    30.6261     3204.00000
    30.6393     3248.00000
    30.6524     3247.00000
    30.6655     3167.00000
    30.6787     3117.00000
    30.6918     3222.00000
    30.7049     3215.00000
    30.7181     3198.00000
    30.7312     3207.00000
    30.7443     3126.00000
    30.7574     3200.00000
    30.7706     3286.00000
    30.7837     3194.00000
    30.7968     3152.00000
    30.8100     3180.00000
    30.8231     3167.00000
    30.8362     3144.00000
    30.8494     3196.00000
    30.8625     3325.00000
    30.8756     3202.00000
    30.8887     3104.00000
    30.9019     3226.00000
    30.9150     3267.00000
    30.9281     3090.00000
    30.9413     3201.00000
    30.9544     3144.00000
    30.9675     3216.00000
    30.9807     3171.00000
    30.9938     3131.00000
    31.0069     3220.00000
    31.0200     3226.00000
    31.0332     3275.00000
    31.0463     3188.00000
    31.0594     3157.00000
    31.0726     3118.00000
    31.0857     3133.00000
    31.0988     3200.00000
    31.1120     3194.00000
    31.1251     3092.00000
    31.1382     3176.00000
    31.1514     3110.00000
    31.1645     3178.00000
    31.1776     3190.00000
    31.1907     3160.00000
    31.2039     3176.00000
    31.2170     3112.00000
    31.2301     3121.00000
    31.2433     3154.00000
    31.2564     3083.00000
    31.2695     3201.00000
    31.2827     3157.00000
    31.2958     3136.00000
    31.3089     3057.00000
    31.3220     3083.00000
    31.3352     3118.00000
    31.3483     3172.00000
    31.3614     3120.00000
    31.3746     3126.00000
    31.3877     3038.00000
    31.4008     3077.00000
    31.4140     3051.00000
    31.4271     3171.00000
    31.4402     3035.00000
    31.4533     3092.00000
    31.4665     3136.00000
    31.4796     3025.00000
    31.4927     3062.00000
    31.5059     3071.00000
    31.5190     3242.00000
    31.5321     3275.00000
    31.5453     3289.00000
    31.5584     3137.00000
    31.5715     3090.00000
    31.5847     3076.00000
    31.5978     3027.00000
    31.6109     3166.00000
    31.6240     3091.00000
    31.6372     3110.00000
    31.6503     3128.00000
    31.6634     3159.00000
    31.6766     3146.00000
    31.6897     3152.00000
    31.7028     3148.00000
    31.7160     3189.00000
    31.7291     3176.00000
    31.7422     3122.00000
    31.7553     3162.00000
    31.7685     3091.00000
    31.7816     3143.00000
    31.7947     3174.00000
    31.8079     3083.00000
    31.8210     2982.00000
    31.8341     3152.00000
    31.8473     3073.00000
    31.8604     3182.00000
    31.8735     3129.00000
    31.8866     3046.00000
    31.8998     3095.00000
    31.9129     3104.00000
    31.9260     3176.00000
    31.9392     3095.00000
    31.9523     3199.00000
    31.9654     3139.00000
    31.9786     3145.00000
    31.9917     3227.00000
    32.0048     3088.00000
    32.0180     3033.00000
    32.0311     3060.00000
    32.0442     3199.00000
    32.0573     3042.00000
    32.0705     3101.00000
    32.0836     3133.00000
    32.0967     3169.00000
    32.1099     3239.00000
    32.1230     3135.00000
    32.1361     3212.00000
    32.1493     3269.00000
    32.1624     3114.00000
    32.1755     3236.00000
    32.1886     3131.00000
    32.2018     3199.00000
    32.2149     3267.00000
    32.2280     3265.00000
    32.2412     3131.00000
    32.2543     3191.00000
    32.2674     3196.00000
    32.2806     3094.00000
    32.2937     3237.00000
    32.3068     3283.00000
    32.3199     3285.00000
    32.3331     3161.00000
    32.3462     3202.00000
    32.3593     3324.00000
    32.3725     3168.00000
    32.3856     3364.00000
    32.3987     3434.00000
    32.4119     3259.00000
    32.4250     3286.00000
    32.4381     3398.00000
    32.4512     3483.00000
    32.4644     3557.00000
    32.4775     3493.00000
    32.4906     3572.00000
    32.5038     3668.00000
    32.5169     3703.00000
    32.5300     3762.00000
    32.5432     3809.00000
    32.5563     4100.00000
    32.5694     4517.00000
    32.5826     5014.00000
    32.5957     6443.00000
    32.6088     8864.00000
    32.6219    13186.00000
    32.6351    18128.00000
    32.6482    21327.00000
    32.6613    21061.00000
    32.6745    17412.00000
    32.6876    14391.00000
    32.7007    13178.00000
    32.7139    13426.00000
    32.7270    13923.00000
    32.7401    13060.00000
    32.7532    11125.00000
    32.7664     9142.00000
    32.7795     7248.00000
    32.7926     5862.00000
    32.8058     4920.00000
    32.8189     4375.00000
    32.8320     3900.00000
    32.8452     3872.00000
    32.8583     3669.00000
    32.8714     3611.00000
    32.8845     3467.00000
    32.8977     3536.00000
    32.9108     3622.00000
    32.9239     3460.00000
    32.9371     3458.00000
    32.9502     3554.00000
    32.9633     3547.00000
    32.9765     3535.00000
    32.9896     3679.00000
    33.0027     3741.00000
    33.0159     3786.00000
    33.0290     3754.00000
    33.0421     3866.00000
    33.0552     3844.00000
    33.0684     4047.00000
    33.0815     4149.00000
    33.0946     4243.00000
    33.1078     4456.00000
    33.1209     4647.00000
    33.1340     4952.00000
    33.1472     5521.00000
    33.1603     6488.00000
    33.1734     8317.00000
    33.1865    11143.00000
    33.1997    16429.00000
    33.2128    23429.00000
    33.2259    29875.00000
    33.2391    34496.00000
    33.2522    34196.00000
    33.2653    30247.00000
    33.2785    26257.00000
    33.2916    23008.00000
    33.3047    21521.00000
    33.3178    21345.00000
    33.3310    20743.00000
    33.3441    18337.00000
    33.3572    15161.00000
    33.3704    11855.00000
    33.3835     8813.00000
    33.3966     6805.00000
    33.4098     5751.00000
    33.4229     5240.00000
    33.4360     4793.00000
    33.4492     4707.00000
    33.4623     4699.00000
    33.4754     4801.00000
    33.4885     4612.00000
    33.5017     4759.00000
    33.5148     5114.00000
    33.5279     5223.00000
    33.5411     5642.00000
    33.5542     6561.00000
    33.5673     7638.00000
    33.5805     9830.00000
    33.5936    13095.00000
    33.6067    17671.00000
    33.6198    21981.00000
    33.6330    26599.00000
    33.6461    29024.00000
    33.6592    29269.00000
    33.6724    27728.00000
    33.6855    24772.00000
    33.6986    22384.00000
    33.7118    20985.00000
    33.7249    20449.00000
    33.7380    20034.00000
    33.7511    20093.00000
    33.7643    20860.00000
    33.7774    20899.00000
    33.7905    21179.00000
    33.8037    19379.00000
    33.8168    15494.00000
    33.8299    12211.00000
    33.8431    10646.00000
    33.8562    10544.00000
    33.8693    10750.00000
    33.8825    10741.00000
    33.8956     9322.00000
    33.9087     7984.00000
    33.9218     6594.00000
    33.9350     5622.00000
    33.9481     4806.00000
    33.9612     4222.00000
    33.9744     3869.00000
    33.9875     3607.00000
    34.0006     3513.00000
    34.0138     3634.00000
    34.0269     3487.00000
    34.0400     3437.00000
    34.0531     3313.00000
    34.0663     3280.00000
    34.0794     3244.00000
    34.0925     3250.00000
    34.1057     3177.00000
    34.1188     3193.00000
    34.1319     3199.00000
    34.1451     3064.00000
    34.1582     3237.00000
    34.1713     3265.00000
    34.1844     3187.00000
    34.1976     3142.00000
    34.2107     3264.00000
    34.2238     3219.00000
    34.2370     3221.00000
    34.2501     3187.00000
    34.2632     3179.00000
    34.2764     3251.00000
    34.2895     3196.00000
    34.3026     3237.00000
    34.3158     3170.00000
    34.3289     3294.00000
    34.3420     3267.00000
    34.3551     3261.00000
    34.3683     3256.00000
    34.3814     3270.00000
    34.3945     3339.00000
    34.4077     3354.00000
    34.4208     3342.00000
    34.4339     3389.00000
    34.4471     3410.00000
    34.4602     3512.00000
    34.4733     3532.00000
    34.4864     3681.00000
    34.4996     3791.00000
    34.5127     3951.00000
    34.5258     4474.00000
    34.5390     5376.00000
    34.5521     6710.00000
    34.5652     9100.00000
    34.5784    11868.00000
    34.5915    13919.00000
    34.6046    14152.00000
    34.6177    12739.00000
    34.6309    10867.00000
    34.6440     9179.00000
    34.6571     8863.00000
    34.6703     8805.00000
    34.6834     9132.00000
    34.6965     8697.00000
    34.7097     7453.00000
    34.7228     6259.00000
    34.7359     5293.00000
    34.7491     4490.00000
    34.7622     4100.00000
    34.7753     3650.00000
    34.7884     3371.00000
    34.8016     3402.00000
    34.8147     3300.00000
    34.8278     3243.00000
    34.8410     3252.00000
    34.8541     3268.00000
    34.8672     3303.00000
    34.8804     3297.00000
    34.8935     3506.00000
    34.9066     3664.00000
    34.9197     3603.00000
    34.9329     3486.00000
    34.9460     3527.00000
    34.9591     3421.00000
    34.9723     3301.00000
    34.9854     3314.00000
    34.9985     3326.00000
    35.0117     3345.00000
    35.0248     3234.00000
    35.0379     3208.00000
    35.0510     3235.00000
    35.0642     3138.00000
    35.0773     3073.00000
    35.0904     2986.00000
    35.1036     3027.00000
    35.1167     3052.00000
    35.1298     3010.00000
    35.1430     2869.00000
    35.1561     2966.00000
    35.1692     2961.00000
    35.1824     2956.00000
    35.1955     2993.00000
    35.2086     2949.00000
    35.2217     2964.00000
    35.2349     2999.00000
    35.2480     2964.00000
    35.2611     2860.00000
    35.2743     2954.00000
    35.2874     2963.00000
    35.3005     2915.00000
    35.3137     2956.00000
    35.3268     2932.00000
    35.3399     2859.00000
    35.3530     2962.00000
    35.3662     2933.00000
    35.3793     2930.00000
    35.3924     2986.00000
    35.4056     2956.00000
    35.4187     2938.00000
    35.4318     3001.00000
    35.4450     3016.00000
    35.4581     2938.00000
    35.4712     2926.00000
    35.4843     2951.00000
    35.4975     2832.00000
    35.5106     2914.00000
    35.5237     2907.00000
    35.5369     2972.00000
    35.5500     2991.00000
    35.5631     3015.00000
    35.5763     2879.00000
    35.5894     3018.00000
    35.6025     2974.00000
    35.6156     3001.00000
    35.6288     2977.00000
    35.6419     2872.00000
    35.6550     2865.00000
    35.6682     2959.00000
    35.6813     2839.00000
    35.6944     2941.00000
    35.7076     3020.00000
    35.7207     2852.00000
    35.7338     2957.00000
    35.7470     2892.00000
    35.7601     2889.00000
    35.7732     2989.00000
    35.7863     2860.00000
    35.7995     2842.00000
    35.8126     2852.00000
    35.8257     3038.00000
    35.8389     2912.00000
    35.8520     2990.00000
    35.8651     2930.00000
    35.8783     3030.00000
    35.8914     3037.00000
    35.9045     2999.00000
    35.9176     3019.00000
    35.9308     2857.00000
    35.9439     2920.00000
    35.9570     2900.00000
    35.9702     2958.00000
    35.9833     2966.00000
    35.9964     2937.00000
    36.0096     2946.00000
    36.0227     2926.00000
    36.0358     2848.00000
    36.0489     3012.00000
    36.0621     3007.00000
    36.0752     2957.00000
    36.0883     2949.00000
    36.1015     2967.00000
    36.1146     2962.00000
    36.1277     2984.00000
    36.1409     2950.00000
    36.1540     2915.00000
    36.1671     2950.00000
    36.1802     2968.00000
    36.1934     2867.00000
    36.2065     2886.00000
    36.2196     2884.00000
    36.2328     2927.00000
    36.2459     2921.00000
    36.2590     2937.00000
    36.2722     2919.00000
    36.2853     2968.00000
    36.2984     2938.00000
    36.3116     2880.00000
    36.3247     2837.00000
    36.3378     2910.00000
    36.3509     2923.00000
    36.3641     2932.00000
    36.3772     2882.00000
    36.3903     3046.00000
    36.4035     2969.00000
    36.4166     2896.00000
    36.4297     2996.00000
    36.4429     2934.00000
    36.4560     3002.00000
    36.4691     3054.00000
    36.4822     3023.00000
    36.4954     2980.00000
    36.5085     3070.00000
    36.5216     3100.00000
    36.5348     3139.00000
    36.5479     3138.00000
    36.5610     3210.00000
    36.5742     3275.00000
    36.5873     3497.00000
    36.6004     3752.00000
    36.6135     4321.00000
    36.6267     5014.00000
    36.6398     6413.00000
    36.6529     8102.00000
    36.6661     9133.00000
    36.6792     9661.00000
    36.6923     8835.00000
    36.7055     7162.00000
    36.7186     6153.00000
    36.7317     5669.00000
    36.7449     5987.00000
    36.7580     6213.00000
    36.7711     6560.00000
    36.7842     5972.00000
    36.7974     5200.00000
    36.8105     4361.00000
    36.8236     3809.00000
    36.8368     3525.00000
    36.8499     3332.00000
    36.8630     3232.00000
    36.8762     3163.00000
    36.8893     3134.00000
    36.9024     3048.00000
    36.9155     2981.00000
    36.9287     3234.00000
    36.9418     2926.00000
    36.9549     2986.00000
    36.9681     2993.00000
    36.9812     2957.00000
    36.9943     2968.00000
    37.0075     3035.00000
    37.0206     2984.00000
    37.0337     2991.00000
    37.0468     3089.00000
    37.0600     3040.00000
    37.0731     3188.00000
    37.0862     3102.00000
    37.0994     3096.00000
    37.1125     2986.00000
    37.1256     3099.00000
    37.1388     3142.00000
    37.1519     3221.00000
    37.1650     3193.00000
    37.1782     3362.00000
    37.1913     3572.00000
    37.2044     3807.00000
    37.2175     4178.00000
    37.2307     5132.00000
    37.2438     6347.00000
    37.2569     7605.00000
    37.2701     8972.00000
    37.2832     9625.00000
    37.2963     9858.00000
    37.3095     9614.00000
    37.3226     8464.00000
    37.3357     7787.00000
    37.3488     7242.00000
    37.3620     6924.00000
    37.3751     6807.00000
    37.3882     6536.00000
    37.4014     6434.00000
    37.4145     5761.00000
    37.4276     5073.00000
    37.4408     4468.00000
    37.4539     3734.00000
    37.4670     3470.00000
    37.4801     3272.00000
    37.4933     3102.00000
    37.5064     3069.00000
    37.5195     3029.00000
    37.5327     3079.00000
    37.5458     3229.00000
    37.5589     3419.00000
    37.5721     3541.00000
    37.5852     3451.00000
    37.5983     3619.00000
    37.6115     3457.00000
    37.6246     3480.00000
    37.6377     3275.00000
    37.6508     3297.00000
    37.6640     3361.00000
    37.6771     3470.00000
    37.6902     3200.00000
    37.7034     3192.00000
    37.7165     3080.00000
    37.7296     3041.00000
    37.7428     2921.00000
    37.7559     3004.00000
    37.7690     2922.00000
    37.7821     2982.00000
    37.7953     2958.00000
    37.8084     2905.00000
    37.8215     2782.00000
    37.8347     2859.00000
    37.8478     2847.00000
    37.8609     2928.00000
    37.8741     2716.00000
    37.8872     2760.00000
    37.9003     2861.00000
    37.9134     2665.00000
    37.9266     2859.00000
    37.9397     2718.00000
    37.9528     2711.00000
    37.9660     2778.00000
    37.9791     2809.00000
    37.9922     2779.00000
    38.0054     2734.00000
    38.0185     2780.00000
    38.0316     2848.00000
    38.0448     2780.00000
    38.0579     2724.00000
    38.0710     2866.00000
    38.0841     2792.00000
    38.0973     2801.00000
    38.1104     2820.00000
    38.1235     2712.00000
    38.1367     2772.00000
    38.1498     2823.00000
    38.1629     2817.00000
    38.1761     2771.00000
    38.1892     2780.00000
    38.2023     2856.00000
    38.2154     2739.00000
    38.2286     2893.00000
    38.2417     2793.00000
    38.2548     2767.00000
    38.2680     2767.00000
    38.2811     2749.00000
    38.2942     2842.00000
    38.3074     2780.00000
    38.3205     2662.00000
    38.3336     2690.00000
    38.3467     2651.00000
    38.3599     2842.00000
    38.3730     2735.00000
    38.3861     2649.00000
    38.3993     2797.00000
    38.4124     2871.00000
    38.4255     2786.00000
    38.4387     2672.00000
    38.4518     2778.00000
    38.4649     2772.00000
    38.4781     2772.00000
    38.4912     2758.00000
    38.5043     2688.00000
    38.5174     2806.00000
    38.5306     2767.00000
    38.5437     2856.00000
    38.5568     2864.00000
    38.5700     2763.00000
    38.5831     2695.00000
    38.5962     2797.00000
    38.6094     2803.00000
    38.6225     2770.00000
    38.6356     2735.00000
    38.6487     2861.00000
    38.6619     2833.00000
    38.6750     2808.00000
    38.6881     2710.00000
    38.7013     2818.00000
    38.7144     2815.00000
    38.7275     2779.00000
    38.7407     2803.00000
    38.7538     2774.00000
    38.7669     2822.00000
    38.7800     2713.00000
    38.7932     2711.00000
    38.8063     2789.00000
    38.8194     2757.00000
    38.8326     2714.00000
    38.8457     2749.00000
    38.8588     2804.00000
    38.8720     2694.00000
    38.8851     2795.00000
    38.8982     2746.00000
    38.9114     2912.00000
    38.9245     2731.00000
    38.9376     2700.00000
    38.9507     2740.00000
    38.9639     2718.00000
    38.9770     2790.00000
    38.9901     2711.00000
    39.0033     2638.00000
    39.0164     2660.00000
    39.0295     2759.00000
    39.0427     2623.00000
    39.0558     2701.00000
    39.0689     2825.00000
    39.0820     2711.00000
    39.0952     2752.00000
    39.1083     2701.00000
    39.1214     2708.00000
    39.1346     2710.00000
    39.1477     2733.00000
    39.1608     2744.00000
    39.1740     2728.00000
    39.1871     2660.00000
    39.2002     2802.00000
    39.2133     2757.00000
    39.2265     2723.00000
    39.2396     2731.00000
    39.2527     2754.00000
    39.2659     2628.00000
    39.2790     2791.00000
    39.2921     2659.00000
    39.3053     2797.00000
    39.3184     2678.00000
    39.3315     2737.00000
    39.3446     2691.00000
    39.3578     2713.00000
    39.3709     2805.00000
    39.3840     2695.00000
    39.3972     2729.00000
    39.4103     2794.00000
    39.4234     2809.00000
    39.4366     2753.00000
    39.4497     2817.00000
    39.4628     2758.00000
    39.4760     2691.00000
    39.4891     2804.00000
    39.5022     2771.00000
    39.5153     2873.00000
    39.5285     2950.00000
    39.5416     3011.00000
    39.5547     3109.00000
    39.5679     3241.00000
    39.5810     3701.00000
    39.5941     4047.00000
    39.6073     4419.00000
    39.6204     4702.00000
    39.6335     4684.00000
    39.6466     4871.00000
    39.6598     4764.00000
    39.6729     4409.00000
    39.6860     4064.00000
    39.6992     3895.00000
    39.7123     3986.00000
    39.7254     4009.00000
    39.7386     4011.00000
    39.7517     3978.00000
    39.7648     3623.00000
    39.7779     3543.00000
    39.7911     3427.00000
    39.8042     3381.00000
    39.8173     3334.00000
    39.8305     3383.00000
    39.8436     3360.00000
    39.8567     3659.00000
    39.8699     3982.00000
    39.8830     4782.00000
    39.8961     5733.00000
    39.9092     6958.00000
    39.9224     7792.00000
    39.9355     7847.00000
    39.9486     7211.00000
    39.9618     6170.00000
    39.9749     5666.00000
    39.9880     5289.00000
    40.0012     5126.00000
    40.0143     5583.00000
    40.0274     5621.00000
    40.0406     5538.00000
    40.0537     5022.00000
    40.0668     4515.00000
    40.0799     4070.00000
    40.0931     3676.00000
    40.1062     3597.00000
    40.1193     3399.00000
    40.1325     3292.00000
    40.1456     3177.00000
    40.1587     3194.00000
    40.1719     3265.00000
    40.1850     3228.00000
    40.1981     3290.00000
    40.2112     3298.00000
    40.2244     3527.00000
    40.2375     3831.00000
    40.2506     4306.00000
    40.2638     5216.00000
    40.2769     6534.00000
    40.2900     8431.00000
    40.3032     9891.00000
    40.3163    10068.00000
    40.3294     9207.00000
    40.3425     7885.00000
    40.3557     6540.00000
    40.3688     5926.00000
    40.3819     5904.00000
    40.3951     6205.00000
    40.4082     6628.00000
    40.4213     6640.00000
    40.4345     6097.00000
    40.4476     5241.00000
    40.4607     4499.00000
    40.4739     3980.00000
    40.4870     3629.00000
    40.5001     3385.00000
    40.5132     3236.00000
    40.5264     3083.00000
    40.5395     3096.00000
    40.5526     3079.00000
    40.5658     3069.00000
    40.5789     2978.00000
    40.5920     2995.00000
    40.6052     3074.00000
    40.6183     2926.00000
    40.6314     2960.00000
    40.6445     2926.00000
    40.6577     2915.00000
    40.6708     3084.00000
    40.6839     3058.00000
    40.6971     3092.00000
    40.7102     3154.00000
    40.7233     3237.00000
    40.7365     3198.00000
    40.7496     3376.00000
    40.7627     3402.00000
    40.7758     3582.00000
    40.7890     3811.00000
    40.8021     4156.00000
    40.8152     4866.00000
    40.8284     5618.00000
    40.8415     6895.00000
    40.8546     8188.00000
    40.8678     9939.00000
    40.8809    11207.00000
    40.8940    11189.00000
    40.9072    10496.00000
    40.9203     9270.00000
    40.9334     7990.00000
    40.9465     7240.00000
    40.9597     7538.00000
    40.9728     8041.00000
    40.9859     8628.00000
    40.9991     9421.00000
    41.0122     9980.00000
    41.0253    11285.00000
    41.0385    12651.00000
    41.0516    13396.00000
    41.0647    13242.00000
    41.0778    12393.00000
    41.0910    11102.00000
    41.1041     9752.00000
    41.1172    10077.00000
    41.1304    10951.00000
    41.1435    13375.00000
    41.1566    15329.00000
    41.1698    16774.00000
    41.1829    16117.00000
    41.1960    13749.00000
    41.2091    11098.00000
    41.2223     8808.00000
    41.2354     7614.00000
    41.2485     7494.00000
    41.2617     7635.00000
    41.2748     7940.00000
    41.2879     7703.00000
    41.3011     7057.00000
    41.3142     5900.00000
    41.3273     5001.00000
    41.3405     4132.00000
    41.3536     3698.00000
    41.3667     3405.00000
    41.3798     3210.00000
    41.3930     3200.00000
    41.4061     3074.00000
    41.4192     2968.00000
    41.4324     2939.00000
    41.4455     2943.00000
    41.4586     2890.00000
    41.4718     2943.00000
    41.4849     2898.00000
    41.4980     2804.00000
    41.5111     2782.00000
    41.5243     2883.00000
    41.5374     2867.00000
    41.5505     2824.00000
    41.5637     2713.00000
    41.5768     2821.00000
    41.5899     2695.00000
    41.6031     2740.00000
    41.6162     2740.00000
    41.6293     2763.00000
    41.6424     2833.00000
    41.6556     2807.00000
    41.6687     2790.00000
    41.6818     2751.00000
    41.6950     2807.00000
    41.7081     2768.00000
    41.7212     2746.00000
    41.7344     2766.00000
    41.7475     2700.00000
    41.7606     2759.00000
    41.7738     2809.00000
    41.7869     2585.00000
    41.8000     2669.00000
    41.8131     2745.00000
    41.8263     2713.00000
    41.8394     2751.00000
    41.8525     2695.00000
    41.8657     2661.00000
    41.8788     2654.00000
    41.8919     2688.00000
    41.9051     2713.00000
    41.9182     2727.00000
    41.9313     2634.00000
    41.9444     2632.00000
    41.9576     2630.00000
    41.9707     2763.00000
    41.9838     2698.00000
    41.9970     2670.00000
    42.0101     2731.00000
    42.0232     2684.00000
    42.0364     2575.00000
    42.0495     2714.00000
    42.0626     2664.00000
    42.0757     2685.00000
    42.0889     2799.00000
    42.1020     2627.00000
    42.1151     2680.00000
    42.1283     2690.00000
    42.1414     2656.00000
    42.1545     2638.00000
    42.1677     2632.00000
    42.1808     2770.00000
    42.1939     2588.00000
    42.2071     2697.00000
    42.2202     2680.00000
    42.2333     2814.00000
    42.2464     2706.00000
    42.2596     2662.00000
    42.2727     2683.00000
    42.2858     2611.00000
    42.2990     2711.00000
    42.3121     2747.00000
    42.3252     2742.00000
    42.3384     2710.00000
    42.3515     2676.00000
    42.3646     2592.00000
    42.3777     2665.00000
    42.3909     2687.00000
    42.4040     2719.00000
    42.4171     2715.00000
    42.4303     2596.00000
    42.4434     2585.00000
    42.4565     2668.00000
    42.4697     2777.00000
    42.4828     2733.00000
    42.4959     2710.00000
    42.5090     2544.00000
    42.5222     2561.00000
    42.5353     2728.00000
    42.5484     2654.00000
    42.5616     2747.00000
    42.5747     2628.00000
    42.5878     2596.00000
    42.6010     2703.00000
    42.6141     2739.00000
    42.6272     2773.00000
    42.6404     2624.00000
    42.6535     2630.00000
    42.6666     2705.00000
    42.6797     2648.00000
    42.6929     2671.00000
    42.7060     2661.00000
    42.7191     2689.00000
    42.7323     2686.00000
    42.7454     2763.00000
    42.7585     2618.00000
    42.7717     2732.00000
    42.7848     2696.00000
    42.7979     2732.00000
    42.8110     2724.00000
    42.8242     2760.00000
    42.8373     2762.00000
    42.8504     2808.00000
    42.8636     2770.00000
    42.8767     2742.00000
    42.8898     2747.00000
    42.9030     2702.00000
    42.9161     2641.00000
    42.9292     2724.00000
    42.9423     2712.00000
    42.9555     2732.00000
    42.9686     2665.00000
    42.9817     2653.00000
    42.9949     2664.00000
    43.0080     2722.00000
    43.0211     2613.00000
    43.0343     2700.00000
    43.0474     2598.00000
    43.0605     2731.00000
    43.0736     2712.00000
    43.0868     2674.00000
    43.0999     2580.00000
    43.1130     2760.00000
    43.1262     2582.00000
    43.1393     2643.00000
    43.1524     2688.00000
    43.1656     2655.00000
    43.1787     2537.00000
    43.1918     2749.00000
    43.2050     2671.00000
    43.2181     2599.00000
    43.2312     2666.00000
    43.2443     2668.00000
    43.2575     2731.00000
    43.2706     2702.00000
    43.2837     2950.00000
    43.2969     3055.00000
    43.3100     3125.00000
    43.3231     3169.00000
    43.3363     3366.00000
    43.3494     3303.00000
    43.3625     3220.00000
    43.3756     3132.00000
    43.3888     3005.00000
    43.4019     2972.00000
    43.4150     3036.00000
    43.4282     2978.00000
    43.4413     3061.00000
    43.4544     3074.00000
    43.4676     2976.00000
    43.4807     3033.00000
    43.4938     2910.00000
    43.5069     2783.00000
    43.5201     2708.00000
    43.5332     2637.00000
    43.5463     2629.00000
    43.5595     2748.00000
    43.5726     2721.00000
    43.5857     2671.00000
    43.5989     2604.00000
    43.6120     2706.00000
    43.6251     2650.00000
    43.6383     2737.00000
    43.6514     2658.00000
    43.6645     2680.00000
    43.6776     2738.00000
    43.6908     2700.00000
    43.7039     2736.00000
    43.7170     2672.00000
    43.7302     2611.00000
    43.7433     2794.00000
    43.7564     2651.00000
    43.7696     2685.00000
    43.7827     2664.00000
    43.7958     2645.00000
    43.8089     2734.00000
    43.8221     2609.00000
    43.8352     2651.00000
    43.8483     2667.00000
    43.8615     2619.00000
    43.8746     2664.00000
    43.8877     2706.00000
    43.9009     2659.00000
    43.9140     2660.00000
    43.9271     2649.00000
    43.9402     2617.00000
    43.9534     2637.00000
    43.9665     2776.00000
    43.9796     2629.00000
    43.9928     2748.00000
    44.0059     2768.00000
    44.0190     2699.00000
    44.0322     2772.00000
    44.0453     2857.00000
    44.0584     2830.00000
    44.0715     3008.00000
    44.0847     3251.00000
    44.0978     3544.00000
    44.1109     3803.00000
    44.1241     4179.00000
    44.1372     4176.00000
    44.1503     4014.00000
    44.1635     3663.00000
    44.1766     3370.00000
    44.1897     3362.00000
    44.2029     3289.00000
    44.2160     3287.00000
    44.2291     3348.00000
    44.2422     3545.00000
    44.2554     3537.00000
    44.2685     3354.00000
    44.2816     3247.00000
    44.2948     3098.00000
    44.3079     2963.00000
    44.3210     3049.00000
    44.3342     3094.00000
    44.3473     3081.00000
    44.3604     3054.00000
    44.3735     3373.00000
    44.3867     3577.00000
    44.3998     3954.00000
    44.4129     4305.00000
    44.4261     4946.00000
    44.4392     5428.00000
    44.4523     5467.00000
    44.4655     5492.00000
    44.4786     5213.00000
    44.4917     4687.00000
    44.5048     4317.00000
    44.5180     4162.00000
    44.5311     4006.00000
    44.5442     4178.00000
    44.5574     4180.00000
    44.5705     4105.00000
    44.5836     4168.00000
    44.5968     3834.00000
    44.6099     3564.00000
    44.6230     3279.00000
    44.6362     3100.00000
    44.6493     2862.00000
    44.6624     2972.00000
    44.6755     2876.00000
    44.6887     2861.00000
    44.7018     2757.00000
    44.7149     2729.00000
    44.7281     2746.00000
    44.7412     2688.00000
    44.7543     2692.00000
    44.7675     2788.00000
    44.7806     2704.00000
    44.7937     2690.00000
    44.8068     2696.00000
    44.8200     2698.00000
    44.8331     2797.00000
    44.8462     2748.00000
    44.8594     2703.00000
    44.8725     2636.00000
    44.8856     2684.00000
    44.8988     2736.00000
    44.9119     2713.00000
    44.9250     2587.00000
    44.9381     2551.00000
    44.9513     2622.00000
    44.9644     2660.00000
    44.9775     2693.00000
    44.9907     2642.00000
    45.0038     2699.00000
    45.0169     2621.00000
    45.0301     2623.00000
    45.0432     2653.00000
    45.0563     2680.00000
    45.0695     2714.00000
    45.0826     2657.00000
    45.0957     2664.00000
    45.1088     2611.00000
    45.1220     2732.00000
    45.1351     2699.00000
    45.1482     2702.00000
    45.1614     2641.00000
    45.1745     2733.00000
    45.1876     2671.00000
    45.2008     2702.00000
    45.2139     2737.00000
    45.2270     2677.00000
    45.2401     2675.00000
    45.2533     2589.00000
    45.2664     2570.00000
    45.2795     2709.00000
    45.2927     2747.00000
    45.3058     2753.00000
    45.3189     2658.00000
    45.3321     2675.00000
    45.3452     2802.00000
    45.3583     2741.00000
    45.3714     2842.00000
    45.3846     2824.00000
    45.3977     2768.00000
    45.4108     2783.00000
    45.4240     2775.00000
    45.4371     2873.00000
    45.4502     2778.00000
    45.4634     2942.00000
    45.4765     2956.00000
    45.4896     3029.00000
    45.5028     3100.00000
    45.5159     3266.00000
    45.5290     3505.00000
    45.5421     3903.00000
    45.5553     4584.00000
    45.5684     5782.00000
    45.5815     7864.00000
    45.5947     9881.00000
    45.6078    11516.00000
    45.6209    10861.00000
    45.6341     9229.00000
    45.6472     7289.00000
    45.6603     5734.00000
    45.6734     5059.00000
    45.6866     5076.00000
    45.6997     5671.00000
    45.7128     6622.00000
    45.7260     7161.00000
    45.7391     6996.00000
    45.7522     6106.00000
    45.7654     5100.00000
    45.7785     4309.00000
    45.7916     3741.00000
    45.8047     3297.00000
    45.8179     3018.00000
    45.8310     2985.00000
    45.8441     2974.00000
    45.8573     2939.00000
    45.8704     2886.00000
    45.8835     2724.00000
    45.8967     2769.00000
    45.9098     2737.00000
    45.9229     2793.00000
    45.9361     2750.00000
    45.9492     2733.00000
    45.9623     2637.00000
    45.9754     2772.00000
    45.9886     2748.00000
    46.0017     2793.00000
    46.0148     2674.00000
    46.0280     2758.00000
    46.0411     2915.00000
    46.0542     2757.00000
    46.0674     2737.00000
    46.0805     2829.00000
    46.0936     2878.00000
    46.1067     2807.00000
    46.1199     2782.00000
    46.1330     2745.00000
    46.1461     2737.00000
    46.1593     2908.00000
    46.1724     2896.00000
    46.1855     2877.00000
    46.1987     2856.00000
    46.2118     2954.00000
    46.2249     3132.00000
    46.2380     3132.00000
    46.2512     3447.00000
    46.2643     3903.00000
    46.2774     4470.00000
    46.2906     5541.00000
    46.3037     6463.00000
    46.3168     7135.00000
    46.3300     7209.00000
    46.3431     6297.00000
    46.3562     5055.00000
    46.3694     4424.00000
    46.3825     4088.00000
    46.3956     3902.00000
    46.4087     4219.00000
    46.4219     4608.00000
    46.4350     4998.00000
    46.4481     4967.00000
    46.4613     4841.00000
    46.4744     4041.00000
    46.4875     3648.00000
    46.5007     3299.00000
    46.5138     3156.00000
    46.5269     2926.00000
    46.5400     2899.00000
    46.5532     2923.00000
    46.5663     2845.00000
    46.5794     2918.00000
    46.5926     2768.00000
    46.6057     2817.00000
    46.6188     2861.00000
    46.6320     2874.00000
    46.6451     2776.00000
    46.6582     2805.00000
    46.6713     2783.00000
    46.6845     2758.00000
    46.6976     2896.00000
    46.7107     2795.00000
    46.7239     2800.00000
    46.7370     2856.00000
    46.7501     2792.00000
    46.7633     2783.00000
    46.7764     2930.00000
    46.7895     2946.00000
    46.8027     2917.00000
    46.8158     2771.00000
    46.8289     2919.00000
    46.8420     2961.00000
    46.8552     2955.00000
    46.8683     3080.00000
    46.8814     3059.00000
    46.8946     3039.00000
    46.9077     3091.00000
    46.9208     3160.00000
    46.9340     3358.00000
    46.9471     3521.00000
    46.9602     3942.00000
    46.9733     4534.00000
    46.9865     5408.00000
    46.9996     6272.00000
    47.0127     7322.00000
    47.0259     8144.00000
    47.0390     8599.00000
    47.0521     8651.00000
    47.0653     8120.00000
    47.0784     7023.00000
    47.0915     5788.00000
    47.1046     5405.00000
    47.1178     5319.00000
    47.1309     5481.00000
    47.1440     5649.00000
    47.1572     5946.00000
    47.1703     5911.00000
    47.1834     5836.00000
    47.1966     5148.00000
    47.2097     4430.00000
    47.2228     3888.00000
    47.2359     3448.00000
    47.2491     3279.00000
    47.2622     3124.00000
    47.2753     3119.00000
    47.2885     2958.00000
    47.3016     3009.00000
    47.3147     3057.00000
    47.3279     3113.00000
    47.3410     2971.00000
    47.3541     3092.00000
    47.3673     3164.00000
    47.3804     3128.00000
    47.3935     3099.00000
    47.4066     3076.00000
    47.4198     3182.00000
    47.4329     3299.00000
    47.4460     3178.00000
    47.4592     3257.00000
    47.4723     3469.00000
    47.4854     3359.00000
    47.4986     3341.00000
    47.5117     3554.00000
    47.5248     3560.00000
    47.5379     3574.00000
    47.5511     3735.00000
    47.5642     3874.00000
    47.5773     3892.00000
    47.5905     4306.00000
    47.6036     4777.00000
    47.6167     5372.00000
    47.6299     6081.00000
    47.6430     7539.00000
    47.6561     9291.00000
    47.6692    12078.00000
    47.6824    15299.00000
    47.6955    18252.00000
    47.7086    20135.00000
    47.7218    19750.00000
    47.7349    17614.00000
    47.7480    15009.00000
    47.7612    12472.00000
    47.7743    10615.00000
    47.7874    10098.00000
    47.8005    10436.00000
    47.8137    11345.00000
    47.8268    12234.00000
    47.8399    12295.00000
    47.8531    11329.00000
    47.8662     9810.00000
    47.8793     8226.00000
    47.8925     6831.00000
    47.9056     5695.00000
    47.9187     4876.00000
    47.9319     4413.00000
    47.9450     4034.00000
    47.9581     3828.00000
    47.9712     3693.00000
    47.9844     3321.00000
    47.9975     3372.00000
    48.0106     3325.00000
    48.0238     3219.00000
    48.0369     3239.00000
    48.0500     3146.00000
    48.0632     3180.00000
    48.0763     3218.00000
    48.0894     3193.00000
    48.1025     3298.00000
    48.1157     3291.00000
    48.1288     3296.00000
    48.1419     3381.00000
    48.1551     3345.00000
    48.1682     3358.00000
    48.1813     3387.00000
    48.1945     3382.00000
    48.2076     3416.00000
    48.2207     3810.00000
    48.2338     4095.00000
    48.2470     4724.00000
    48.2601     5576.00000
    48.2732     7262.00000
    48.2864     9082.00000
    48.2995    11383.00000
    48.3126    12478.00000
    48.3258    12741.00000
    48.3389    13042.00000
    48.3520    13195.00000
    48.3652    13444.00000
    48.3783    12736.00000
    48.3914    11618.00000
    48.4045    10858.00000
    48.4177    10523.00000
    48.4308     9893.00000
    48.4439     9059.00000
    48.4571     8768.00000
    48.4702     8524.00000
    48.4833     8571.00000
    48.4965     8250.00000
    48.5096     7699.00000
    48.5227     6822.00000
    48.5358     6116.00000
    48.5490     5409.00000
    48.5621     4485.00000
    48.5752     4234.00000
    48.5884     4048.00000
    48.6015     4234.00000
    48.6146     4472.00000
    48.6278     4946.00000
    48.6409     5651.00000
    48.6540     6868.00000
    48.6671     8912.00000
    48.6803    11248.00000
    48.6934    12972.00000
    48.7065    13058.00000
    48.7197    12073.00000
    48.7328    10001.00000
    48.7459     8092.00000
    48.7591     6745.00000
    48.7722     6152.00000
    48.7853     6365.00000
    48.7985     6749.00000
    48.8116     7634.00000
    48.8247     8226.00000
    48.8378     8273.00000
    48.8510     7275.00000
    48.8641     6200.00000
    48.8772     5269.00000
    48.8904     4603.00000
    48.9035     3972.00000
    48.9166     3651.00000
    48.9298     3407.00000
    48.9429     3229.00000
    48.9560     3253.00000
    48.9691     3080.00000
    48.9823     3056.00000
    48.9954     2989.00000
    49.0085     2887.00000
    49.0217     3054.00000
    49.0348     2993.00000
    49.0479     2876.00000
    49.0611     2946.00000
    49.0742     2942.00000
    49.0873     2970.00000
    49.1004     2882.00000
    49.1136     2879.00000
    49.1267     2793.00000
    49.1398     2957.00000
    49.1530     2844.00000
    49.1661     2866.00000
    49.1792     2755.00000
    49.1924     2980.00000
    49.2055     2883.00000
    49.2186     2829.00000
    49.2318     2846.00000
    49.2449     2859.00000
    49.2580     2909.00000
    49.2711     2899.00000
    49.2843     2824.00000
    49.2974     3065.00000
    49.3105     3095.00000
    49.3237     3068.00000
    49.3368     3344.00000
    49.3499     3432.00000
    49.3631     3522.00000
    49.3762     3659.00000
    49.3893     3478.00000
    49.4024     3425.00000
    49.4156     3251.00000
    49.4287     3148.00000
    49.4418     3140.00000
    49.4550     3166.00000
    49.4681     3095.00000
    49.4812     3236.00000
    49.4944     3324.00000
    49.5075     3304.00000
    49.5206     3338.00000
    49.5337     3384.00000
    49.5469     3427.00000
    49.5600     3532.00000
    49.5731     3547.00000
    49.5863     3380.00000
    49.5994     3465.00000
    49.6125     3490.00000
    49.6257     3411.00000
    49.6388     3453.00000
    49.6519     3440.00000
    49.6651     3400.00000
    49.6782     3431.00000
    49.6913     3557.00000
    49.7044     3627.00000
    49.7176     3607.00000
    49.7307     3494.00000
    49.7438     3754.00000
    49.7570     3701.00000
    49.7701     3764.00000
    49.7832     3681.00000
    49.7964     3871.00000
    49.8095     4332.00000
    49.8226     4779.00000
    49.8357     5635.00000
    49.8489     6759.00000
    49.8620     8988.00000
    49.8751    11514.00000
    49.8883    14568.00000
    49.9014    17509.00000
    49.9145    18779.00000
    49.9277    18385.00000
    49.9408    16462.00000
    49.9539    13762.00000
    49.9670    11551.00000
    49.9802    10354.00000
    49.9933     9984.00000
    50.0064    10355.00000
    50.0196    10977.00000
    50.0327    11899.00000
    50.0458    11993.00000
    50.0590    11550.00000
    50.0721    10520.00000
    50.0852     8863.00000
    50.0984     7592.00000
    50.1115     6440.00000
    50.1246     5645.00000
    50.1377     5091.00000
    50.1509     4762.00000
    50.1640     4448.00000
    50.1771     4130.00000
    50.1903     3806.00000
    50.2034     3696.00000
    50.2165     3653.00000
    50.2297     3555.00000
    50.2428     3587.00000
    50.2559     3650.00000
    50.2690     3692.00000
    50.2822     3841.00000
    50.2953     4094.00000
    50.3084     4375.00000
    50.3216     4890.00000
    50.3347     5732.00000
    50.3478     6691.00000
    50.3610     7646.00000
    50.3741     9065.00000
    50.3872    10296.00000
    50.4003    11213.00000
    50.4135    11278.00000
    50.4266    10250.00000
    50.4397     8944.00000
    50.4529     7595.00000
    50.4660     6889.00000
    50.4791     6381.00000
    50.4923     6284.00000
    50.5054     6680.00000
    50.5185     7115.00000
    50.5317     7371.00000
    50.5448     7427.00000
    50.5579     6743.00000
    50.5710     6058.00000
    50.5842     5197.00000
    50.5973     4552.00000
    50.6104     4062.00000
    50.6236     3716.00000
    50.6367     3530.00000
    50.6498     3407.00000
    50.6630     3296.00000
    50.6761     3166.00000
    50.6892     3140.00000
    50.7023     3063.00000
    50.7155     2908.00000
    50.7286     3029.00000
    50.7417     2984.00000
    50.7549     2967.00000
    50.7680     2975.00000
    50.7811     2917.00000
    50.7943     2865.00000
    50.8074     2893.00000
    50.8205     2886.00000
    50.8336     2939.00000
    50.8468     2808.00000
    50.8599     2854.00000
    50.8730     2878.00000
    50.8862     2858.00000
    50.8993     2862.00000
    50.9124     2764.00000
    50.9256     2868.00000
    50.9387     2841.00000
    50.9518     2801.00000
    50.9649     2775.00000
    50.9781     2773.00000
    50.9912     2840.00000
    51.0043     2824.00000
    51.0175     2919.00000
    51.0306     2953.00000
    51.0437     2896.00000
    51.0569     2996.00000
    51.0700     2845.00000
    51.0831     2916.00000
    51.0963     2980.00000
    51.1094     3004.00000
    51.1225     3030.00000
    51.1356     3113.00000
    51.1488     3110.00000
    51.1619     3029.00000
    51.1750     3260.00000
    51.1882     3395.00000
    51.2013     3487.00000
    51.2144     3973.00000
    51.2276     4747.00000
    51.2407     5641.00000
    51.2538     6963.00000
    51.2669     8257.00000
    51.2801     8807.00000
    51.2932     8426.00000
    51.3063     7695.00000
    51.3195     6471.00000
    51.3326     5387.00000
    51.3457     4782.00000
    51.3589     4703.00000
    51.3720     4718.00000
    51.3851     5124.00000
    51.3982     5547.00000
    51.4114     6002.00000
    51.4245     5882.00000
    51.4376     5541.00000
    51.4508     5085.00000
    51.4639     4447.00000
    51.4770     4189.00000
    51.4902     3999.00000
    51.5033     3923.00000
    51.5164     3788.00000
    51.5296     3688.00000
    51.5427     3583.00000
    51.5558     3317.00000
    51.5689     3201.00000
    51.5821     3085.00000
    51.5952     2974.00000
    51.6083     2929.00000
    51.6215     3047.00000
    51.6346     3060.00000
    51.6477     3062.00000
    51.6609     3107.00000
    51.6740     3135.00000
    51.6871     2978.00000
    51.7002     3067.00000
    51.7134     2872.00000
    51.7265     2894.00000
    51.7396     2907.00000
    51.7528     2845.00000
    51.7659     2921.00000
    51.7790     2922.00000
    51.7922     2738.00000
    51.8053     2788.00000
    51.8184     2837.00000
    51.8315     2785.00000
    51.8447     2863.00000
    51.8578     2779.00000
    51.8709     2754.00000
    51.8841     2856.00000
    51.8972     2812.00000
    51.9103     2740.00000
    51.9235     2832.00000
    51.9366     2758.00000
    51.9497     2704.00000
    51.9628     2804.00000
    51.9760     2830.00000
    51.9891     2811.00000
    52.0022     2689.00000
    52.0154     2855.00000
    52.0285     2774.00000
    52.0416     2836.00000
    52.0548     2668.00000
    52.0679     2767.00000
    52.0810     2694.00000
    52.0942     2803.00000
    52.1073     2738.00000
    52.1204     2832.00000
    52.1335     2694.00000
    52.1467     2884.00000
    52.1598     2823.00000
    52.1729     2940.00000
    52.1861     2895.00000
    52.1992     2847.00000
    52.2123     2873.00000
    52.2255     2913.00000
    52.2386     2919.00000
    52.2517     2975.00000
    52.2648     2932.00000
    52.2780     2908.00000
    52.2911     3121.00000
    52.3042     3012.00000
    52.3174     3116.00000
    52.3305     3080.00000
    52.3436     3154.00000
    52.3568     3257.00000
    52.3699     3438.00000
    52.3830     3686.00000
    52.3961     3957.00000
    52.4093     4685.00000
    52.4224     5311.00000
    52.4355     6541.00000
    52.4487     7711.00000
    52.4618     8854.00000
    52.4749     9978.00000
    52.4881    10463.00000
    52.5012    10424.00000
    52.5143    10277.00000
    52.5275     8991.00000
    52.5406     7806.00000
    52.5537     7060.00000
    52.5668     6167.00000
    52.5800     5935.00000
    52.5931     6084.00000
    52.6062     6472.00000
    52.6194     6793.00000
    52.6325     6830.00000
    52.6456     6778.00000
    52.6588     6372.00000
    52.6719     5738.00000
    52.6850     5222.00000
    52.6981     4525.00000
    52.7113     3992.00000
    52.7244     3685.00000
    52.7375     3667.00000
    52.7507     3511.00000
    52.7638     3703.00000
    52.7769     3882.00000
    52.7901     4277.00000
    52.8032     4683.00000
    52.8163     5115.00000
    52.8294     5452.00000
    52.8426     5801.00000
    52.8557     6224.00000
    52.8688     6410.00000
    52.8820     6498.00000
    52.8951     6419.00000
    52.9082     5798.00000
    52.9214     5325.00000
    52.9345     4980.00000
    52.9476     4700.00000
    52.9608     4627.00000
    52.9739     4397.00000
    52.9870     4440.00000
    53.0001     4602.00000
    53.0133     4626.00000
    53.0264     4415.00000
    53.0395     4416.00000
    53.0527     4177.00000
    53.0658     3759.00000
    53.0789     3624.00000
    53.0921     3356.00000
    53.1052     3075.00000
    53.1183     3018.00000
    53.1314     2916.00000
    53.1446     2927.00000
    53.1577     2847.00000
    53.1708     2697.00000
    53.1840     2798.00000
    53.1971     2729.00000
    53.2102     2776.00000
    53.2234     2844.00000
    53.2365     2756.00000
    53.2496     2783.00000
    53.2627     2738.00000
    53.2759     2867.00000
    53.2890     2767.00000
    53.3021     2752.00000
    53.3153     2819.00000
    53.3284     2842.00000
    53.3415     2788.00000
    53.3547     2709.00000
    53.3678     2696.00000
    53.3809     2839.00000
    53.3941     2817.00000
    53.4072     2931.00000
    53.4203     2941.00000
    53.4334     2995.00000
    53.4466     3202.00000
    53.4597     3278.00000
    53.4728     3618.00000
    53.4860     3794.00000
    53.4991     4100.00000
    53.5122     4332.00000
    53.5254     4296.00000
    53.5385     4099.00000
    53.5516     3790.00000
    53.5647     3545.00000
    53.5779     3360.00000
    53.5910     3334.00000
    53.6041     3118.00000
    53.6173     3248.00000
    53.6304     3330.00000
    53.6435     3410.00000
    53.6567     3623.00000
    53.6698     3516.00000
    53.6829     3390.00000
    53.6960     3205.00000
    53.7092     3000.00000
    53.7223     2960.00000
    53.7354     2990.00000
    53.7486     2855.00000
    53.7617     2903.00000
    53.7748     2810.00000
    53.7880     2768.00000
    53.8011     2695.00000
    53.8142     2714.00000
    53.8274     2700.00000
    53.8405     2786.00000
    53.8536     2707.00000
    53.8667     2788.00000
    53.8799     2689.00000
    53.8930     2718.00000
    53.9061     2768.00000
    53.9193     2680.00000
    53.9324     2752.00000
    53.9455     2721.00000
    53.9587     2748.00000
    53.9718     2791.00000
    53.9849     2590.00000
    53.9980     2705.00000
    54.0112     2747.00000
    54.0243     2737.00000
    54.0374     2727.00000
    54.0506     2688.00000
    54.0637     2660.00000
    54.0768     2687.00000
    54.0900     2675.00000
    54.1031     2727.00000
    54.1162     2778.00000
    54.1293     2718.00000
    54.1425     2650.00000
    54.1556     2771.00000
    54.1687     2851.00000
    54.1819     2890.00000
    54.1950     2857.00000
    54.2081     2989.00000
    54.2213     3072.00000
    54.2344     3019.00000
    54.2475     3015.00000
    54.2607     3148.00000
    54.2738     3107.00000
    54.2869     3100.00000
    54.3000     3060.00000
    54.3132     2951.00000
    54.3263     3117.00000
    54.3394     2971.00000
    54.3526     2917.00000
    54.3657     2951.00000
    54.3788     2948.00000
    54.3920     2929.00000
    54.4051     2885.00000
    54.4182     2959.00000
    54.4313     2880.00000
    54.4445     2873.00000
    54.4576     2721.00000
    54.4707     2768.00000
    54.4839     2810.00000
    54.4970     2735.00000
    54.5101     2746.00000
    54.5233     2759.00000
    54.5364     2747.00000
    54.5495     2624.00000
    54.5626     2746.00000
    54.5758     2568.00000
    54.5889     2695.00000
    54.6020     2711.00000
    54.6152     2913.00000
    54.6283     2680.00000
    54.6414     2679.00000
    54.6546     2789.00000
    54.6677     2735.00000
    54.6808     2772.00000
    54.6940     2713.00000
    54.7071     2673.00000
    54.7202     2736.00000
    54.7333     2763.00000
    54.7465     2813.00000
    54.7596     2706.00000
    54.7727     2727.00000
    54.7859     2688.00000
    54.7990     2693.00000
    54.8121     2733.00000
    54.8253     2811.00000
    54.8384     2734.00000
    54.8515     2741.00000
    54.8646     2688.00000
    54.8778     2615.00000
    54.8909     2792.00000
    54.9040     2773.00000
    54.9172     2833.00000
    54.9303     2803.00000
    54.9434     2776.00000
    54.9566     2698.00000
    54.9697     2877.00000
    54.9828     2781.00000
    54.9959     2758.00000
    55.0091     2873.00000
    55.0222     2776.00000
    55.0353     2905.00000
    55.0485     2850.00000
    55.0616     2878.00000
    55.0747     2898.00000
    55.0879     2985.00000
    55.1010     2920.00000
    55.1141     2972.00000
    55.1272     3023.00000
    55.1404     3067.00000
    55.1535     3117.00000
    55.1666     3163.00000
    55.1798     3287.00000
    55.1929     3509.00000
    55.2060     3687.00000
    55.2192     4195.00000
    55.2323     4557.00000
    55.2454     5179.00000
    55.2586     6145.00000
    55.2717     7698.00000
    55.2848     9152.00000
    55.2979    10843.00000
    55.3111    11394.00000
    55.3242    10843.00000
    55.3373     9671.00000
    55.3505     8243.00000
    55.3636     7006.00000
    55.3767     6019.00000
    55.3899     5771.00000
    55.4030     5641.00000
    55.4161     5826.00000
    55.4292     6543.00000
    55.4424     7334.00000
    55.4555     7340.00000
    55.4686     7409.00000
    55.4818     6775.00000
    55.4949     6135.00000
    55.5080     5129.00000
    55.5212     4577.00000
    55.5343     4121.00000
    55.5474     3756.00000
    55.5605     3654.00000
    55.5737     3603.00000
    55.5868     3643.00000
    55.5999     3598.00000
    55.6131     3569.00000
    55.6262     3672.00000
    55.6393     3491.00000
    55.6525     3400.00000
    55.6656     3250.00000
    55.6787     3233.00000
    55.6918     3045.00000
    55.7050     2939.00000
    55.7181     3009.00000
    55.7312     3093.00000
    55.7444     3014.00000
    55.7575     2990.00000
    55.7706     3094.00000
    55.7838     3057.00000
    55.7969     2988.00000
    55.8100     2984.00000
    55.8232     2851.00000
    55.8363     2893.00000
    55.8494     2832.00000
    55.8625     2861.00000
    55.8757     2827.00000
    55.8888     2898.00000
    55.9019     2878.00000
    55.9151     2882.00000
    55.9282     2895.00000
    55.9413     3022.00000
    55.9545     2960.00000
    55.9676     2949.00000
    55.9807     3003.00000
    55.9938     2966.00000
    56.0070     3012.00000
    56.0201     3052.00000
    56.0332     3013.00000
    56.0464     3115.00000
    56.0595     3130.00000
    56.0726     3268.00000
    56.0858     3194.00000
    56.0989     3377.00000
    56.1120     3454.00000
    56.1251     3645.00000
    56.1383     4081.00000
    56.1514     4555.00000
    56.1645     5269.00000
    56.1777     6050.00000
    56.1908     6999.00000
    56.2039     7512.00000
    56.2171     8359.00000
    56.2302     9055.00000
    56.2433    10328.00000
    56.2565    11412.00000
    56.2696    12362.00000
    56.2827    13062.00000
    56.2958    12895.00000
    56.3090    12141.00000
    56.3221    10708.00000
    56.3352     9548.00000
    56.3484     8091.00000
    56.3615     7563.00000
    56.3746     7273.00000
    56.3878     7161.00000
    56.4009     7587.00000
    56.4140     7862.00000
    56.4271     8150.00000
    56.4403     8079.00000
    56.4534     7589.00000
    56.4665     6980.00000
    56.4797     6192.00000
    56.4928     5169.00000
    56.5059     4512.00000
    56.5191     3898.00000
    56.5322     3632.00000
    56.5453     3433.00000
    56.5584     3253.00000
    56.5716     3289.00000
    56.5847     3145.00000
    56.5978     3023.00000
    56.6110     3166.00000
    56.6241     3115.00000
    56.6372     3087.00000
    56.6504     3026.00000
    56.6635     3111.00000
    56.6766     3041.00000
    56.6898     3087.00000
    56.7029     3070.00000
    56.7160     3066.00000
    56.7291     3062.00000
    56.7423     3117.00000
    56.7554     3088.00000
    56.7685     3162.00000
    56.7817     3265.00000
    56.7948     3115.00000
    56.8079     3166.00000
    56.8211     3271.00000
    56.8342     3444.00000
    56.8473     3429.00000
    56.8604     3733.00000
    56.8736     4113.00000
    56.8867     4310.00000
    56.8998     4795.00000
    56.9130     5578.00000
    56.9261     6316.00000
    56.9392     7012.00000
    56.9524     7750.00000
    56.9655     8378.00000
    56.9786     8971.00000
    56.9917     9426.00000
    57.0049     9417.00000
    57.0180    10056.00000
    57.0311     9687.00000
    57.0443     9151.00000
    57.0574     8369.00000
    57.0705     7629.00000
    57.0837     7242.00000
    57.0968     6816.00000
    57.1099     6640.00000
    57.1231     6784.00000
    57.1362     7008.00000
    57.1493     7588.00000
    57.1624     7834.00000
    57.1756     8203.00000
    57.1887     8987.00000
    57.2018     9199.00000
    57.2150     9045.00000
    57.2281     8474.00000
    57.2412     7518.00000
    57.2544     6637.00000
    57.2675     5698.00000
    57.2806     5083.00000
    57.2937     4437.00000
    57.3069     4366.00000
    57.3200     4305.00000
    57.3331     4376.00000
    57.3463     4630.00000
    57.3594     4961.00000
    57.3725     5024.00000
    57.3857     5137.00000
    57.3988     4570.00000
    57.4119     4208.00000
    57.4250     3962.00000
    57.4382     3600.00000
    57.4513     3395.00000
    57.4644     3285.00000
    57.4776     3087.00000
    57.4907     3177.00000
    57.5038     3061.00000
    57.5170     3074.00000
    57.5301     3087.00000
    57.5432     3050.00000
    57.5564     3029.00000
    57.5695     2999.00000
    57.5826     3058.00000
    57.5957     2996.00000
    57.6089     3002.00000
    57.6220     3031.00000
    57.6351     3042.00000
    57.6483     3110.00000
    57.6614     3070.00000
    57.6745     3080.00000
    57.6877     3350.00000
    57.7008     3406.00000
    57.7139     3481.00000
    57.7270     3740.00000
    57.7402     3832.00000
    57.7533     4335.00000
    57.7664     5060.00000
    57.7796     5757.00000
    57.7927     7076.00000
    57.8058     8242.00000
    57.8190     9038.00000
    57.8321     9150.00000
    57.8452     8196.00000
    57.8583     7155.00000
    57.8715     6230.00000
    57.8846     5547.00000
    57.8977     5250.00000
    57.9109     5036.00000
    57.9240     5187.00000
    57.9371     5589.00000
    57.9503     6326.00000
    57.9634     6762.00000
    57.9765     7035.00000
    57.9897     7096.00000
    58.0028     6520.00000
    58.0159     5894.00000
    58.0290     5233.00000
    58.0422     4610.00000
    58.0553     4191.00000
    58.0684     3971.00000
    58.0816     3745.00000
    58.0947     3653.00000
    58.1078     3864.00000
    58.1210     3825.00000
    58.1341     3673.00000
    58.1472     3672.00000
    58.1603     3576.00000
    58.1735     3433.00000
    58.1866     3395.00000
    58.1997     3352.00000
    58.2129     3310.00000
    58.2260     3319.00000
    58.2391     3271.00000
    58.2523     3211.00000
    58.2654     3281.00000
    58.2785     3275.00000
    58.2916     3348.00000
    58.3048     3413.00000
    58.3179     3650.00000
    58.3310     3714.00000
    58.3442     4044.00000
    58.3573     4378.00000
    58.3704     4857.00000
    58.3836     5516.00000
    58.3967     6442.00000
    58.4098     7104.00000
    58.4230     7798.00000
    58.4361     8328.00000
    58.4492     8731.00000
    58.4623     8371.00000
    58.4755     7589.00000
    58.4886     6758.00000
    58.5017     6044.00000
    58.5149     5443.00000
    58.5280     5322.00000
    58.5411     5226.00000
    58.5543     5567.00000
    58.5674     5993.00000
    58.5805     6593.00000
    58.5936     7094.00000
    58.6068     7716.00000
    58.6199     8490.00000
    58.6330     9201.00000
    58.6462     9990.00000
    58.6593    10140.00000
    58.6724    10087.00000
    58.6856     9107.00000
    58.6987     7892.00000
    58.7118     6374.00000
    58.7249     5578.00000
    58.7381     5023.00000
    58.7512     4921.00000
    58.7643     5014.00000
    58.7775     5183.00000
    58.7906     5614.00000
    58.8037     6026.00000
    58.8169     6687.00000
    58.8300     7155.00000
    58.8431     6999.00000
    58.8562     7210.00000
    58.8694     7251.00000
    58.8825     7586.00000
    58.8956     8349.00000
    58.9088     9111.00000
    58.9219     9519.00000
    58.9350     9518.00000
    58.9482     9025.00000
    58.9613     7977.00000
    58.9744     6877.00000
    58.9876     5999.00000
    59.0007     5305.00000
    59.0138     5021.00000
    59.0269     4904.00000
    59.0401     5158.00000
    59.0532     5577.00000
    59.0663     5813.00000
    59.0795     6037.00000
    59.0926     6181.00000
    59.1057     5978.00000
    59.1189     5703.00000
    59.1320     5047.00000
    59.1451     4496.00000
    59.1582     3939.00000
    59.1714     3818.00000
    59.1845     3431.00000
    59.1976     3287.00000
    59.2108     3162.00000
    59.2239     3116.00000
    59.2370     3128.00000
    59.2502     3133.00000
    59.2633     3015.00000
    59.2764     3042.00000
    59.2895     2990.00000
    59.3027     3099.00000
    59.3158     2971.00000
    59.3289     3031.00000
    59.3421     3072.00000
    59.3552     3043.00000
    59.3683     3042.00000
    59.3815     2964.00000
    59.3946     2920.00000
    59.4077     3186.00000
    59.4208     3190.00000
    59.4340     3159.00000
    59.4471     3430.00000
    59.4602     3550.00000
    59.4734     3814.00000
    59.4865     4183.00000
    59.4996     4765.00000
    59.5128     5211.00000
    59.5259     6105.00000
    59.5390     6690.00000
    59.5522     7398.00000
    59.5653     7964.00000
    59.5784     8507.00000
    59.5915     8447.00000
    59.6047     7932.00000
    59.6178     7199.00000
    59.6309     6418.00000
    59.6441     5796.00000
    59.6572     5380.00000
    59.6703     5186.00000
    59.6835     5338.00000
    59.6966     5665.00000
    59.7097     6100.00000
    59.7228     6714.00000
    59.7360     7281.00000
    59.7491     7876.00000
    59.7622     8171.00000
    59.7754     8382.00000
    59.7885     8425.00000
    59.8016     8645.00000
    59.8148     8832.00000
    59.8279     9620.00000
    59.8410    10820.00000
    59.8541    11160.00000
    59.8673    10870.00000
    59.8804    10069.00000
    59.8935     8478.00000
    59.9067     7238.00000
    59.9198     6482.00000
    59.9329     6019.00000
    59.9461     5764.00000
    59.9592     5716.00000
    59.9723     5881.00000
    59.9855     6096.00000
    59.9986     6601.00000
    60.0117     6955.00000
    60.0248     7024.00000
    60.0380     6393.00000
    60.0511     5762.00000
    60.0642     5039.00000
    60.0774     4457.00000
    60.0905     4018.00000
    60.1036     3674.00000
    60.1168     3458.00000
    60.1299     3412.00000
    60.1430     3182.00000
    60.1561     3200.00000
    60.1693     3031.00000
    60.1824     2954.00000
    60.1955     3028.00000
    60.2087     3074.00000
    60.2218     2983.00000
    60.2349     2929.00000
    60.2481     3009.00000
    60.2612     2980.00000
    60.2743     2890.00000
    60.2874     2908.00000
    60.3006     2990.00000
    60.3137     3000.00000
    60.3268     3074.00000
    60.3400     2978.00000
    60.3531     3060.00000
    60.3662     3139.00000
    60.3794     3107.00000
    60.3925     3160.00000
    60.4056     3288.00000
    60.4188     3315.00000
    60.4319     3328.00000
    60.4450     3386.00000
    60.4581     3489.00000
    60.4713     3622.00000
    60.4844     3831.00000
    60.4975     4158.00000
    60.5107     4428.00000
    60.5238     4986.00000
    60.5369     5829.00000
    60.5501     7010.00000
    60.5632     8491.00000
    60.5763    10563.00000
    60.5894    12378.00000
    60.6026    13811.00000
    60.6157    13992.00000
    60.6288    13543.00000
    60.6420    12436.00000
    60.6551    11070.00000
    60.6682     9408.00000
    60.6814     8196.00000
    60.6945     7485.00000
    60.7076     7074.00000
    60.7207     7093.00000
    60.7339     7979.00000
    60.7470     8681.00000
    60.7601     9498.00000
    60.7733    10039.00000
    60.7864    10157.00000
    60.7995     9751.00000
    60.8127     8996.00000
    60.8258     8352.00000
    60.8389     7469.00000
    60.8521     6814.00000
    60.8652     6011.00000
    60.8783     5494.00000
    60.8914     5227.00000
    60.9046     4905.00000
    60.9177     4828.00000
    60.9308     5009.00000
    60.9440     5110.00000
    60.9571     5288.00000
    60.9702     5430.00000
    60.9834     5624.00000
    60.9965     5651.00000
    61.0096     5662.00000
    61.0227     5461.00000
    61.0359     5091.00000
    61.0490     4761.00000
    61.0621     4348.00000
    61.0753     3955.00000
    61.0884     3699.00000
    61.1015     3753.00000
    61.1147     3694.00000
    61.1278     3664.00000
    61.1409     3826.00000
    61.1540     3738.00000
    61.1672     3660.00000
    61.1803     3715.00000
    61.1934     3659.00000
    61.2066     3475.00000
    61.2197     3328.00000
    61.2328     3203.00000
    61.2460     3046.00000
    61.2591     2893.00000
    61.2722     2926.00000
    61.2854     2764.00000
    61.2985     2771.00000
    61.3116     2739.00000
    61.3247     2683.00000
    61.3379     2714.00000
    61.3510     2578.00000
    61.3641     2689.00000
    61.3773     2687.00000
    61.3904     2745.00000
    61.4035     2661.00000
    61.4167     2669.00000
    61.4298     2558.00000
    61.4429     2601.00000
    61.4560     2690.00000
    61.4692     2599.00000
    61.4823     2544.00000
    61.4954     2651.00000
    61.5086     2575.00000
    61.5217     2572.00000
    61.5348     2604.00000
    61.5480     2626.00000
    61.5611     2612.00000
    61.5742     2552.00000
    61.5873     2593.00000
    61.6005     2581.00000
    61.6136     2561.00000
    61.6267     2620.00000
    61.6399     2596.00000
    61.6530     2570.00000
    61.6661     2615.00000
    61.6793     2461.00000
    61.6924     2553.00000
    61.7055     2664.00000
    61.7187     2560.00000
    61.7318     2483.00000
    61.7449     2512.00000
    61.7580     2612.00000
    61.7712     2501.00000
    61.7843     2575.00000
    61.7974     2533.00000
    61.8106     2526.00000
    61.8237     2521.00000
    61.8368     2571.00000
    61.8500     2570.00000
    61.8631     2496.00000
    61.8762     2491.00000
    61.8893     2470.00000
    61.9025     2569.00000
    61.9156     2465.00000
    61.9287     2468.00000
    61.9419     2499.00000
    61.9550     2538.00000
    61.9681     2492.00000
    61.9813     2554.00000
    61.9944     2566.00000
    62.0075     2550.00000
    62.0206     2462.00000
    62.0338     2575.00000
    62.0469     2482.00000
    62.0600     2486.00000
    62.0732     2580.00000
    62.0863     2507.00000
    62.0994     2579.00000
    62.1126     2495.00000
    62.1257     2582.00000
    62.1388     2562.00000
    62.1520     2484.00000
    62.1651     2531.00000
    62.1782     2485.00000
    62.1913     2491.00000
    62.2045     2447.00000
    62.2176     2451.00000
    62.2307     2608.00000
    62.2439     2533.00000
    62.2570     2498.00000
    62.2701     2626.00000
    62.2833     2503.00000
    62.2964     2514.00000
    62.3095     2462.00000
    62.3226     2545.00000
    62.3358     2598.00000
    62.3489     2580.00000
    62.3620     2574.00000
    62.3752     2565.00000
    62.3883     2497.00000
    62.4014     2519.00000
    62.4146     2496.00000
    62.4277     2475.00000
    62.4408     2534.00000
    62.4539     2627.00000
    62.4671     2587.00000
    62.4802     2595.00000
    62.4933     2529.00000
    62.5065     2457.00000
    62.5196     2541.00000
    62.5327     2520.00000
    62.5459     2379.00000
    62.5590     2430.00000
    62.5721     2466.00000
    62.5852     2560.00000
    62.5984     2536.00000
    62.6115     2380.00000
    62.6246     2442.00000
    62.6378     2525.00000
    62.6509     2519.00000
    62.6640     2564.00000
    62.6772     2536.00000
    62.6903     2631.00000
    62.7034     2506.00000
    62.7166     2541.00000
    62.7297     2514.00000
    62.7428     2472.00000
    62.7559     2435.00000
    62.7691     2444.00000
    62.7822     2551.00000
    62.7953     2501.00000
    62.8085     2476.00000
    62.8216     2519.00000
    62.8347     2575.00000
    62.8479     2455.00000
    62.8610     2587.00000
    62.8741     2517.00000
    62.8872     2478.00000
    62.9004     2492.00000
    62.9135     2471.00000
    62.9266     2532.00000
    62.9398     2461.00000
    62.9529     2448.00000
    62.9660     2501.00000
    62.9792     2521.00000
    62.9923     2430.00000
    63.0054     2413.00000
    63.0185     2531.00000
    63.0317     2529.00000
    63.0448     2427.00000
    63.0579     2568.00000
    63.0711     2510.00000
    63.0842     2469.00000
    63.0973     2581.00000
    63.1105     2542.00000
    63.1236     2446.00000
    63.1367     2515.00000
    63.1499     2532.00000
    63.1630     2538.00000
    63.1761     2535.00000
    63.1892     2483.00000
    63.2024     2552.00000
    63.2155     2522.00000
    63.2286     2530.00000
    63.2418     2565.00000
    63.2549     2665.00000
    63.2680     2654.00000
    63.2812     2655.00000
    63.2943     2792.00000
    63.3074     2730.00000
    63.3205     2754.00000
    63.3337     2684.00000
    63.3468     2784.00000
    63.3599     2838.00000
    63.3731     2872.00000
    63.3862     2892.00000
    63.3993     2943.00000
    63.4125     2993.00000
    63.4256     3145.00000
    63.4387     3290.00000
    63.4518     3434.00000
    63.4650     3716.00000
    63.4781     3841.00000
    63.4912     4089.00000
    63.5044     3948.00000
    63.5175     3849.00000
    63.5306     3714.00000
    63.5438     3361.00000
    63.5569     3236.00000
    63.5700     3221.00000
    63.5831     3078.00000
    63.5963     2946.00000
    63.6094     3014.00000
    63.6225     3057.00000
    63.6357     3158.00000
    63.6488     3149.00000
    63.6619     3284.00000
    63.6751     3325.00000
    63.6882     3354.00000
    63.7013     3171.00000
    63.7145     3072.00000
    63.7276     2920.00000
    63.7407     2876.00000
    63.7538     2751.00000
    63.7670     2915.00000
    63.7801     2687.00000
    63.7932     2758.00000
    63.8064     2858.00000
    63.8195     3020.00000
    63.8326     3138.00000
    63.8458     3177.00000
    63.8589     3473.00000
    63.8720     3586.00000
    63.8851     3837.00000
    63.8983     4107.00000
    63.9114     4219.00000
    63.9245     4171.00000
    63.9377     4235.00000
    63.9508     3966.00000
    63.9639     3670.00000
    63.9771     3385.00000
    63.9902     3295.00000
    64.0033     3126.00000
    64.0164     3252.00000
    64.0296     3333.00000
    64.0427     3568.00000
    64.0558     3662.00000
    64.0690     3896.00000
    64.0821     4367.00000
    64.0952     4426.00000
    64.1084     4549.00000
    64.1215     4565.00000
    64.1346     4489.00000
    64.1478     4042.00000
    64.1609     3797.00000
    64.1740     3483.00000
    64.1871     3290.00000
    64.2003     3084.00000
    64.2134     2909.00000
    64.2265     2857.00000
    64.2397     2954.00000
    64.2528     3066.00000
    64.2659     2985.00000
    64.2791     3130.00000
    64.2922     3112.00000
    64.3053     3184.00000
    64.3184     3115.00000
    64.3316     3047.00000
    64.3447     3021.00000
    64.3578     2828.00000
    64.3710     2688.00000
    64.3841     2586.00000
    64.3972     2546.00000
    64.4104     2560.00000
    64.4235     2490.00000
    64.4366     2492.00000
    64.4498     2616.00000
    64.4629     2489.00000
    64.4760     2478.00000
    64.4891     2522.00000
    64.5023     2422.00000
    64.5154     2443.00000
    64.5285     2505.00000
    64.5417     2581.00000
    64.5548     2460.00000
    64.5679     2378.00000
    64.5811     2446.00000
    64.5942     2471.00000
    64.6073     2440.00000
    64.6204     2478.00000
    64.6336     2526.00000
    64.6467     2468.00000
    64.6598     2571.00000
    64.6730     2546.00000
    64.6861     2552.00000
    64.6992     2629.00000
    64.7124     2665.00000
    64.7255     2660.00000
    64.7386     2775.00000
    64.7517     2681.00000
    64.7649     2608.00000
    64.7780     2706.00000
    64.7911     2756.00000
    64.8043     2736.00000
    64.8174     2736.00000
    64.8305     2741.00000
    64.8437     2824.00000
    64.8568     2663.00000
    64.8699     2795.00000
    64.8830     2752.00000
    64.8962     2717.00000
    64.9093     2730.00000
    64.9224     2781.00000
    64.9356     2759.00000
    64.9487     2814.00000
    64.9618     2714.00000
    64.9750     2698.00000
    64.9881     2656.00000
    65.0012     2677.00000
    65.0144     2703.00000
    65.0275     2569.00000
    65.0406     2655.00000
    65.0537     2586.00000
    65.0669     2601.00000
    65.0800     2535.00000
    65.0931     2542.00000
    65.1063     2446.00000
    65.1194     2544.00000
    65.1325     2553.00000
    65.1457     2538.00000
    65.1588     2553.00000
    65.1719     2552.00000
    65.1850     2477.00000
    65.1982     2442.00000
    65.2113     2500.00000
    65.2244     2378.00000
    65.2376     2364.00000
    65.2507     2338.00000
    65.2638     2427.00000
    65.2770     2468.00000
    65.2901     2433.00000
    65.3032     2455.00000
    65.3163     2423.00000
    65.3295     2389.00000
    65.3426     2471.00000
    65.3557     2433.00000
    65.3689     2483.00000
    65.3820     2366.00000
    65.3951     2321.00000
    65.4083     2419.00000
    65.4214     2400.00000
    65.4345     2459.00000
    65.4476     2434.00000
    65.4608     2400.00000
    65.4739     2475.00000
    65.4870     2426.00000
    65.5002     2402.00000
    65.5133     2360.00000
    65.5264     2456.00000
    65.5396     2482.00000
    65.5527     2419.00000
    65.5658     2280.00000
    65.5790     2388.00000
    65.5921     2361.00000
    65.6052     2341.00000
    65.6183     2381.00000
    65.6315     2477.00000
    65.6446     2515.00000
    65.6577     2374.00000
    65.6709     2438.00000
    65.6840     2374.00000
    65.6971     2447.00000
    65.7103     2411.00000
    65.7234     2330.00000
    65.7365     2495.00000
    65.7496     2436.00000
    65.7628     2432.00000
    65.7759     2416.00000
    65.7890     2443.00000
    65.8022     2435.00000
    65.8153     2549.00000
    65.8284     2416.00000
    65.8416     2388.00000
    65.8547     2502.00000
    65.8678     2478.00000
    65.8810     2438.00000
    65.8941     2351.00000
    65.9072     2404.00000
    65.9203     2401.00000
    65.9335     2481.00000
    65.9466     2396.00000
    65.9597     2384.00000
    65.9729     2403.00000
    65.9860     2419.00000
    65.9991     2426.00000
    66.0123     2476.00000
    66.0254     2422.00000
    66.0385     2461.00000
    66.0516     2406.00000
    66.0648     2452.00000
    66.0779     2402.00000
    66.0910     2340.00000
    66.1042     2329.00000
    66.1173     2366.00000
    66.1304     2333.00000
    66.1436     2316.00000
    66.1567     2413.00000
    66.1698     2462.00000
    66.1829     2423.00000
    66.1961     2372.00000
    66.2092     2473.00000
    66.2223     2391.00000
    66.2355     2365.00000
    66.2486     2392.00000
    66.2617     2243.00000
    66.2749     2431.00000
    66.2880     2489.00000
    66.3011     2514.00000
    66.3142     2559.00000
    66.3274     2468.00000
    66.3405     2542.00000
    66.3536     2435.00000
    66.3668     2499.00000
    66.3799     2573.00000
    66.3930     2474.00000
    66.4062     2426.00000
    66.4193     2437.00000
    66.4324     2383.00000
    66.4455     2365.00000
    66.4587     2418.00000
    66.4718     2421.00000
    66.4849     2436.00000
    66.4981     2475.00000
    66.5112     2397.00000
    66.5243     2392.00000
    66.5375     2373.00000
    66.5506     2409.00000
    66.5637     2504.00000
    66.5769     2513.00000
    66.5900     2436.00000
    66.6031     2363.00000
    66.6162     2607.00000
    66.6294     2473.00000
    66.6425     2520.00000
    66.6556     2521.00000
    66.6688     2594.00000
    66.6819     2500.00000
    66.6950     2427.00000
    66.7082     2432.00000
    66.7213     2497.00000
    66.7344     2444.00000
    66.7476     2490.00000
    66.7607     2416.00000
    66.7738     2458.00000
    66.7869     2495.00000
    66.8001     2520.00000
    66.8132     2464.00000
    66.8263     2475.00000
    66.8395     2470.00000
    66.8526     2485.00000
    66.8657     2478.00000
    66.8789     2353.00000
    66.8920     2459.00000
    66.9051     2440.00000
    66.9182     2433.00000
    66.9314     2330.00000
    66.9445     2384.00000
    66.9576     2449.00000
    66.9708     2305.00000
    66.9839     2377.00000
    66.9970     2513.00000
    67.0102     2397.00000
    67.0233     2402.00000
    67.0364     2368.00000
    67.0495     2340.00000
    67.0627     2392.00000
    67.0758     2390.00000
    67.0889     2379.00000
    67.1021     2481.00000
    67.1152     2399.00000
    67.1283     2346.00000
    67.1415     2398.00000
    67.1546     2399.00000
    67.1677     2426.00000
    67.1808     2344.00000
    67.1940     2412.00000
    67.2071     2300.00000
    67.2202     2401.00000
    67.2334     2386.00000
    67.2465     2371.00000
    67.2596     2420.00000
    67.2728     2453.00000
    67.2859     2357.00000
    67.2990     2390.00000
    67.3121     2423.00000
    67.3253     2322.00000
    67.3384     2473.00000
    67.3515     2397.00000
    67.3647     2388.00000
    67.3778     2430.00000
    67.3909     2384.00000
    67.4041     2372.00000
    67.4172     2468.00000
    67.4303     2459.00000
    67.4435     2420.00000
    67.4566     2430.00000
    67.4697     2495.00000
    67.4828     2354.00000
    67.4960     2419.00000
    67.5091     2522.00000
    67.5222     2495.00000
    67.5354     2430.00000
    67.5485     2328.00000
    67.5616     2533.00000
    67.5748     2429.00000
    67.5879     2457.00000
    67.6010     2507.00000
    67.6142     2393.00000
    67.6273     2391.00000
    67.6404     2503.00000
    67.6535     2501.00000
    67.6667     2514.00000
    67.6798     2484.00000
    67.6929     2402.00000
    67.7061     2478.00000
    67.7192     2437.00000
    67.7323     2416.00000
    67.7455     2438.00000
    67.7586     2442.00000
    67.7717     2522.00000
    67.7848     2530.00000
    67.7980     2480.00000
    67.8111     2530.00000
    67.8242     2469.00000
    67.8374     2488.00000
    67.8505     2544.00000
    67.8636     2468.00000
    67.8768     2495.00000
    67.8899     2599.00000
    67.9030     2643.00000
    67.9161     2502.00000
    67.9293     2709.00000
    67.9424     2772.00000
    67.9555     3010.00000
    67.9687     3039.00000
    67.9818     3223.00000
    67.9949     3639.00000
    68.0081     3722.00000
    68.0212     3734.00000
    68.0343     3563.00000
    68.0474     3441.00000
    68.0606     3258.00000
    68.0737     3120.00000
    68.0868     3051.00000
    68.1000     3058.00000
    68.1131     2982.00000
    68.1262     3192.00000
    68.1394     3275.00000
    68.1525     3364.00000
    68.1656     3307.00000
    68.1787     3390.00000
    68.1919     3606.00000
    68.2050     3500.00000
    68.2181     3373.00000
    68.2313     3229.00000
    68.2444     3158.00000
    68.2575     3001.00000
    68.2707     2914.00000
    68.2838     2850.00000
    68.2969     2881.00000
    68.3101     2943.00000
    68.3232     3019.00000
    68.3363     3087.00000
    68.3494     3166.00000
    68.3626     3260.00000
    68.3757     3537.00000
    68.3888     3744.00000
    68.4020     4384.00000
    68.4151     4801.00000
    68.4282     5132.00000
    68.4414     5222.00000
    68.4545     4977.00000
    68.4676     4556.00000
    68.4807     3980.00000
    68.4939     3454.00000
    68.5070     3285.00000
    68.5201     3203.00000
    68.5333     2979.00000
    68.5464     2892.00000
    68.5595     2906.00000
    68.5727     3186.00000
    68.5858     3162.00000
    68.5989     3378.00000
    68.6120     3703.00000
    68.6252     3662.00000
    68.6383     3883.00000
    68.6514     3734.00000
    68.6646     3409.00000
    68.6777     3186.00000
    68.6908     2934.00000
    68.7040     2760.00000
    68.7171     2701.00000
    68.7302     2617.00000
    68.7434     2608.00000
    68.7565     2473.00000
    68.7696     2525.00000
    68.7827     2623.00000
    68.7959     2601.00000
    68.8090     2521.00000
    68.8221     2377.00000
    68.8353     2532.00000
    68.8484     2646.00000
    68.8615     2577.00000
    68.8747     2514.00000
    68.8878     2475.00000
    68.9009     2551.00000
    68.9140     2676.00000
    68.9272     2586.00000
    68.9403     2563.00000
    68.9534     2533.00000
    68.9666     2504.00000
    68.9797     2489.00000
    68.9928     2547.00000
    69.0060     2533.00000
    69.0191     2547.00000
    69.0322     2751.00000
    69.0453     2708.00000
    69.0585     2590.00000
    69.0716     2643.00000
    69.0847     2642.00000
    69.0979     2733.00000
    69.1110     2728.00000
    69.1241     2930.00000
    69.1373     3052.00000
    69.1504     3222.00000
    69.1635     3415.00000
    69.1767     3741.00000
    69.1898     4043.00000
    69.2029     4210.00000
    69.2160     4311.00000
    69.2292     4275.00000
    69.2423     4078.00000
    69.2554     4083.00000
    69.2686     4085.00000
    69.2817     4046.00000
    69.2948     3792.00000
    69.3080     3865.00000
    69.3211     3729.00000
    69.3342     3796.00000
    69.3473     3714.00000
    69.3605     3643.00000
    69.3736     3688.00000
    69.3867     3707.00000
    69.3999     3630.00000
    69.4130     3674.00000
    69.4261     3628.00000
    69.4393     3487.00000
    69.4524     3438.00000
    69.4655     3330.00000
    69.4786     3448.00000
    69.4918     3399.00000
    69.5049     3288.00000
    69.5180     3301.00000
    69.5312     3436.00000
    69.5443     3434.00000
    69.5574     3451.00000
    69.5706     3507.00000
    69.5837     3539.00000
    69.5968     3458.00000
    69.6099     3378.00000
    69.6231     3285.00000
    69.6362     3239.00000
    69.6493     3154.00000
    69.6625     3195.00000
    69.6756     3249.00000
    69.6887     3285.00000
    69.7019     3412.00000
    69.7150     3591.00000
    69.7281     3956.00000
    69.7413     4505.00000
    69.7544     4921.00000
    69.7675     5757.00000
    69.7806     6341.00000
    69.7938     6982.00000
    69.8069     7411.00000
    69.8200     7417.00000
    69.8332     7095.00000
    69.8463     6549.00000
    69.8594     5969.00000
    69.8726     5548.00000
    69.8857     5222.00000
    69.8988     5116.00000
    69.9119     4816.00000
    69.9251     4766.00000
    69.9382     4470.00000
    69.9513     4574.00000
    69.9645     4573.00000
    69.9776     4919.00000
    69.9907     5018.00000
    70.0039     5193.00000
    70.0170     5422.00000
    70.0301     5249.00000
    70.0433     4949.00000
    70.0564     4736.00000
    70.0695     4575.00000
    70.0826     4426.00000
    70.0958     4129.00000
    70.1089     3884.00000
    70.1220     3751.00000
    70.1352     3563.00000
    70.1483     3387.00000
    70.1614     3086.00000
    70.1746     2951.00000
    70.1877     2989.00000
    70.2008     2984.00000
    70.2139     3008.00000
    70.2271     2940.00000
    70.2402     2915.00000
    70.2533     2969.00000
    70.2665     2966.00000
    70.2796     2984.00000
    70.2927     3108.00000
    70.3059     3074.00000
    70.3190     3167.00000
    70.3321     3137.00000
    70.3452     3259.00000
    70.3584     3449.00000
    70.3715     3815.00000
    70.3846     4047.00000
    70.3978     4489.00000
    70.4109     4816.00000
    70.4240     4985.00000
    70.4372     5245.00000
    70.4503     5123.00000
    70.4634     4842.00000
    70.4765     4452.00000
    70.4897     3852.00000
    70.5028     3555.00000
    70.5159     3528.00000
    70.5291     3405.00000
    70.5422     3225.00000
    70.5553     3288.00000
    70.5685     3391.00000
    70.5816     3548.00000
    70.5947     3689.00000
    70.6078     3957.00000
    70.6210     4216.00000
    70.6341     4317.00000
    70.6472     4554.00000
    70.6604     4448.00000
    70.6735     4440.00000
    70.6866     4441.00000
    70.6998     4399.00000
    70.7129     4562.00000
    70.7260     4449.00000
    70.7392     4507.00000
    70.7523     4539.00000
    70.7654     4497.00000
    70.7785     4307.00000
    70.7917     4460.00000
    70.8048     4155.00000
    70.8179     4128.00000
    70.8311     3983.00000
    70.8442     3749.00000
    70.8573     3580.00000
    70.8705     3537.00000
    70.8836     3419.00000
    70.8967     3404.00000
    70.9099     3509.00000
    70.9230     3727.00000
    70.9361     3694.00000
    70.9492     3707.00000
    70.9624     3608.00000
    70.9755     3658.00000
    70.9886     3696.00000
    71.0018     3663.00000
    71.0149     3796.00000
    71.0280     3653.00000
    71.0412     3789.00000
    71.0543     3951.00000
    71.0674     4398.00000
    71.0805     4848.00000
    71.0937     5175.00000
    71.1068     5215.00000
    71.1199     4957.00000
    71.1331     4522.00000
    71.1462     3939.00000
    71.1593     3567.00000
    71.1725     3215.00000
    71.1856     3107.00000
    71.1987     3102.00000
    71.2118     2902.00000
    71.2250     2994.00000
    71.2381     2964.00000
    71.2512     3115.00000
    71.2644     3253.00000
    71.2775     3385.00000
    71.2906     3751.00000
    71.3038     3808.00000
    71.3169     3645.00000
    71.3300     3576.00000
    71.3431     3435.00000
    71.3563     3139.00000
    71.3694     2971.00000
    71.3825     2942.00000
    71.3957     2891.00000
    71.4088     2884.00000
    71.4219     2849.00000
    71.4351     2862.00000
    71.4482     2889.00000
    71.4613     2866.00000
    71.4744     2870.00000
    71.4876     2901.00000
    71.5007     2948.00000
    71.5138     2936.00000
    71.5270     2992.00000
    71.5401     3162.00000
    71.5532     3392.00000
    71.5664     3773.00000
    71.5795     3976.00000
    71.5926     4238.00000
    71.6058     4423.00000
    71.6189     4629.00000
    71.6320     4474.00000
    71.6451     4373.00000
    71.6583     4274.00000
    71.6714     4110.00000
    71.6845     3924.00000
    71.6977     3889.00000
    71.7108     3867.00000
    71.7239     3767.00000
    71.7371     3837.00000
    71.7502     3876.00000
    71.7633     3810.00000
    71.7764     3658.00000
    71.7896     3729.00000
    71.8027     3674.00000
    71.8158     3647.00000
    71.8290     3708.00000
    71.8421     3527.00000
    71.8552     3392.00000
    71.8684     3367.00000
    71.8815     3326.00000
    71.8946     3178.00000
    71.9078     3153.00000
    71.9209     3120.00000
    71.9340     3106.00000
    71.9471     3043.00000
    71.9603     2872.00000
    71.9734     2814.00000
    71.9865     2854.00000
    71.9997     2781.00000
    72.0128     2685.00000
    72.0259     2711.00000
    72.0391     2663.00000
    72.0522     2697.00000
    72.0653     2621.00000
    72.0784     2581.00000
    72.0916     2617.00000
    72.1047     2567.00000
    72.1178     2484.00000
    72.1310     2515.00000
    72.1441     2611.00000
    72.1572     2616.00000
    72.1704     2533.00000
    72.1835     2592.00000
    72.1966     2602.00000
    72.2097     2543.00000
    72.2229     2504.00000
    72.2360     2605.00000
    72.2491     2550.00000
    72.2623     2629.00000
    72.2754     2583.00000
    72.2885     2620.00000
    72.3017     2710.00000
    72.3148     2613.00000
    72.3279     2625.00000
    72.3410     2732.00000
    72.3542     2754.00000
    72.3673     2790.00000
    72.3804     3047.00000
    72.3936     3060.00000
    72.4067     3279.00000
    72.4198     3552.00000
    72.4330     3942.00000
    72.4461     4074.00000
    72.4592     4208.00000
    72.4724     4353.00000
    72.4855     4102.00000
    72.4986     3780.00000
    72.5117     3571.00000
    72.5249     3450.00000
    72.5380     3239.00000
    72.5511     3061.00000
    72.5643     2900.00000
    72.5774     2907.00000
    72.5905     2956.00000
    72.6037     2900.00000
    72.6168     2918.00000
    72.6299     3156.00000
    72.6430     3199.00000
    72.6562     3299.00000
    72.6693     3374.00000
    72.6824     3384.00000
    72.6956     3333.00000
    72.7087     3211.00000
    72.7218     3065.00000
    72.7350     2853.00000
    72.7481     2834.00000
    72.7612     2820.00000
    72.7743     2823.00000
    72.7875     2703.00000
    72.8006     2623.00000
    72.8137     2729.00000
    72.8269     2594.00000
    72.8400     2739.00000
    72.8531     2708.00000
    72.8663     2652.00000
    72.8794     2732.00000
    72.8925     2966.00000
    72.9057     3049.00000
    72.9188     3246.00000
    72.9319     3478.00000
    72.9450     3731.00000
    72.9582     4022.00000
    72.9713     4224.00000
    72.9844     4307.00000
    72.9976     4309.00000
    73.0107     4188.00000
    73.0238     4206.00000
    73.0370     3852.00000
    73.0501     3595.00000
    73.0632     3404.00000
    73.0763     3198.00000
    73.0895     3082.00000
    73.1026     2997.00000
    73.1157     3097.00000
    73.1289     3060.00000
    73.1420     3294.00000
    73.1551     3278.00000
    73.1683     3446.00000
    73.1814     3731.00000
    73.1945     3807.00000
    73.2076     3826.00000
    73.2208     3843.00000
    73.2339     3958.00000
    73.2470     3947.00000
    73.2602     3893.00000
    73.2733     3990.00000
    73.2864     3800.00000
    73.2996     3947.00000
    73.3127     3980.00000
    73.3258     3791.00000
    73.3390     3829.00000
    73.3521     3725.00000
    73.3652     3401.00000
    73.3783     3346.00000
    73.3915     3151.00000
    73.4046     3301.00000
    73.4177     3278.00000
    73.4309     3236.00000
    73.4440     3375.00000
    73.4571     3425.00000
    73.4703     3632.00000
    73.4834     3724.00000
    73.4965     3772.00000
    73.5096     3697.00000
    73.5228     3527.00000
    73.5359     3433.00000
    73.5490     3399.00000
    73.5622     3235.00000
    73.5753     3136.00000
    73.5884     3107.00000
    73.6016     2886.00000
    73.6147     2947.00000
    73.6278     2938.00000
    73.6409     2972.00000
    73.6541     3064.00000
    73.6672     3190.00000
    73.6803     3341.00000
    73.6935     3569.00000
    73.7066     3894.00000
    73.7197     4158.00000
    73.7329     4540.00000
    73.7460     5062.00000
    73.7591     5267.00000
    73.7722     5522.00000
    73.7854     5563.00000
    73.7985     5577.00000
    73.8116     5612.00000
    73.8248     5389.00000
    73.8379     5486.00000
    73.8510     5348.00000
    73.8642     5124.00000
    73.8773     4881.00000
    73.8904     4323.00000
    73.9035     3993.00000
    73.9167     3735.00000
    73.9298     3730.00000
    73.9429     3735.00000
    73.9561     3933.00000
    73.9692     3938.00000
    73.9823     3959.00000
    73.9955     4044.00000
    74.0086     3995.00000
    74.0217     4000.00000
    74.0349     3937.00000
    74.0480     3843.00000
    74.0611     3871.00000
    74.0742     3850.00000
    74.0874     3627.00000
    74.1005     3371.00000
    74.1136     3164.00000
    74.1268     2956.00000
    74.1399     2716.00000
    74.1530     2720.00000
    74.1662     2660.00000
    74.1793     2615.00000
    74.1924     2574.00000
    74.2056     2570.00000
    74.2187     2502.00000
    74.2318     2546.00000
    74.2449     2505.00000
    74.2581     2521.00000
    74.2712     2472.00000
    74.2843     2468.00000
    74.2975     2475.00000
    74.3106     2468.00000
    74.3237     2519.00000
    74.3369     2504.00000
    74.3500     2470.00000
    74.3631     2473.00000
    74.3762     2460.00000
    74.3894     2483.00000
    74.4025     2475.00000
    74.4156     2511.00000
    74.4288     2401.00000
    74.4419     2442.00000
    74.4550     2450.00000
    74.4682     2436.00000
    74.4813     2410.00000
    74.4944     2377.00000
    74.5075     2321.00000
    74.5207     2393.00000
    74.5338     2354.00000
    74.5469     2397.00000
    74.5601     2474.00000
    74.5732     2544.00000
    74.5863     2434.00000
    74.5995     2318.00000
    74.6126     2432.00000
    74.6257     2382.00000
    74.6388     2361.00000
    74.6520     2412.00000
    74.6651     2465.00000
    74.6782     2466.00000
    74.6914     2407.00000
    74.7045     2340.00000
    74.7176     2357.00000
    74.7308     2416.00000
    74.7439     2382.00000
    74.7570     2392.00000
    74.7701     2413.00000
    74.7833     2473.00000
    74.7964     2447.00000
    74.8095     2312.00000
    74.8227     2394.00000
    74.8358     2376.00000
    74.8489     2430.00000
    74.8621     2327.00000
    74.8752     2283.00000
    74.8883     2432.00000
    74.9015     2442.00000
    74.9146     2465.00000
    74.9277     2369.00000
    74.9408     2375.00000
    74.9540     2356.00000
    74.9671     2430.00000
    74.9802     2419.00000
    74.9934     2349.00000
    75.0065     2388.00000
    75.0196     2376.00000
    75.0328     2494.00000
    75.0459     2445.00000
    75.0590     2399.00000
    75.0722     2443.00000
    75.0853     2356.00000
    75.0984     2402.00000
    75.1115     2485.00000
    75.1247     2485.00000
    75.1378     2426.00000
    75.1509     2364.00000
    75.1641     2328.00000
    75.1772     2484.00000
    75.1903     2458.00000
    75.2035     2479.00000
    75.2166     2346.00000
    75.2297     2369.00000
    75.2428     2461.00000
    75.2560     2412.00000
    75.2691     2412.00000
    75.2822     2452.00000
    75.2954     2429.00000
    75.3085     2416.00000
    75.3216     2517.00000
    75.3348     2496.00000
    75.3479     2435.00000
    75.3610     2591.00000
    75.3741     2523.00000
    75.3873     2530.00000
    75.4004     2529.00000
    75.4135     2517.00000
    75.4267     2450.00000
    75.4398     2447.00000
    75.4529     2488.00000
    75.4661     2380.00000
    75.4792     2436.00000
    75.4923     2474.00000
    75.5054     2415.00000
    75.5186     2519.00000
    75.5317     2534.00000
    75.5448     2568.00000
    75.5580     2477.00000
    75.5711     2543.00000
    75.5842     2572.00000
    75.5974     2535.00000
    75.6105     2551.00000
    75.6236     2430.00000
    75.6367     2528.00000
    75.6499     2430.00000
    75.6630     2448.00000
    75.6761     2504.00000
    75.6893     2477.00000
    75.7024     2432.00000
    75.7155     2456.00000
    75.7287     2391.00000
    75.7418     2453.00000
    75.7549     2561.00000
    75.7681     2490.00000
    75.7812     2491.00000
    75.7943     2544.00000
    75.8074     2570.00000
    75.8206     2654.00000
    75.8337     2554.00000
    75.8468     2629.00000
    75.8600     2679.00000
    75.8731     2683.00000
    75.8862     2670.00000
    75.8994     2649.00000
    75.9125     2791.00000
    75.9256     2785.00000
    75.9387     2927.00000
    75.9519     2968.00000
    75.9650     2874.00000
    75.9781     2959.00000
    75.9913     2916.00000
    76.0044     3060.00000
    76.0175     3082.00000
    76.0307     3111.00000
    76.0438     3129.00000
    76.0569     3128.00000
    76.0701     3260.00000
    76.0832     3369.00000
    76.0963     3467.00000
    76.1094     3701.00000
    76.1226     3953.00000
    76.1357     4133.00000
    76.1488     4277.00000
    76.1620     4623.00000
    76.1751     4891.00000
    76.1882     4861.00000
    76.2014     4813.00000
    76.2145     4673.00000
    76.2276     4608.00000
    76.2407     4279.00000
    76.2539     3962.00000
    76.2670     3768.00000
    76.2801     3472.00000
    76.2933     3474.00000
    76.3064     3243.00000
    76.3195     3342.00000
    76.3327     3265.00000
    76.3458     3316.00000
    76.3589     3372.00000
    76.3720     3490.00000
    76.3852     3651.00000
    76.3983     3574.00000
    76.4114     3646.00000
    76.4246     3628.00000
    76.4377     3579.00000
    76.4508     3430.00000
    76.4640     3373.00000
    76.4771     3277.00000
    76.4902     3060.00000
    76.5033     2909.00000
    76.5165     2897.00000
    76.5296     2967.00000
    76.5427     2823.00000
    76.5559     2745.00000
    76.5690     2755.00000
    76.5821     2736.00000
    76.5953     2733.00000
    76.6084     2710.00000
    76.6215     2789.00000
    76.6347     2733.00000
    76.6478     2816.00000
    76.6609     2895.00000
    76.6740     2978.00000
    76.6872     3159.00000
    76.7003     3325.00000
    76.7134     3360.00000
    76.7266     3621.00000
    76.7397     3870.00000
    76.7528     4128.00000
    76.7660     4278.00000
    76.7791     4297.00000
    76.7922     4436.00000
    76.8053     4304.00000
    76.8185     4374.00000
    76.8316     4331.00000
    76.8447     4231.00000
    76.8579     3824.00000
    76.8710     3715.00000
    76.8841     3497.00000
    76.8973     3353.00000
    76.9104     3186.00000
    76.9235     3219.00000
    76.9366     3202.00000
    76.9498     3263.00000
    76.9629     3363.00000
    76.9760     3295.00000
    76.9892     3368.00000
    77.0023     3443.00000
    77.0154     3509.00000
    77.0286     3475.00000
    77.0417     3445.00000
    77.0548     3462.00000
    77.0679     3217.00000
    77.0811     3148.00000
    77.0942     2978.00000
    77.1073     2880.00000
    77.1205     2744.00000
    77.1336     2707.00000
    77.1467     2687.00000
    77.1599     2644.00000
    77.1730     2657.00000
    77.1861     2620.00000
    77.1993     2518.00000
    77.2124     2632.00000
    77.2255     2589.00000
    77.2386     2531.00000
    77.2518     2460.00000
    77.2649     2514.00000
    77.2780     2463.00000
    77.2912     2552.00000
    77.3043     2514.00000
    77.3174     2487.00000
    77.3306     2498.00000
    77.3437     2616.00000
    77.3568     2488.00000
    77.3699     2601.00000
    77.3831     2664.00000
    77.3962     2631.00000
    77.4093     2578.00000
    77.4225     2638.00000
    77.4356     2746.00000
    77.4487     2832.00000
    77.4619     2971.00000
    77.4750     3039.00000
    77.4881     3154.00000
    77.5013     3165.00000
    77.5144     3165.00000
    77.5275     3218.00000
    77.5406     3057.00000
    77.5538     2925.00000
    77.5669     2877.00000
    77.5800     2740.00000
    77.5932     2703.00000
    77.6063     2643.00000
    77.6194     2639.00000
    77.6326     2615.00000
    77.6457     2607.00000
    77.6588     2649.00000
    77.6719     2641.00000
    77.6851     2659.00000
    77.6982     2777.00000
    77.7113     2820.00000
    77.7245     2797.00000
    77.7376     2863.00000
    77.7507     2789.00000
    77.7639     2772.00000
    77.7770     2685.00000
    77.7901     2658.00000
    77.8032     2619.00000
    77.8164     2655.00000
    77.8295     2629.00000
    77.8426     2584.00000
    77.8558     2569.00000
    77.8689     2538.00000
    77.8820     2609.00000
    77.8952     2573.00000
    77.9083     2448.00000
    77.9214     2633.00000
    77.9345     2702.00000
    77.9477     2710.00000
    77.9608     2732.00000
    77.9739     2878.00000
    77.9871     2822.00000
    78.0002     2871.00000
    78.0133     2942.00000
    78.0265     2777.00000
    78.0396     2783.00000
    78.0527     2706.00000
    78.0658     2610.00000
    78.0790     2728.00000
    78.0921     2719.00000
    78.1052     2766.00000
    78.1184     2600.00000
    78.1315     2773.00000
    78.1446     2844.00000
    78.1578     2743.00000
    78.1709     2925.00000
    78.1840     2994.00000
    78.1972     3137.00000
    78.2103     3308.00000
    78.2234     3352.00000
    78.2365     3519.00000
    78.2497     3471.00000
    78.2628     3467.00000
    78.2759     3520.00000
    78.2891     3562.00000
    78.3022     3657.00000
    78.3153     3620.00000
    78.3285     3406.00000
    78.3416     3419.00000
    78.3547     3411.00000
    78.3679     3370.00000
    78.3810     3391.00000
    78.3941     3305.00000
    78.4072     3313.00000
    78.4204     3174.00000
    78.4335     3277.00000
    78.4466     3292.00000
    78.4598     3396.00000
    78.4729     3427.00000
    78.4860     3579.00000
    78.4992     3785.00000
    78.5123     3832.00000
    78.5254     4128.00000
    78.5385     4275.00000
    78.5517     4316.00000
    78.5648     4480.00000
    78.5779     4553.00000
    78.5911     4502.00000
    78.6042     4453.00000
    78.6173     4175.00000
    78.6305     4248.00000
    78.6436     4242.00000
    78.6567     4202.00000
    78.6698     4107.00000
    78.6830     4189.00000
    78.6961     4117.00000
    78.7092     4017.00000
    78.7224     4148.00000
    78.7355     4140.00000
    78.7486     4113.00000
    78.7618     4063.00000
    78.7749     4141.00000
    78.7880     3907.00000
    78.8011     4005.00000
    78.8143     3854.00000
    78.8274     3695.00000
    78.8405     3754.00000
    78.8537     3474.00000
    78.8668     3494.00000
    78.8799     3416.00000
    78.8931     3308.00000
    78.9062     3256.00000
    78.9193     3259.00000
    78.9324     3241.00000
    78.9456     3291.00000
    78.9587     3239.00000
    78.9718     3165.00000
    78.9850     3164.00000
    78.9981     3087.00000
    79.0112     3102.00000
    79.0244     2935.00000
    79.0375     2749.00000
    79.0506     2796.00000
    79.0638     2888.00000
    79.0769     2799.00000
    79.0900     2845.00000
    79.1031     2801.00000
    79.1163     2822.00000
    79.1294     2772.00000
    79.1425     2836.00000
    79.1557     2751.00000
    79.1688     2732.00000
    79.1819     2833.00000
    79.1951     2988.00000
    79.2082     3107.00000
    79.2213     3209.00000
    79.2345     3390.00000
    79.2476     3686.00000
    79.2607     3854.00000
    79.2738     4019.00000
    79.2870     4075.00000
    79.3001     4160.00000
    79.3132     3988.00000
    79.3264     3854.00000
    79.3395     3640.00000
    79.3526     3357.00000
    79.3658     3211.00000
    79.3789     3163.00000
    79.3920     3064.00000
    79.4051     3071.00000
    79.4183     3127.00000
    79.4314     3178.00000
    79.4445     3266.00000
    79.4577     3237.00000
    79.4708     3275.00000
    79.4839     3523.00000
    79.4971     3486.00000
    79.5102     3633.00000
    79.5233     3588.00000
    79.5364     3517.00000
    79.5496     3392.00000
    79.5627     3433.00000
    79.5758     3208.00000
    79.5890     3122.00000
    79.6021     2994.00000
    79.6152     2920.00000
    79.6284     2976.00000
    79.6415     2865.00000
    79.6546     2913.00000
    79.6677     2835.00000
    79.6809     2877.00000
    79.6940     2913.00000
    79.7071     2855.00000
    79.7203     2885.00000
    79.7334     2969.00000
    79.7465     3012.00000
    79.7597     2970.00000
    79.7728     2946.00000
    79.7859     2947.00000
    79.7990     3013.00000
    79.8122     3111.00000
    79.8253     3162.00000
    79.8384     3201.00000
    79.8516     3177.00000
    79.8647     3397.00000
    79.8778     3552.00000
    79.8910     3837.00000
    79.9041     3885.00000
    79.9172     4344.00000
    79.9304     4533.00000
    79.9435     4789.00000
    79.9566     4960.00000
    79.9697     4847.00000
    79.9829     4622.00000
    79.9960     4643.00000
    80.0091     4288.00000
    80.0223     4120.00000
    80.0354     3902.00000
    80.0485     3709.00000
    80.0617     3637.00000
    80.0748     3645.00000
    80.0879     3630.00000
    80.1010     3716.00000
    80.1142     3883.00000
    80.1273     4072.00000
    80.1404     4148.00000
    80.1536     4531.00000
    80.1667     4916.00000
    80.1798     5193.00000
    80.1930     5464.00000
    80.2061     5944.00000
    80.2192     6160.00000
    80.2323     6527.00000
    80.2455     6345.00000
    80.2586     6496.00000
    80.2717     6316.00000
    80.2849     6483.00000
    80.2980     6394.00000
    80.3111     6087.00000
    80.3243     5715.00000
    80.3374     5415.00000
    80.3505     4974.00000
    80.3637     4469.00000
    80.3768     4480.00000
    80.3899     4317.00000
    80.4030     4433.00000
    80.4162     4565.00000
    80.4293     4782.00000
    80.4424     5176.00000
    80.4556     5463.00000
    80.4687     5432.00000
    80.4818     5401.00000
    80.4950     5387.00000
    80.5081     5427.00000
    80.5212     5130.00000
    80.5343     5116.00000
    80.5475     4944.00000
    80.5606     4853.00000
    80.5737     4788.00000
    80.5869     4415.00000
    80.6000     4360.00000
    80.6131     4170.00000
    80.6263     4008.00000
    80.6394     4093.00000
    80.6525     4004.00000
    80.6656     3904.00000
    80.6788     3800.00000
    80.6919     3845.00000
    80.7050     3759.00000
    80.7182     3703.00000
    80.7313     3536.00000
    80.7444     3400.00000
    80.7576     3357.00000
    80.7707     3269.00000
    80.7838     3263.00000
    80.7970     3390.00000
    80.8101     3346.00000
    80.8232     3397.00000
    80.8363     3525.00000
    80.8495     3603.00000
    80.8626     3612.00000
    80.8757     3653.00000
    80.8889     3639.00000
    80.9020     3741.00000
    80.9151     3647.00000
    80.9283     3601.00000
    80.9414     3586.00000
    80.9545     3495.00000
    80.9676     3441.00000
    80.9808     3492.00000
    80.9939     3554.00000
    81.0070     3438.00000
    81.0202     3378.00000
    81.0333     3358.00000
    81.0464     3215.00000
    81.0596     3157.00000
    81.0727     3058.00000
    81.0858     3134.00000
    81.0989     3031.00000
    81.1121     2977.00000
    81.1252     3033.00000
    81.1383     2819.00000
    81.1515     2861.00000
    81.1646     2874.00000
    81.1777     2891.00000
    81.1909     2819.00000
    81.2040     2886.00000
    81.2171     2920.00000
    81.2302     2804.00000
    81.2434     2972.00000
    81.2565     2834.00000
    81.2696     2865.00000
    81.2828     2755.00000
    81.2959     2740.00000
    81.3090     2746.00000
    81.3222     2708.00000
    81.3353     2665.00000
    81.3484     2549.00000
    81.3616     2475.00000
    81.3747     2553.00000
    81.3878     2439.00000
    81.4009     2456.00000
    81.4141     2559.00000
    81.4272     2483.00000
    81.4403     2555.00000
    81.4535     2594.00000
    81.4666     2509.00000
    81.4797     2524.00000
    81.4929     2568.00000
    81.5060     2533.00000
    81.5191     2600.00000
    81.5322     2560.00000
    81.5454     2570.00000
    81.5585     2561.00000
    81.5716     2597.00000
    81.5848     2666.00000
    81.5979     2638.00000
    81.6110     2622.00000
    81.6242     2598.00000
    81.6373     2571.00000
    81.6504     2570.00000
    81.6636     2711.00000
    81.6767     2747.00000
    81.6898     2873.00000
    81.7029     2826.00000
    81.7161     2959.00000
    81.7292     3134.00000
    81.7423     3172.00000
    81.7555     3340.00000
    81.7686     3365.00000
    81.7817     3413.00000
    81.7949     3649.00000
    81.8080     3714.00000
    81.8211     3652.00000
    81.8342     3696.00000
    81.8474     3709.00000
    81.8605     3620.00000
    81.8736     3561.00000
    81.8868     3401.00000
    81.8999     3332.00000
    81.9130     3101.00000
    81.9262     2955.00000
    81.9393     2934.00000
    81.9524     2935.00000
    81.9655     2944.00000
    81.9787     3093.00000
    81.9918     3111.00000
    82.0049     3202.00000
    82.0181     3320.00000
    82.0312     3395.00000
    82.0443     3558.00000
    82.0575     3508.00000
    82.0706     3525.00000
    82.0837     3598.00000
    82.0968     3541.00000
    82.1100     3495.00000
    82.1231     3328.00000
    82.1362     3253.00000
    82.1494     3218.00000
    82.1625     3177.00000
    82.1756     2969.00000
    82.1888     2848.00000
    82.2019     2800.00000
    82.2150     2746.00000
    82.2281     2713.00000
    82.2413     2748.00000
    82.2544     2828.00000
    82.2675     2726.00000
    82.2807     2772.00000
    82.2938     2769.00000
    82.3069     2824.00000
    82.3201     2767.00000
    82.3332     2896.00000
    82.3463     2817.00000
    82.3595     2820.00000
    82.3726     2994.00000
    82.3857     2982.00000
    82.3988     3011.00000
    82.4120     3068.00000
    82.4251     3221.00000
    82.4382     3304.00000
    82.4514     3515.00000
    82.4645     3823.00000
    82.4776     3737.00000
    82.4908     3604.00000
    82.5039     3432.00000
    82.5170     3140.00000
    82.5302     2982.00000
    82.5433     2786.00000
    82.5564     2785.00000
    82.5695     2714.00000
    82.5827     2711.00000
    82.5958     2669.00000
    82.6089     2722.00000
    82.6221     2707.00000
    82.6352     2641.00000
    82.6483     2679.00000
    82.6615     2813.00000
    82.6746     2777.00000
    82.6877     2878.00000
    82.7008     3022.00000
    82.7140     3084.00000
    82.7271     3004.00000
    82.7402     3029.00000
    82.7534     2962.00000
    82.7665     2846.00000
    82.7796     2681.00000
    82.7928     2646.00000
    82.8059     2619.00000
    82.8190     2653.00000
    82.8321     2492.00000
    82.8453     2527.00000
    82.8584     2531.00000
    82.8715     2539.00000
    82.8847     2624.00000
    82.8978     2481.00000
    82.9109     2511.00000
    82.9241     2535.00000
    82.9372     2491.00000
    82.9503     2456.00000
    82.9634     2524.00000
    82.9766     2527.00000
    82.9897     2508.00000
    83.0028     2542.00000
    83.0160     2447.00000
    83.0291     2514.00000
    83.0422     2595.00000
    83.0554     2705.00000
    83.0685     2637.00000
    83.0816     2660.00000
    83.0947     2619.00000
    83.1079     2739.00000
    83.1210     2820.00000
    83.1341     2802.00000
    83.1473     2710.00000
    83.1604     2744.00000
    83.1735     2819.00000
    83.1867     2736.00000
    83.1998     2740.00000
    83.2129     2712.00000
    83.2261     2765.00000
    83.2392     2726.00000
    83.2523     2774.00000
    83.2654     2654.00000
    83.2786     2794.00000
    83.2917     2740.00000
    83.3048     2739.00000
    83.3180     2800.00000
    83.3311     2791.00000
    83.3442     2786.00000
    83.3574     2798.00000
    83.3705     2926.00000
    83.3836     2968.00000
    83.3967     3049.00000
    83.4099     3229.00000
    83.4230     3351.00000
    83.4361     3433.00000
    83.4493     3481.00000
    83.4624     3486.00000
    83.4755     3355.00000
    83.4887     3263.00000
    83.5018     3129.00000
    83.5149     2906.00000
    83.5281     2875.00000
    83.5412     2794.00000
    83.5543     2774.00000
    83.5674     2736.00000
    83.5806     2670.00000
    83.5937     2659.00000
    83.6068     2651.00000
    83.6200     2656.00000
    83.6331     2661.00000
    83.6462     2771.00000
    83.6594     2797.00000
    83.6725     2756.00000
    83.6856     2818.00000
    83.6987     2920.00000
    83.7119     2885.00000
    83.7250     2849.00000
    83.7381     2713.00000
    83.7513     2668.00000
    83.7644     2646.00000
    83.7775     2634.00000
    83.7907     2590.00000
    83.8038     2555.00000
    83.8169     2525.00000
    83.8300     2434.00000
    83.8432     2547.00000
    83.8563     2437.00000
    83.8694     2467.00000
    83.8826     2526.00000
    83.8957     2501.00000
    83.9088     2407.00000
    83.9220     2393.00000
    83.9351     2494.00000
    83.9482     2413.00000
    83.9613     2496.00000
    83.9745     2391.00000
    83.9876     2372.00000
    84.0007     2449.00000
    84.0139     2452.00000
    84.0270     2545.00000
    84.0401     2374.00000
    84.0533     2374.00000
    84.0664     2467.00000
    84.0795     2442.00000
    84.0927     2447.00000
    84.1058     2399.00000
    84.1189     2347.00000
    84.1320     2363.00000
    84.1452     2424.00000
    84.1583     2368.00000
    84.1714     2480.00000
    84.1846     2432.00000
    84.1977     2477.00000
    84.2108     2380.00000
    84.2240     2472.00000
    84.2371     2346.00000
    84.2502     2519.00000
    84.2633     2478.00000
    84.2765     2553.00000
    84.2896     2643.00000
    84.3027     2547.00000
    84.3159     2498.00000
    84.3290     2522.00000
    84.3421     2610.00000
    84.3553     2604.00000
    84.3684     2492.00000
    84.3815     2563.00000
    84.3946     2653.00000
    84.4078     2659.00000
    84.4209     2477.00000
    84.4340     2556.00000
    84.4472     2510.00000
    84.4603     2537.00000
    84.4734     2483.00000
    84.4866     2430.00000
    84.4997     2428.00000
    84.5128     2391.00000
    84.5260     2460.00000
    84.5391     2585.00000
    84.5522     2566.00000
    84.5653     2541.00000
    84.5785     2520.00000
    84.5916     2554.00000
    84.6047     2513.00000
    84.6179     2485.00000
    84.6310     2462.00000
    84.6441     2450.00000
    84.6573     2585.00000
    84.6704     2620.00000
    84.6835     2540.00000
    84.6966     2600.00000
    84.7098     2510.00000
    84.7229     2469.00000
    84.7360     2550.00000
    84.7492     2523.00000
    84.7623     2491.00000
    84.7754     2558.00000
    84.7886     2497.00000
    84.8017     2409.00000
    84.8148     2457.00000
    84.8279     2474.00000
    84.8411     2516.00000
    84.8542     2492.00000
    84.8673     2411.00000
    84.8805     2461.00000
    84.8936     2462.00000
    84.9067     2422.00000
    84.9199     2379.00000
    84.9330     2457.00000
    84.9461     2489.00000
    84.9593     2465.00000
    84.9724     2458.00000
    84.9855     2666.00000
    84.9986     2544.00000
    85.0118     2621.00000
    85.0249     2698.00000
    85.0380     2681.00000
    85.0512     2711.00000
    85.0643     2661.00000
    85.0774     2742.00000
    85.0906     2854.00000
    85.1037     2820.00000
    85.1168     2963.00000
    85.1299     2888.00000
    85.1431     2960.00000
    85.1562     3009.00000
    85.1693     3071.00000
    85.1825     2955.00000
    85.1956     3132.00000
    85.2087     3226.00000
    85.2219     3181.00000
    85.2350     3112.00000
    85.2481     3197.00000
    85.2612     3106.00000
    85.2744     3188.00000
    85.2875     3186.00000
    85.3006     3206.00000
    85.3138     3292.00000
    85.3269     3563.00000
    85.3400     3540.00000
    85.3532     3606.00000
    85.3663     3880.00000
    85.3794     3933.00000
    85.3925     4082.00000
    85.4057     4252.00000
    85.4188     4492.00000
    85.4319     4390.00000
    85.4451     4330.00000
    85.4582     4314.00000
    85.4713     4245.00000
    85.4845     4029.00000
    85.4976     3701.00000
    85.5107     3736.00000
    85.5238     3573.00000
    85.5370     3346.00000
    85.5501     3417.00000
    85.5632     3373.00000
    85.5764     3341.00000
    85.5895     3394.00000
    85.6026     3337.00000
    85.6158     3209.00000
    85.6289     3300.00000
    85.6420     3207.00000
    85.6552     3176.00000
    85.6683     3249.00000
    85.6814     3388.00000
    85.6945     3234.00000
    85.7077     3322.00000
    85.7208     3370.00000
    85.7339     3171.00000
    85.7471     3011.00000
    85.7602     2965.00000
    85.7733     2863.00000
    85.7865     2802.00000
    85.7996     2817.00000
    85.8127     2815.00000
    85.8259     2747.00000
    85.8390     2667.00000
    85.8521     2617.00000
    85.8652     2635.00000
    85.8784     2652.00000
    85.8915     2625.00000
    85.9046     2645.00000
    85.9178     2621.00000
    85.9309     2590.00000
    85.9440     2618.00000
    85.9572     2480.00000
    85.9703     2449.00000
    85.9834     2542.00000
    85.9965     2463.00000
    86.0097     2482.00000
    86.0228     2622.00000
    86.0359     2561.00000
    86.0491     2615.00000
    86.0622     2663.00000
    86.0753     2671.00000
    86.0885     2655.00000
    86.1016     2693.00000
    86.1147     2861.00000
    86.1278     3044.00000
    86.1410     3022.00000
    86.1541     3145.00000
    86.1672     3090.00000
    86.1804     3089.00000
    86.1935     3037.00000
    86.2066     2892.00000
    86.2198     2892.00000
    86.2329     2813.00000
    86.2460     2828.00000
    86.2591     2633.00000
    86.2723     2592.00000
    86.2854     2558.00000
    86.2985     2643.00000
    86.3117     2558.00000
    86.3248     2568.00000
    86.3379     2652.00000
    86.3511     2628.00000
    86.3642     2629.00000
    86.3773     2729.00000
    86.3904     2728.00000
    86.4036     2769.00000
    86.4167     2721.00000
    86.4298     2733.00000
    86.4430     2773.00000
    86.4561     2786.00000
    86.4692     2781.00000
    86.4824     2674.00000
    86.4955     2752.00000
    86.5086     2667.00000
    86.5218     2708.00000
    86.5349     2696.00000
    86.5480     2707.00000
    86.5611     2673.00000
    86.5743     2736.00000
    86.5874     2775.00000
    86.6005     2840.00000
    86.6137     2992.00000
    86.6268     2900.00000
    86.6399     3144.00000
    86.6531     3261.00000
    86.6662     3377.00000
    86.6793     3235.00000
    86.6925     3389.00000
    86.7056     3242.00000
    86.7187     3069.00000
    86.7318     3027.00000
    86.7450     3000.00000
    86.7581     2851.00000
    86.7712     2792.00000
    86.7844     2817.00000
    86.7975     2791.00000
    86.8106     2786.00000
    86.8238     2745.00000
    86.8369     2605.00000
    86.8500     2626.00000
    86.8631     2774.00000
    86.8763     2685.00000
    86.8894     2731.00000
    86.9025     2939.00000
    86.9157     2905.00000
    86.9288     2910.00000
    86.9419     2894.00000
    86.9551     2926.00000
    86.9682     2913.00000
    86.9813     2782.00000
    86.9944     2843.00000
    87.0076     2771.00000
    87.0207     2831.00000
    87.0338     2831.00000
    87.0470     2779.00000
    87.0601     2881.00000
    87.0732     2852.00000
    87.0864     2805.00000
    87.0995     3020.00000
    87.1126     3007.00000
    87.1257     3152.00000
    87.1389     3367.00000
    87.1520     3337.00000
    87.1651     3567.00000
    87.1783     3566.00000
    87.1914     3555.00000
    87.2045     3457.00000
    87.2177     3369.00000
    87.2308     3318.00000
    87.2439     3309.00000
    87.2570     3022.00000
    87.2702     3083.00000
    87.2833     2866.00000
    87.2964     2779.00000
    87.3096     2726.00000
    87.3227     2665.00000
    87.3358     2790.00000
    87.3490     2710.00000
    87.3621     2844.00000
    87.3752     2781.00000
    87.3884     2882.00000
    87.4015     2881.00000
    87.4146     2873.00000
    87.4277     2904.00000
    87.4409     3000.00000
    87.4540     3022.00000
    87.4671     3070.00000
    87.4803     3050.00000
    87.4934     3056.00000
    87.5065     2910.00000
    87.5197     2889.00000
    87.5328     2839.00000
    87.5459     2852.00000
    87.5590     2780.00000
    87.5722     2810.00000
    87.5853     2783.00000
    87.5984     2813.00000
    87.6116     2922.00000
    87.6247     2945.00000
    87.6378     2994.00000
    87.6510     3149.00000
    87.6641     3400.00000
    87.6772     3413.00000
    87.6904     3558.00000
    87.7035     3612.00000
    87.7166     3529.00000
    87.7297     3382.00000
    87.7429     3277.00000
    87.7560     3159.00000
    87.7691     3075.00000
    87.7823     2976.00000
    87.7954     2953.00000
    87.8085     2868.00000
    87.8217     2777.00000
    87.8348     2833.00000
    87.8479     2833.00000
    87.8610     2764.00000
    87.8742     2786.00000
    87.8873     2840.00000
    87.9004     2716.00000
    87.9136     2766.00000
    87.9267     2936.00000
    87.9398     2913.00000
    87.9530     2933.00000
    87.9661     3113.00000
    87.9792     3125.00000
    87.9923     3088.00000
    88.0055     2986.00000
    88.0186     2905.00000
    88.0317     2916.00000
    88.0449     2922.00000
    88.0580     3076.00000
    88.0711     3098.00000
    88.0843     3124.00000
    88.0974     3228.00000
    88.1105     3392.00000
    88.1236     3502.00000
    88.1368     3626.00000
    88.1499     3770.00000
    88.1630     3770.00000
    88.1762     3691.00000
    88.1893     3862.00000
    88.2024     3636.00000
    88.2156     3647.00000
    88.2287     3453.00000
    88.2418     3233.00000
    88.2550     3260.00000
    88.2681     3214.00000
    88.2812     2975.00000
    88.2943     3018.00000
    88.3075     3011.00000
    88.3206     2983.00000
    88.3337     2994.00000
    88.3469     3030.00000
    88.3600     3098.00000
    88.3731     3206.00000
    88.3863     3171.00000
    88.3994     3173.00000
    88.4125     3205.00000
    88.4256     3244.00000
    88.4388     3185.00000
    88.4519     3207.00000
    88.4650     3197.00000
    88.4782     3129.00000
    88.4913     3094.00000
    88.5044     3039.00000
    88.5176     2818.00000
    88.5307     2848.00000
    88.5438     2691.00000
    88.5569     2722.00000
    88.5701     2794.00000
    88.5832     2701.00000
    88.5963     2736.00000
    88.6095     2644.00000
    88.6226     2643.00000
    88.6357     2677.00000
    88.6489     2619.00000
    88.6620     2770.00000
    88.6751     2598.00000
    88.6882     2580.00000
    88.7014     2707.00000
    88.7145     2639.00000
    88.7276     2513.00000
    88.7408     2563.00000
    88.7539     2599.00000
    88.7670     2518.00000
    88.7802     2533.00000
    88.7933     2632.00000
    88.8064     2663.00000
    88.8196     2616.00000
    88.8327     2663.00000
    88.8458     2752.00000
    88.8589     2820.00000
    88.8721     2846.00000
    88.8852     3019.00000
    88.8983     3080.00000
    88.9115     3121.00000
    88.9246     3228.00000
    88.9377     3319.00000
    88.9509     3230.00000
    88.9640     3123.00000
    88.9771     3151.00000
    88.9902     3003.00000
    89.0034     3077.00000
    89.0165     2816.00000
    89.0296     2797.00000
    89.0428     2705.00000
    89.0559     2669.00000
    89.0690     2765.00000
    89.0822     2692.00000
    89.0953     2725.00000
    89.1084     2704.00000
    89.1216     2724.00000
    89.1347     2812.00000
    89.1478     2735.00000
    89.1609     2749.00000
    89.1741     2885.00000
    89.1872     2849.00000
    89.2003     2863.00000
    89.2135     2891.00000
    89.2266     2957.00000
    89.2397     2995.00000
    89.2529     2891.00000
    89.2660     2802.00000
    89.2791     2816.00000
    89.2922     2750.00000
    89.3054     2688.00000
    89.3185     2803.00000
    89.3316     2868.00000
    89.3448     2772.00000
    89.3579     2786.00000
    89.3710     2810.00000
    89.3842     2997.00000
    89.3973     2898.00000
    89.4104     2885.00000
    89.4235     2815.00000
    89.4367     2694.00000
    89.4498     2719.00000
    89.4629     2753.00000
    89.4761     2679.00000
    89.4892     2511.00000
    89.5023     2590.00000
    89.5155     2553.00000
    89.5286     2624.00000
    89.5417     2691.00000
    89.5548     2588.00000
    89.5680     2601.00000
    89.5811     2599.00000
    89.5942     2570.00000
    89.6074     2606.00000
    89.6205     2760.00000
    89.6336     2710.00000
    89.6468     2798.00000
    89.6599     2811.00000
    89.6730     2847.00000
    89.6861     2984.00000
    89.6993     2905.00000
    89.7124     3026.00000
    89.7255     3055.00000
    89.7387     3247.00000
    89.7518     3460.00000
    89.7649     3716.00000
    89.7781     3709.00000
    89.7912     3615.00000
    89.8043     3470.00000
    89.8175     3276.00000
    89.8306     3328.00000
    89.8437     3099.00000
    89.8568     3100.00000
    89.8700     3065.00000
    89.8831     2951.00000
    89.8962     2948.00000
    89.9094     2917.00000
    89.9225     2959.00000
    89.9356     3057.00000
    89.9488     3123.00000
    89.9619     3174.00000
    89.9750     3216.00000
    89.9882     3296.00000
    90.0013     3515.00000
    90.0144     3593.00000
    90.0275     3817.00000
    90.0407     3753.00000
    90.0538     3854.00000
    90.0669     3687.00000
    90.0801     3707.00000
    90.0932     3651.00000
    90.1063     3520.00000
    90.1195     3382.00000
    90.1326     3447.00000
    90.1457     3120.00000
    90.1588     3124.00000
    90.1720     3225.00000
    90.1851     3068.00000
    90.1982     3122.00000
    90.2114     3069.00000
    90.2245     2975.00000
    90.2376     2952.00000
    90.2508     2996.00000
    90.2639     2905.00000
    90.2770     3062.00000
    90.2901     3091.00000
    90.3033     3116.00000
    90.3164     3178.00000
    90.3295     3103.00000
    90.3427     3212.00000
    90.3558     3230.00000
    90.3689     3227.00000
    90.3821     3338.00000
    90.3952     3467.00000
    90.4083     3513.00000
    90.4214     3466.00000
    90.4346     3409.00000
    90.4477     3341.00000
    90.4608     3314.00000
    90.4740     3050.00000
    90.4871     3033.00000
    90.5002     2841.00000
    90.5134     2808.00000
    90.5265     2723.00000
    90.5396     2811.00000
    90.5527     2741.00000
    90.5659     2783.00000
    90.5790     2808.00000
    90.5921     2808.00000
    90.6053     2812.00000
    90.6184     2954.00000
    90.6315     2833.00000
    90.6447     2821.00000
    90.6578     2997.00000
    90.6709     2892.00000
    90.6841     3101.00000
    90.6972     3070.00000
    90.7103     2908.00000
    90.7234     3032.00000
    90.7366     3028.00000
    90.7497     2995.00000
    90.7628     2845.00000
    90.7760     2885.00000
    90.7891     2934.00000
    90.8022     2837.00000
    90.8154     3002.00000
    90.8285     3023.00000
    90.8416     3153.00000
    90.8548     3116.00000
    90.8679     3098.00000
    90.8810     3218.00000
    90.8941     3048.00000
    90.9073     3163.00000
    90.9204     2958.00000
    90.9335     2974.00000
    90.9467     2871.00000
    90.9598     2855.00000
    90.9729     2876.00000
    90.9861     2814.00000
    90.9992     2748.00000
    91.0123     2699.00000
    91.0254     2830.00000
    91.0386     2928.00000
    91.0517     2793.00000
    91.0648     2904.00000
    91.0780     3060.00000
    91.0911     3172.00000
    91.1042     3291.00000
    91.1174     3320.00000
    91.1305     3570.00000
    91.1436     3631.00000
    91.1567     3701.00000
    91.1699     3647.00000
    91.1830     3739.00000
    91.1961     3641.00000
    91.2093     3689.00000
    91.2224     3649.00000
    91.2355     3517.00000
    91.2487     3351.00000
    91.2618     3307.00000
    91.2749     3139.00000
    91.2880     3004.00000
    91.3012     2951.00000
    91.3143     2803.00000
    91.3274     2830.00000
    91.3406     2900.00000
    91.3537     2889.00000
    91.3668     2879.00000
    91.3800     2898.00000
    91.3931     3017.00000
    91.4062     3086.00000
    91.4193     3184.00000
    91.4325     3319.00000
    91.4456     3332.00000
    91.4587     3388.00000
    91.4719     3572.00000
    91.4850     3759.00000
    91.4981     3900.00000
    91.5113     3806.00000
    91.5244     4040.00000
    91.5375     4192.00000
    91.5507     4433.00000
    91.5638     4264.00000
    91.5769     4166.00000
    91.5900     4018.00000
    91.6032     3738.00000
    91.6163     3546.00000
    91.6294     3348.00000
    91.6426     3204.00000
    91.6557     3199.00000
    91.6688     3097.00000
    91.6820     2939.00000
    91.6951     2878.00000
    91.7082     2861.00000
    91.7213     2887.00000
    91.7345     2898.00000
    91.7476     2865.00000
    91.7607     2786.00000
    91.7739     2960.00000
    91.7870     2973.00000
    91.8001     3083.00000
    91.8133     3257.00000
    91.8264     3279.00000
    91.8395     3378.00000
    91.8526     3523.00000
    91.8658     3330.00000
    91.8789     3342.00000
    91.8920     3258.00000
    91.9052     3082.00000
    91.9183     3106.00000
    91.9314     2778.00000
    91.9446     2957.00000
    91.9577     2829.00000
    91.9708     2696.00000
    91.9840     2725.00000
    91.9971     2748.00000
    92.0102     2727.00000
    92.0233     2698.00000
    92.0365     2691.00000
    92.0496     2740.00000
    92.0627     2765.00000
    92.0759     2759.00000
    92.0890     2707.00000
    92.1021     2679.00000
    92.1153     2877.00000
    92.1284     2814.00000
    92.1415     2944.00000
    92.1546     3023.00000
    92.1678     2865.00000
    92.1809     2909.00000
    92.1940     2979.00000
    92.2072     2938.00000
    92.2203     2979.00000
    92.2334     2948.00000
    92.2466     2952.00000
    92.2597     2900.00000
    92.2728     2891.00000
    92.2859     2857.00000
    92.2991     2882.00000
    92.3122     2942.00000
    92.3253     2813.00000
    92.3385     2935.00000
    92.3516     2985.00000
    92.3647     2983.00000
    92.3779     2884.00000
    92.3910     3043.00000
    92.4041     2911.00000
    92.4173     3026.00000
    92.4304     3168.00000
    92.4435     3232.00000
    92.4566     3306.00000
    92.4698     3310.00000
    92.4829     3577.00000
    92.4960     3743.00000
    92.5092     3800.00000
    92.5223     3697.00000
    92.5354     3868.00000
    92.5486     3686.00000
    92.5617     3649.00000
    92.5748     3561.00000
    92.5879     3259.00000
    92.6011     3115.00000
    92.6142     3099.00000
    92.6273     3016.00000
    92.6405     2947.00000
    92.6536     2893.00000
    92.6667     2924.00000
    92.6799     2857.00000
    92.6930     2920.00000
    92.7061     2873.00000
    92.7192     2896.00000
    92.7324     2955.00000
    92.7455     2855.00000
    92.7586     2863.00000
    92.7718     2948.00000
    92.7849     2868.00000
    92.7980     2994.00000
    92.8112     3089.00000
    92.8243     3142.00000
    92.8374     3019.00000
    92.8505     2945.00000
    92.8637     2925.00000
    92.8768     2709.00000
    92.8899     2862.00000
    92.9031     2813.00000
    92.9162     2712.00000
    92.9293     2593.00000
    92.9425     2570.00000
    92.9556     2632.00000
    92.9687     2572.00000
    92.9819     2500.00000
    92.9950     2661.00000
    93.0081     2489.00000
    93.0212     2492.00000
    93.0344     2483.00000
    93.0475     2471.00000
    93.0606     2563.00000
    93.0738     2542.00000
    93.0869     2462.00000
    93.1000     2352.00000
    93.1132     2360.00000
    93.1263     2391.00000
    93.1394     2445.00000
    93.1525     2425.00000
    93.1657     2384.00000
    93.1788     2354.00000
    93.1919     2416.00000
    93.2051     2438.00000
    93.2182     2441.00000
    93.2313     2317.00000
    93.2445     2401.00000
    93.2576     2373.00000
    93.2707     2427.00000
    93.2839     2451.00000
    93.2970     2378.00000
    93.3101     2463.00000
    93.3232     2389.00000
    93.3364     2399.00000
    93.3495     2369.00000
    93.3626     2370.00000
    93.3758     2432.00000
    93.3889     2424.00000
    93.4020     2500.00000
    93.4152     2396.00000
    93.4283     2467.00000
    93.4414     2369.00000
    93.4545     2514.00000
    93.4677     2453.00000
    93.4808     2537.00000
    93.4939     2403.00000
    93.5071     2462.00000
    93.5202     2495.00000
    93.5333     2560.00000
    93.5465     2621.00000
    93.5596     2687.00000
    93.5727     2775.00000
    93.5858     2849.00000
    93.5990     2880.00000
    93.6121     2877.00000
    93.6252     3097.00000
    93.6384     3211.00000
    93.6515     3176.00000
    93.6646     3165.00000
    93.6778     3083.00000
    93.6909     2964.00000
    93.7040     2906.00000
    93.7171     2876.00000
    93.7303     2775.00000
    93.7434     2866.00000
    93.7565     2763.00000
    93.7697     2773.00000
    93.7828     2752.00000
    93.7959     2889.00000
    93.8091     2777.00000
    93.8222     2779.00000
    93.8353     2804.00000
    93.8484     2898.00000
    93.8616     2888.00000
    93.8747     2933.00000
    93.8878     2904.00000
    93.9010     2998.00000
    93.9141     3003.00000
    93.9272     2967.00000
    93.9404     3038.00000
    93.9535     2971.00000
    93.9666     2934.00000
    93.9798     2891.00000
    93.9929     2757.00000
    94.0060     2713.00000
    94.0191     2742.00000
    94.0323     2675.00000
    94.0454     2573.00000
    94.0585     2639.00000
    94.0717     2688.00000
    94.0848     2677.00000
    94.0979     2544.00000
    94.1111     2759.00000
    94.1242     2630.00000
    94.1373     2620.00000
    94.1505     2606.00000
    94.1636     2669.00000
    94.1767     2576.00000
    94.1898     2655.00000
    94.2030     2652.00000
    94.2161     2717.00000
    94.2292     2613.00000
    94.2424     2624.00000
    94.2555     2712.00000
    94.2686     2669.00000
    94.2818     2641.00000
    94.2949     2671.00000
    94.3080     2826.00000
    94.3211     2880.00000
    94.3343     2933.00000
    94.3474     2968.00000
    94.3605     3039.00000
    94.3737     3167.00000
    94.3868     3179.00000
    94.3999     3264.00000
    94.4131     3143.00000
    94.4262     3221.00000
    94.4393     3170.00000
    94.4524     3184.00000
    94.4656     3312.00000
    94.4787     3233.00000
    94.4918     3356.00000
    94.5050     3388.00000
    94.5181     3226.00000
    94.5312     3294.00000
    94.5444     3138.00000
    94.5575     2996.00000
    94.5706     2849.00000
    94.5837     2758.00000
    94.5969     2826.00000
    94.6100     2818.00000
    94.6231     2777.00000
    94.6363     2789.00000
    94.6494     2715.00000
    94.6625     2847.00000
    94.6757     2745.00000
    94.6888     2747.00000
    94.7019     2822.00000
    94.7150     2819.00000
    94.7282     2845.00000
    94.7413     2772.00000
    94.7544     2825.00000
    94.7676     2847.00000
    94.7807     2921.00000
    94.7938     2873.00000
    94.8070     2851.00000
    94.8201     2845.00000
    94.8332     2840.00000
    94.8464     2694.00000
    94.8595     2742.00000
    94.8726     2609.00000
    94.8857     2673.00000
    94.8989     2548.00000
    94.9120     2652.00000
    94.9251     2518.00000
    94.9383     2567.00000
    94.9514     2398.00000
    94.9645     2471.00000
    94.9777     2495.00000
    94.9908     2475.00000
    95.0039     2423.00000
    95.0170     2401.00000
    95.0302     2464.00000
    95.0433     2441.00000
    95.0564     2391.00000
    95.0696     2517.00000
    95.0827     2497.00000
    95.0958     2401.00000
    95.1090     2427.00000
    95.1221     2483.00000
    95.1352     2369.00000
    95.1484     2458.00000
    95.1615     2448.00000
    95.1746     2402.00000
    95.1877     2493.00000
    95.2009     2505.00000
    95.2140     2439.00000
    95.2271     2344.00000
    95.2403     2377.00000
    95.2534     2464.00000
    95.2665     2515.00000
    95.2797     2386.00000
    95.2928     2406.00000
    95.3059     2482.00000
    95.3190     2383.00000
    95.3322     2437.00000
    95.3453     2477.00000
    95.3584     2476.00000
    95.3716     2344.00000
    95.3847     2349.00000
    95.3978     2441.00000
    95.4110     2312.00000
    95.4241     2362.00000
    95.4372     2334.00000
    95.4503     2416.00000
    95.4635     2391.00000
    95.4766     2465.00000
    95.4897     2394.00000
    95.5029     2340.00000
    95.5160     2443.00000
    95.5291     2379.00000
    95.5423     2384.00000
    95.5554     2354.00000
    95.5685     2408.00000
    95.5816     2439.00000
    95.5948     2387.00000
    95.6079     2319.00000
    95.6210     2415.00000
    95.6342     2485.00000
    95.6473     2481.00000
    95.6604     2411.00000
    95.6736     2329.00000
    95.6867     2468.00000
    95.6998     2346.00000
    95.7130     2402.00000
    95.7261     2423.00000
    95.7392     2383.00000
    95.7523     2431.00000
    95.7655     2450.00000
    95.7786     2443.00000
    95.7917     2463.00000
    95.8049     2515.00000
    95.8180     2459.00000
    95.8311     2467.00000
    95.8443     2654.00000
    95.8574     2556.00000
    95.8705     2481.00000
    95.8836     2477.00000
    95.8968     2620.00000
    95.9099     2526.00000
    95.9230     2555.00000
    95.9362     2534.00000
    95.9493     2504.00000
    95.9624     2552.00000
    95.9756     2482.00000
    95.9887     2430.00000
    96.0018     2426.00000
    96.0149     2516.00000
    96.0281     2455.00000
    96.0412     2440.00000
    96.0543     2486.00000
    96.0675     2487.00000
    96.0806     2448.00000
    96.0937     2475.00000
    96.1069     2400.00000
    96.1200     2619.00000
    96.1331     2473.00000
    96.1463     2525.00000
    96.1594     2515.00000
    96.1725     2587.00000
    96.1856     2452.00000
    96.1988     2516.00000
    96.2119     2507.00000
    96.2250     2549.00000
    96.2382     2593.00000
    96.2513     2567.00000
    96.2644     2467.00000
    96.2776     2572.00000
    96.2907     2546.00000
    96.3038     2512.00000
    96.3169     2604.00000
    96.3301     2598.00000
    96.3432     2792.00000
    96.3563     2678.00000
    96.3695     2776.00000
    96.3826     2929.00000
    96.3957     2977.00000
    96.4089     3154.00000
    96.4220     3195.00000
    96.4351     3351.00000
    96.4482     3544.00000
    96.4614     3715.00000
    96.4745     3587.00000
    96.4876     3629.00000
    96.5008     3632.00000
    96.5139     3506.00000
    96.5270     3367.00000
    96.5402     3223.00000
    96.5533     3181.00000
    96.5664     3136.00000
    96.5796     3170.00000
    96.5927     3075.00000
    96.6058     3165.00000
    96.6189     3285.00000
    96.6321     3307.00000
    96.6452     3358.00000
    96.6583     3310.00000
    96.6715     3373.00000
    96.6846     3482.00000
    96.6977     3539.00000
    96.7109     3517.00000
    96.7240     3342.00000
    96.7371     3482.00000
    96.7502     3328.00000
    96.7634     3422.00000
    96.7765     3473.00000
    96.7896     3299.00000
    96.8028     3209.00000
    96.8159     3253.00000
    96.8290     3092.00000
    96.8422     3156.00000
    96.8553     2947.00000
    96.8684     2903.00000
    96.8815     2912.00000
    96.8947     2863.00000
    96.9078     2789.00000
    96.9209     2753.00000
    96.9341     2908.00000
    96.9472     2956.00000
    96.9603     2890.00000
    96.9735     2935.00000
    96.9866     2812.00000
    96.9997     2900.00000
    97.0128     2868.00000
    97.0260     2884.00000
    97.0391     2836.00000
    97.0522     2743.00000
    97.0654     2732.00000
    97.0785     2749.00000
    97.0916     2635.00000
    97.1048     2614.00000
    97.1179     2569.00000
    97.1310     2596.00000
    97.1442     2561.00000
    97.1573     2611.00000
    97.1704     2453.00000
    97.1835     2506.00000
    97.1967     2542.00000
    97.2098     2459.00000
    97.2229     2595.00000
    97.2361     2598.00000
    97.2492     2541.00000
    97.2623     2625.00000
    97.2755     2618.00000
    97.2886     2672.00000
    97.3017     2660.00000
    97.3148     2704.00000
    97.3280     2825.00000
    97.3411     2971.00000
    97.3542     2946.00000
    97.3674     3014.00000
    97.3805     3246.00000
    97.3936     3327.00000
    97.4068     3313.00000
    97.4199     3330.00000
    97.4330     3432.00000
    97.4462     3454.00000
    97.4593     3374.00000
    97.4724     3415.00000
    97.4855     3237.00000
    97.4987     3230.00000
    97.5118     3192.00000
    97.5249     3011.00000
    97.5381     2907.00000
    97.5512     2844.00000
    97.5643     2732.00000
    97.5775     2704.00000
    97.5906     2606.00000
    97.6037     2655.00000
    97.6168     2574.00000
    97.6300     2650.00000
    97.6431     2680.00000
    97.6562     2689.00000
    97.6694     2833.00000
    97.6825     2746.00000
    97.6956     2898.00000
    97.7088     2878.00000
    97.7219     2891.00000
    97.7350     2821.00000
    97.7481     2884.00000
    97.7613     2990.00000
    97.7744     2992.00000
    97.7875     2911.00000
    97.8007     2959.00000
    97.8138     2871.00000
    97.8269     2839.00000
    97.8401     2815.00000
    97.8532     2765.00000
    97.8663     2655.00000
    97.8794     2689.00000
    97.8926     2546.00000
    97.9057     2616.00000
    97.9188     2495.00000
    97.9320     2515.00000
    97.9451     2502.00000
    97.9582     2443.00000
    97.9714     2471.00000
    97.9845     2470.00000
    97.9976     2504.00000
    98.0107     2408.00000
    98.0239     2606.00000
    98.0370     2495.00000
    98.0501     2554.00000
    98.0633     2492.00000
    98.0764     2516.00000
    98.0895     2533.00000
    98.1027     2519.00000
    98.1158     2552.00000
    98.1289     2589.00000
    98.1421     2578.00000
    98.1552     2531.00000
    98.1683     2614.00000
    98.1814     2552.00000
    98.1946     2696.00000
    98.2077     2684.00000
    98.2208     2774.00000
    98.2340     2755.00000
    98.2471     2822.00000
    98.2602     2891.00000
    98.2734     2871.00000
    98.2865     2962.00000
    98.2996     2997.00000
    98.3128     2981.00000
    98.3259     3161.00000
    98.3390     3102.00000
    98.3521     3104.00000
    98.3653     3409.00000
    98.3784     3443.00000
    98.3915     3405.00000
    98.4047     3491.00000
    98.4178     3483.00000
    98.4309     3597.00000
    98.4441     3709.00000
    98.4572     3647.00000
    98.4703     3660.00000
    98.4834     3680.00000
    98.4966     3822.00000
    98.5097     3847.00000
    98.5228     3780.00000
    98.5360     3649.00000
    98.5491     3610.00000
    98.5622     3584.00000
    98.5754     3422.00000
    98.5885     3408.00000
    98.6016     3208.00000
    98.6147     3253.00000
    98.6279     3294.00000
    98.6410     3257.00000
    98.6541     3244.00000
    98.6673     3230.00000
    98.6804     3216.00000
    98.6935     3195.00000
    98.7067     3189.00000
    98.7198     3284.00000
    98.7329     3266.00000
    98.7460     3351.00000
    98.7592     3472.00000
    98.7723     3486.00000
    98.7854     3457.00000
    98.7986     3621.00000
    98.8117     3645.00000
    98.8248     3902.00000
    98.8380     3888.00000
    98.8511     4186.00000
    98.8642     4256.00000
    98.8773     4138.00000
    98.8905     4199.00000
    98.9036     4148.00000
    98.9167     4052.00000
    98.9299     4003.00000
    98.9430     3891.00000
    98.9561     4114.00000
    98.9693     3986.00000
    98.9824     3996.00000
    98.9955     4072.00000
    99.0087     4262.00000
    99.0218     4309.00000
    99.0349     4598.00000
    99.0480     4550.00000
    99.0612     4446.00000
    99.0743     4594.00000
    99.0874     4504.00000
    99.1006     4344.00000
    99.1137     4252.00000
    99.1268     4375.00000
    99.1400     4162.00000
    99.1531     4095.00000
    99.1662     4030.00000
    99.1793     3888.00000
    99.1925     3869.00000
    99.2056     3991.00000
    99.2187     3848.00000
    99.2319     3699.00000
    99.2450     3669.00000
    99.2581     3604.00000
    99.2713     3626.00000
    99.2844     3543.00000
    99.2975     3364.00000
    99.3107     3327.00000
    99.3238     3352.00000
    99.3369     3440.00000
    99.3500     3430.00000
    99.3632     3449.00000
    99.3763     3547.00000
    99.3894     3379.00000
    99.4026     3448.00000
    99.4157     3379.00000
    99.4288     3399.00000
    99.4420     3314.00000
    99.4551     3263.00000
    99.4682     3205.00000
    99.4813     3177.00000
    99.4945     3056.00000
    99.5076     3064.00000
    99.5207     2857.00000
    99.5339     3012.00000
    99.5470     2935.00000
    99.5601     2901.00000
    99.5733     2816.00000
    99.5864     2926.00000
    99.5995     2699.00000
    99.6126     2699.00000
    99.6258     2722.00000
    99.6389     2806.00000
    99.6520     2602.00000
    99.6652     2715.00000
    99.6783     2840.00000
    99.6914     2757.00000
    99.7046     2700.00000
    99.7177     2874.00000
    99.7308     2821.00000
    99.7439     2955.00000
    99.7571     2880.00000
    99.7702     3116.00000
    99.7833     3203.00000
    99.7965     3333.00000
    99.8096     3371.00000
    99.8227     3381.00000
    99.8359     3344.00000
    99.8490     3107.00000
    99.8621     2976.00000
    99.8753     2885.00000
    99.8884     2856.00000
    99.9015     2867.00000
    99.9146     2969.00000
    99.9278     2811.00000
    99.9409     2803.00000
    99.9540     2879.00000
    99.9672     2925.00000
    99.9803     2803.00000
    99.9934     2822.00000
