! Initial file:   D:\ZAKARY_OUAIL\MA_THESE\Deuxième_année_de_thèse\DRX\Manips_DRX\1st_NaTaO2F2_XRK900\NaTaO2F2-Lent_250°C.xrdml
! Initial format:  58
! WAVE (A):      1.54060     1.54060     1.00000
! REM : data have been multiplied by     1.0000
! X_data : 2 Theta (deg.)                                                                                                                                                                                                                                                  
! Y_data : Intensity (arb. units)                                                                                                                                                                                                                                          
!     X         Y
!--------------------------------------------------------------------------------
    10.0116     6413.00000
    10.0247     6471.00000
    10.0379     6617.00000
    10.0510     6377.00000
    10.0641     6316.00000
    10.0772     6470.00000
    10.0904     6241.00000
    10.1035     6298.00000
    10.1166     6346.00000
    10.1298     6282.00000
    10.1429     6249.00000
    10.1560     6353.00000
    10.1692     6450.00000
    10.1823     6165.00000
    10.1954     6289.00000
    10.2086     6164.00000
    10.2217     6219.00000
    10.2348     6219.00000
    10.2479     6261.00000
    10.2611     6372.00000
    10.2742     6244.00000
    10.2873     6330.00000
    10.3005     6192.00000
    10.3136     6163.00000
    10.3267     6437.00000
    10.3399     6322.00000
    10.3530     6185.00000
    10.3661     6170.00000
    10.3792     6177.00000
    10.3924     6369.00000
    10.4055     6161.00000
    10.4186     6143.00000
    10.4318     6168.00000
    10.4449     6240.00000
    10.4580     6302.00000
    10.4712     6189.00000
    10.4843     6225.00000
    10.4974     6103.00000
    10.5105     6206.00000
    10.5237     6051.00000
    10.5368     6115.00000
    10.5499     6164.00000
    10.5631     6082.00000
    10.5762     6094.00000
    10.5893     6301.00000
    10.6025     6177.00000
    10.6156     6201.00000
    10.6287     6088.00000
    10.6418     5977.00000
    10.6550     6081.00000
    10.6681     6143.00000
    10.6812     6176.00000
    10.6944     6144.00000
    10.7075     6190.00000
    10.7206     6241.00000
    10.7338     6366.00000
    10.7469     6271.00000
    10.7600     6163.00000
    10.7732     6329.00000
    10.7863     6328.00000
    10.7994     6345.00000
    10.8125     6269.00000
    10.8257     6530.00000
    10.8388     6442.00000
    10.8519     6455.00000
    10.8651     6578.00000
    10.8782     6500.00000
    10.8913     6620.00000
    10.9045     6800.00000
    10.9176     6738.00000
    10.9307     6986.00000
    10.9438     7010.00000
    10.9570     7569.00000
    10.9701     7879.00000
    10.9832     8421.00000
    10.9964     9457.00000
    11.0095    10557.00000
    11.0226    12106.00000
    11.0358    15407.00000
    11.0489    19987.00000
    11.0620    24862.00000
    11.0751    31314.00000
    11.0883    40797.00000
    11.1014    47829.00000
    11.1145    50713.00000
    11.1277    48007.00000
    11.1408    41299.00000
    11.1539    34684.00000
    11.1671    27954.00000
    11.1802    21207.00000
    11.1933    16108.00000
    11.2065    11828.00000
    11.2196     9527.00000
    11.2327     8265.00000
    11.2458     7455.00000
    11.2590     7092.00000
    11.2721     6887.00000
    11.2852     6608.00000
    11.2984     6444.00000
    11.3115     6151.00000
    11.3246     6325.00000
    11.3378     6194.00000
    11.3509     6153.00000
    11.3640     5999.00000
    11.3771     6054.00000
    11.3903     6101.00000
    11.4034     6074.00000
    11.4165     6072.00000
    11.4297     6088.00000
    11.4428     5967.00000
    11.4559     5997.00000
    11.4691     6078.00000
    11.4822     6118.00000
    11.4953     5968.00000
    11.5084     5821.00000
    11.5216     5947.00000
    11.5347     5865.00000
    11.5478     5868.00000
    11.5610     5917.00000
    11.5741     5764.00000
    11.5872     5881.00000
    11.6004     5839.00000
    11.6135     5842.00000
    11.6266     5942.00000
    11.6398     5871.00000
    11.6529     5744.00000
    11.6660     5882.00000
    11.6791     5848.00000
    11.6923     5782.00000
    11.7054     5932.00000
    11.7185     5798.00000
    11.7317     5742.00000
    11.7448     5861.00000
    11.7579     5894.00000
    11.7711     5794.00000
    11.7842     5691.00000
    11.7973     5815.00000
    11.8104     5852.00000
    11.8236     5902.00000
    11.8367     5748.00000
    11.8498     5742.00000
    11.8630     5704.00000
    11.8761     5765.00000
    11.8892     5677.00000
    11.9024     5673.00000
    11.9155     5778.00000
    11.9286     5882.00000
    11.9417     5697.00000
    11.9549     5560.00000
    11.9680     5634.00000
    11.9811     5568.00000
    11.9943     5685.00000
    12.0074     5672.00000
    12.0205     5680.00000
    12.0337     5826.00000
    12.0468     5699.00000
    12.0599     5577.00000
    12.0731     5604.00000
    12.0862     5661.00000
    12.0993     5672.00000
    12.1124     5595.00000
    12.1256     5575.00000
    12.1387     5742.00000
    12.1518     5645.00000
    12.1650     5559.00000
    12.1781     5649.00000
    12.1912     5735.00000
    12.2044     5660.00000
    12.2175     5627.00000
    12.2306     5651.00000
    12.2437     5513.00000
    12.2569     5609.00000
    12.2700     5560.00000
    12.2831     5490.00000
    12.2963     5729.00000
    12.3094     5559.00000
    12.3225     5636.00000
    12.3357     5580.00000
    12.3488     5688.00000
    12.3619     5485.00000
    12.3750     5416.00000
    12.3882     5400.00000
    12.4013     5585.00000
    12.4144     5508.00000
    12.4276     5539.00000
    12.4407     5467.00000
    12.4538     5493.00000
    12.4670     5557.00000
    12.4801     5694.00000
    12.4932     5476.00000
    12.5063     5521.00000
    12.5195     5520.00000
    12.5326     5450.00000
    12.5457     5566.00000
    12.5589     5458.00000
    12.5720     5361.00000
    12.5851     5639.00000
    12.5983     5502.00000
    12.6114     5484.00000
    12.6245     5412.00000
    12.6377     5340.00000
    12.6508     5607.00000
    12.6639     5473.00000
    12.6770     5467.00000
    12.6902     5420.00000
    12.7033     5418.00000
    12.7164     5435.00000
    12.7296     5500.00000
    12.7427     5425.00000
    12.7558     5450.00000
    12.7690     5297.00000
    12.7821     5345.00000
    12.7952     5438.00000
    12.8083     5475.00000
    12.8215     5406.00000
    12.8346     5325.00000
    12.8477     5562.00000
    12.8609     5475.00000
    12.8740     5373.00000
    12.8871     5477.00000
    12.9003     5295.00000
    12.9134     5368.00000
    12.9265     5266.00000
    12.9396     5353.00000
    12.9528     5389.00000
    12.9659     5249.00000
    12.9790     5426.00000
    12.9922     5440.00000
    13.0053     5332.00000
    13.0184     5324.00000
    13.0316     5317.00000
    13.0447     5442.00000
    13.0578     5260.00000
    13.0710     5324.00000
    13.0841     5232.00000
    13.0972     5402.00000
    13.1103     5350.00000
    13.1235     5350.00000
    13.1366     5412.00000
    13.1497     5273.00000
    13.1629     5344.00000
    13.1760     5236.00000
    13.1891     5331.00000
    13.2023     5214.00000
    13.2154     5334.00000
    13.2285     5343.00000
    13.2416     5246.00000
    13.2548     5239.00000
    13.2679     5262.00000
    13.2810     5302.00000
    13.2942     5279.00000
    13.3073     5154.00000
    13.3204     5224.00000
    13.3336     5242.00000
    13.3467     5376.00000
    13.3598     5337.00000
    13.3729     5295.00000
    13.3861     5278.00000
    13.3992     5086.00000
    13.4123     5171.00000
    13.4255     5320.00000
    13.4386     5176.00000
    13.4517     5260.00000
    13.4649     5236.00000
    13.4780     5096.00000
    13.4911     5251.00000
    13.5043     5157.00000
    13.5174     5298.00000
    13.5305     5334.00000
    13.5436     5142.00000
    13.5568     5255.00000
    13.5699     5240.00000
    13.5830     5233.00000
    13.5962     5299.00000
    13.6093     5245.00000
    13.6224     5205.00000
    13.6356     5224.00000
    13.6487     5098.00000
    13.6618     5273.00000
    13.6749     5112.00000
    13.6881     5201.00000
    13.7012     5189.00000
    13.7143     5057.00000
    13.7275     5101.00000
    13.7406     5049.00000
    13.7537     4990.00000
    13.7669     5084.00000
    13.7800     5153.00000
    13.7931     5002.00000
    13.8062     5080.00000
    13.8194     5101.00000
    13.8325     5248.00000
    13.8456     5107.00000
    13.8588     5102.00000
    13.8719     4978.00000
    13.8850     5127.00000
    13.8982     5087.00000
    13.9113     5073.00000
    13.9244     5046.00000
    13.9376     4958.00000
    13.9507     5099.00000
    13.9638     5023.00000
    13.9769     5107.00000
    13.9901     5040.00000
    14.0032     5029.00000
    14.0163     5166.00000
    14.0295     4951.00000
    14.0426     5214.00000
    14.0557     5132.00000
    14.0689     5015.00000
    14.0820     5080.00000
    14.0951     5165.00000
    14.1082     5007.00000
    14.1214     5136.00000
    14.1345     4930.00000
    14.1476     5001.00000
    14.1608     5103.00000
    14.1739     5011.00000
    14.1870     4928.00000
    14.2002     4906.00000
    14.2133     4972.00000
    14.2264     5095.00000
    14.2395     4979.00000
    14.2527     5041.00000
    14.2658     4933.00000
    14.2789     5032.00000
    14.2921     5076.00000
    14.3052     4918.00000
    14.3183     5021.00000
    14.3315     5011.00000
    14.3446     4994.00000
    14.3577     4949.00000
    14.3708     5113.00000
    14.3840     5027.00000
    14.3971     5030.00000
    14.4102     4982.00000
    14.4234     4883.00000
    14.4365     4983.00000
    14.4496     4834.00000
    14.4628     4957.00000
    14.4759     4988.00000
    14.4890     4906.00000
    14.5022     4868.00000
    14.5153     4943.00000
    14.5284     4974.00000
    14.5415     4894.00000
    14.5547     4892.00000
    14.5678     4985.00000
    14.5809     4968.00000
    14.5941     4895.00000
    14.6072     4894.00000
    14.6203     4906.00000
    14.6335     4910.00000
    14.6466     4798.00000
    14.6597     4940.00000
    14.6728     4895.00000
    14.6860     4862.00000
    14.6991     4922.00000
    14.7122     4892.00000
    14.7254     4779.00000
    14.7385     4784.00000
    14.7516     4907.00000
    14.7648     4858.00000
    14.7779     4962.00000
    14.7910     4987.00000
    14.8041     4903.00000
    14.8173     4986.00000
    14.8304     4896.00000
    14.8435     4967.00000
    14.8567     4868.00000
    14.8698     4895.00000
    14.8829     4714.00000
    14.8961     4892.00000
    14.9092     4856.00000
    14.9223     4858.00000
    14.9355     4856.00000
    14.9486     4850.00000
    14.9617     4872.00000
    14.9748     4977.00000
    14.9880     4923.00000
    15.0011     4869.00000
    15.0142     4776.00000
    15.0274     4752.00000
    15.0405     4876.00000
    15.0536     4825.00000
    15.0668     4903.00000
    15.0799     4858.00000
    15.0930     4742.00000
    15.1061     4775.00000
    15.1193     4862.00000
    15.1324     4768.00000
    15.1455     4857.00000
    15.1587     4835.00000
    15.1718     4826.00000
    15.1849     4756.00000
    15.1981     4901.00000
    15.2112     4783.00000
    15.2243     4874.00000
    15.2374     4823.00000
    15.2506     4675.00000
    15.2637     4687.00000
    15.2768     4670.00000
    15.2900     4677.00000
    15.3031     4611.00000
    15.3162     4780.00000
    15.3294     4668.00000
    15.3425     4849.00000
    15.3556     4692.00000
    15.3688     4822.00000
    15.3819     4690.00000
    15.3950     4649.00000
    15.4081     4737.00000
    15.4213     4685.00000
    15.4344     4638.00000
    15.4475     4730.00000
    15.4607     4743.00000
    15.4738     4645.00000
    15.4869     4737.00000
    15.5001     4666.00000
    15.5132     4653.00000
    15.5263     4727.00000
    15.5394     4805.00000
    15.5526     4658.00000
    15.5657     4713.00000
    15.5788     4752.00000
    15.5920     4766.00000
    15.6051     4722.00000
    15.6182     4754.00000
    15.6314     4511.00000
    15.6445     4603.00000
    15.6576     4841.00000
    15.6707     4664.00000
    15.6839     4675.00000
    15.6970     4817.00000
    15.7101     4781.00000
    15.7233     4716.00000
    15.7364     4788.00000
    15.7495     4711.00000
    15.7627     4844.00000
    15.7758     4779.00000
    15.7889     4803.00000
    15.8021     4673.00000
    15.8152     4582.00000
    15.8283     4793.00000
    15.8414     4687.00000
    15.8546     4608.00000
    15.8677     4613.00000
    15.8808     4570.00000
    15.8940     4796.00000
    15.9071     4531.00000
    15.9202     4609.00000
    15.9334     4656.00000
    15.9465     4652.00000
    15.9596     4630.00000
    15.9727     4752.00000
    15.9859     4684.00000
    15.9990     4592.00000
    16.0121     4534.00000
    16.0253     4686.00000
    16.0384     4773.00000
    16.0515     4644.00000
    16.0647     4733.00000
    16.0778     4812.00000
    16.0909     4691.00000
    16.1040     4695.00000
    16.1172     4691.00000
    16.1303     4666.00000
    16.1434     4710.00000
    16.1566     4773.00000
    16.1697     4709.00000
    16.1828     4800.00000
    16.1960     4649.00000
    16.2091     4753.00000
    16.2222     4756.00000
    16.2353     4780.00000
    16.2485     4850.00000
    16.2616     4792.00000
    16.2747     4865.00000
    16.2879     4704.00000
    16.3010     4813.00000
    16.3141     4848.00000
    16.3273     4791.00000
    16.3404     4699.00000
    16.3535     4791.00000
    16.3667     4575.00000
    16.3798     4675.00000
    16.3929     4733.00000
    16.4060     4834.00000
    16.4192     4729.00000
    16.4323     4825.00000
    16.4454     4670.00000
    16.4586     4697.00000
    16.4717     4788.00000
    16.4848     4689.00000
    16.4980     4562.00000
    16.5111     4722.00000
    16.5242     4601.00000
    16.5373     4520.00000
    16.5505     4604.00000
    16.5636     4587.00000
    16.5767     4677.00000
    16.5899     4584.00000
    16.6030     4575.00000
    16.6161     4492.00000
    16.6293     4530.00000
    16.6424     4665.00000
    16.6555     4594.00000
    16.6686     4557.00000
    16.6818     4611.00000
    16.6949     4625.00000
    16.7080     4537.00000
    16.7212     4508.00000
    16.7343     4538.00000
    16.7474     4597.00000
    16.7606     4592.00000
    16.7737     4563.00000
    16.7868     4574.00000
    16.8000     4465.00000
    16.8131     4585.00000
    16.8262     4523.00000
    16.8393     4576.00000
    16.8525     4512.00000
    16.8656     4530.00000
    16.8787     4535.00000
    16.8919     4453.00000
    16.9050     4480.00000
    16.9181     4529.00000
    16.9313     4520.00000
    16.9444     4566.00000
    16.9575     4519.00000
    16.9706     4463.00000
    16.9838     4475.00000
    16.9969     4542.00000
    17.0100     4423.00000
    17.0232     4454.00000
    17.0363     4471.00000
    17.0494     4423.00000
    17.0626     4331.00000
    17.0757     4537.00000
    17.0888     4439.00000
    17.1019     4525.00000
    17.1151     4525.00000
    17.1282     4615.00000
    17.1413     4592.00000
    17.1545     4487.00000
    17.1676     4513.00000
    17.1807     4453.00000
    17.1939     4521.00000
    17.2070     4518.00000
    17.2201     4693.00000
    17.2333     4476.00000
    17.2464     4613.00000
    17.2595     4589.00000
    17.2726     4542.00000
    17.2858     4570.00000
    17.2989     4497.00000
    17.3120     4636.00000
    17.3252     4434.00000
    17.3383     4489.00000
    17.3514     4488.00000
    17.3646     4455.00000
    17.3777     4290.00000
    17.3908     4372.00000
    17.4039     4393.00000
    17.4171     4408.00000
    17.4302     4529.00000
    17.4433     4424.00000
    17.4565     4393.00000
    17.4696     4422.00000
    17.4827     4529.00000
    17.4959     4361.00000
    17.5090     4438.00000
    17.5221     4379.00000
    17.5352     4379.00000
    17.5484     4381.00000
    17.5615     4392.00000
    17.5746     4310.00000
    17.5878     4390.00000
    17.6009     4377.00000
    17.6140     4420.00000
    17.6272     4457.00000
    17.6403     4549.00000
    17.6534     4475.00000
    17.6666     4322.00000
    17.6797     4539.00000
    17.6928     4607.00000
    17.7059     4633.00000
    17.7191     4709.00000
    17.7322     4694.00000
    17.7453     4664.00000
    17.7585     4693.00000
    17.7716     4564.00000
    17.7847     4459.00000
    17.7979     4373.00000
    17.8110     4461.00000
    17.8241     4542.00000
    17.8372     4454.00000
    17.8504     4246.00000
    17.8635     4370.00000
    17.8766     4298.00000
    17.8898     4343.00000
    17.9029     4332.00000
    17.9160     4380.00000
    17.9292     4451.00000
    17.9423     4364.00000
    17.9554     4293.00000
    17.9685     4243.00000
    17.9817     4191.00000
    17.9948     4307.00000
    18.0079     4307.00000
    18.0211     4268.00000
    18.0342     4230.00000
    18.0473     4384.00000
    18.0605     4229.00000
    18.0736     4317.00000
    18.0867     4283.00000
    18.0998     4206.00000
    18.1130     4188.00000
    18.1261     4176.00000
    18.1392     4208.00000
    18.1524     4290.00000
    18.1655     4297.00000
    18.1786     4251.00000
    18.1918     4308.00000
    18.2049     4233.00000
    18.2180     4239.00000
    18.2312     4379.00000
    18.2443     4267.00000
    18.2574     4275.00000
    18.2705     4226.00000
    18.2837     4232.00000
    18.2968     4212.00000
    18.3099     4299.00000
    18.3231     4355.00000
    18.3362     4200.00000
    18.3493     4174.00000
    18.3625     4129.00000
    18.3756     4220.00000
    18.3887     4179.00000
    18.4018     4263.00000
    18.4150     4154.00000
    18.4281     4192.00000
    18.4412     4150.00000
    18.4544     4207.00000
    18.4675     4057.00000
    18.4806     4145.00000
    18.4938     4352.00000
    18.5069     4198.00000
    18.5200     4239.00000
    18.5331     4161.00000
    18.5463     4207.00000
    18.5594     4304.00000
    18.5725     4117.00000
    18.5857     4210.00000
    18.5988     4128.00000
    18.6119     4268.00000
    18.6251     4312.00000
    18.6382     4212.00000
    18.6513     4206.00000
    18.6645     4307.00000
    18.6776     4024.00000
    18.6907     4339.00000
    18.7038     4163.00000
    18.7170     4180.00000
    18.7301     4120.00000
    18.7432     4243.00000
    18.7564     4213.00000
    18.7695     4225.00000
    18.7826     4086.00000
    18.7958     4183.00000
    18.8089     4148.00000
    18.8220     4169.00000
    18.8351     4195.00000
    18.8483     4185.00000
    18.8614     4271.00000
    18.8745     4197.00000
    18.8877     4240.00000
    18.9008     4143.00000
    18.9139     4323.00000
    18.9271     4179.00000
    18.9402     4246.00000
    18.9533     4243.00000
    18.9664     4233.00000
    18.9796     4350.00000
    18.9927     4389.00000
    19.0058     4397.00000
    19.0190     4543.00000
    19.0321     4484.00000
    19.0452     4560.00000
    19.0584     4629.00000
    19.0715     4451.00000
    19.0846     4590.00000
    19.0978     4566.00000
    19.1109     4524.00000
    19.1240     4564.00000
    19.1371     4523.00000
    19.1503     4531.00000
    19.1634     4477.00000
    19.1765     4518.00000
    19.1897     4545.00000
    19.2028     4605.00000
    19.2159     4515.00000
    19.2291     4587.00000
    19.2422     4437.00000
    19.2553     4513.00000
    19.2684     4632.00000
    19.2816     4603.00000
    19.2947     4592.00000
    19.3078     4610.00000
    19.3210     4668.00000
    19.3341     4686.00000
    19.3472     4684.00000
    19.3604     4861.00000
    19.3735     4849.00000
    19.3866     4886.00000
    19.3997     5133.00000
    19.4129     5386.00000
    19.4260     5449.00000
    19.4391     5476.00000
    19.4523     5767.00000
    19.4654     5999.00000
    19.4785     6123.00000
    19.4917     6484.00000
    19.5048     7066.00000
    19.5179     7963.00000
    19.5311     9755.00000
    19.5442    11763.00000
    19.5573    15399.00000
    19.5704    20952.00000
    19.5836    30148.00000
    19.5967    45204.00000
    19.6098    66438.00000
    19.6230    89558.00000
    19.6361   111229.00000
    19.6492   124304.00000
    19.6624   119302.00000
    19.6755   109574.00000
    19.6886   100952.00000
    19.7017    86704.00000
    19.7149    66046.00000
    19.7280    49140.00000
    19.7411    35516.00000
    19.7543    24492.00000
    19.7674    17541.00000
    19.7805    13159.00000
    19.7937     9843.00000
    19.8068     7887.00000
    19.8199     6853.00000
    19.8330     6464.00000
    19.8462     5897.00000
    19.8593     5587.00000
    19.8724     5357.00000
    19.8856     5163.00000
    19.8987     4959.00000
    19.9118     4795.00000
    19.9250     4742.00000
    19.9381     4660.00000
    19.9512     4706.00000
    19.9643     4631.00000
    19.9775     4521.00000
    19.9906     4475.00000
    20.0037     4572.00000
    20.0169     4547.00000
    20.0300     4397.00000
    20.0431     4351.00000
    20.0563     4334.00000
    20.0694     4442.00000
    20.0825     4511.00000
    20.0957     4355.00000
    20.1088     4416.00000
    20.1219     4377.00000
    20.1350     4396.00000
    20.1482     4624.00000
    20.1613     4498.00000
    20.1744     4374.00000
    20.1876     4567.00000
    20.2007     4609.00000
    20.2138     4374.00000
    20.2270     4304.00000
    20.2401     4317.00000
    20.2532     4264.00000
    20.2663     4415.00000
    20.2795     4373.00000
    20.2926     4255.00000
    20.3057     4134.00000
    20.3189     4122.00000
    20.3320     4167.00000
    20.3451     4033.00000
    20.3583     4217.00000
    20.3714     4037.00000
    20.3845     4160.00000
    20.3976     4062.00000
    20.4108     4054.00000
    20.4239     4178.00000
    20.4370     4102.00000
    20.4502     4034.00000
    20.4633     3979.00000
    20.4764     4025.00000
    20.4896     4030.00000
    20.5027     4001.00000
    20.5158     4039.00000
    20.5290     4071.00000
    20.5421     3970.00000
    20.5552     3958.00000
    20.5683     4089.00000
    20.5815     4138.00000
    20.5946     4056.00000
    20.6077     3998.00000
    20.6209     3929.00000
    20.6340     4137.00000
    20.6471     3927.00000
    20.6603     3987.00000
    20.6734     4020.00000
    20.6865     3898.00000
    20.6996     4059.00000
    20.7128     3994.00000
    20.7259     4093.00000
    20.7390     4007.00000
    20.7522     3984.00000
    20.7653     3969.00000
    20.7784     4081.00000
    20.7916     4058.00000
    20.8047     4019.00000
    20.8178     4088.00000
    20.8309     3973.00000
    20.8441     4037.00000
    20.8572     3964.00000
    20.8703     3953.00000
    20.8835     3892.00000
    20.8966     3888.00000
    20.9097     4031.00000
    20.9229     3979.00000
    20.9360     3984.00000
    20.9491     3971.00000
    20.9623     4017.00000
    20.9754     3891.00000
    20.9885     3985.00000
    21.0016     4018.00000
    21.0148     3945.00000
    21.0279     3934.00000
    21.0410     3766.00000
    21.0542     3927.00000
    21.0673     3888.00000
    21.0804     3931.00000
    21.0936     3930.00000
    21.1067     3897.00000
    21.1198     3850.00000
    21.1329     3856.00000
    21.1461     3801.00000
    21.1592     3868.00000
    21.1723     3932.00000
    21.1855     3916.00000
    21.1986     3835.00000
    21.2117     3930.00000
    21.2249     3886.00000
    21.2380     3863.00000
    21.2511     3802.00000
    21.2642     3800.00000
    21.2774     3755.00000
    21.2905     3807.00000
    21.3036     3791.00000
    21.3168     3928.00000
    21.3299     3942.00000
    21.3430     3833.00000
    21.3562     3824.00000
    21.3693     3855.00000
    21.3824     3790.00000
    21.3956     3818.00000
    21.4087     3836.00000
    21.4218     3896.00000
    21.4349     3783.00000
    21.4481     3863.00000
    21.4612     3900.00000
    21.4743     3776.00000
    21.4875     3772.00000
    21.5006     3885.00000
    21.5137     3921.00000
    21.5269     3810.00000
    21.5400     3856.00000
    21.5531     3863.00000
    21.5662     3825.00000
    21.5794     3937.00000
    21.5925     3775.00000
    21.6056     3921.00000
    21.6188     3847.00000
    21.6319     3975.00000
    21.6450     3956.00000
    21.6582     3913.00000
    21.6713     3814.00000
    21.6844     3851.00000
    21.6975     3881.00000
    21.7107     3934.00000
    21.7238     3963.00000
    21.7369     3961.00000
    21.7501     3863.00000
    21.7632     4024.00000
    21.7763     4038.00000
    21.7895     4255.00000
    21.8026     4259.00000
    21.8157     4062.00000
    21.8288     4129.00000
    21.8420     4060.00000
    21.8551     4118.00000
    21.8682     4014.00000
    21.8814     3996.00000
    21.8945     3959.00000
    21.9076     3884.00000
    21.9208     3920.00000
    21.9339     3916.00000
    21.9470     3822.00000
    21.9602     3902.00000
    21.9733     3983.00000
    21.9864     3996.00000
    21.9995     3838.00000
    22.0127     3999.00000
    22.0258     3931.00000
    22.0389     3923.00000
    22.0521     3873.00000
    22.0652     4064.00000
    22.0783     3985.00000
    22.0915     3886.00000
    22.1046     3951.00000
    22.1177     3829.00000
    22.1308     3956.00000
    22.1440     3868.00000
    22.1571     3971.00000
    22.1702     3987.00000
    22.1834     4006.00000
    22.1965     4102.00000
    22.2096     4169.00000
    22.2228     4352.00000
    22.2359     4572.00000
    22.2490     4837.00000
    22.2621     5540.00000
    22.2753     6637.00000
    22.2884     8146.00000
    22.3015    10953.00000
    22.3147    14820.00000
    22.3278    17804.00000
    22.3409    19299.00000
    22.3541    18322.00000
    22.3672    16904.00000
    22.3803    16439.00000
    22.3935    15353.00000
    22.4066    12761.00000
    22.4197     9928.00000
    22.4328     7995.00000
    22.4460     6920.00000
    22.4591     5797.00000
    22.4722     4904.00000
    22.4854     4385.00000
    22.4985     4142.00000
    22.5116     4160.00000
    22.5248     4032.00000
    22.5379     4027.00000
    22.5510     3904.00000
    22.5641     3945.00000
    22.5773     3827.00000
    22.5904     3816.00000
    22.6035     3797.00000
    22.6167     3757.00000
    22.6298     3823.00000
    22.6429     3706.00000
    22.6561     3735.00000
    22.6692     3828.00000
    22.6823     3653.00000
    22.6954     3744.00000
    22.7086     3708.00000
    22.7217     3751.00000
    22.7348     3833.00000
    22.7480     3816.00000
    22.7611     3882.00000
    22.7742     3888.00000
    22.7874     3825.00000
    22.8005     3868.00000
    22.8136     3763.00000
    22.8268     3897.00000
    22.8399     3810.00000
    22.8530     3738.00000
    22.8661     3802.00000
    22.8793     3797.00000
    22.8924     3842.00000
    22.9055     3624.00000
    22.9187     3928.00000
    22.9318     3622.00000
    22.9449     3535.00000
    22.9581     3676.00000
    22.9712     3608.00000
    22.9843     3597.00000
    22.9974     3578.00000
    23.0106     3662.00000
    23.0237     3591.00000
    23.0368     3692.00000
    23.0500     3750.00000
    23.0631     3641.00000
    23.0762     3713.00000
    23.0894     3737.00000
    23.1025     3720.00000
    23.1156     3635.00000
    23.1287     3598.00000
    23.1419     3736.00000
    23.1550     3799.00000
    23.1681     3657.00000
    23.1813     3571.00000
    23.1944     3693.00000
    23.2075     3714.00000
    23.2207     3630.00000
    23.2338     3540.00000
    23.2469     3588.00000
    23.2601     3593.00000
    23.2732     3667.00000
    23.2863     3705.00000
    23.2994     3626.00000
    23.3126     3665.00000
    23.3257     3611.00000
    23.3388     3696.00000
    23.3520     3649.00000
    23.3651     3738.00000
    23.3782     3699.00000
    23.3914     3709.00000
    23.4045     3762.00000
    23.4176     3796.00000
    23.4307     3753.00000
    23.4439     3767.00000
    23.4570     3713.00000
    23.4701     3868.00000
    23.4833     3740.00000
    23.4964     3785.00000
    23.5095     3856.00000
    23.5227     3754.00000
    23.5358     3759.00000
    23.5489     3883.00000
    23.5620     3960.00000
    23.5752     3936.00000
    23.5883     3808.00000
    23.6014     3899.00000
    23.6146     3917.00000
    23.6277     3859.00000
    23.6408     4134.00000
    23.6540     3895.00000
    23.6671     3855.00000
    23.6802     3873.00000
    23.6933     3922.00000
    23.7065     3758.00000
    23.7196     3915.00000
    23.7327     3827.00000
    23.7459     3896.00000
    23.7590     4034.00000
    23.7721     3923.00000
    23.7853     3872.00000
    23.7984     3914.00000
    23.8115     3946.00000
    23.8247     3827.00000
    23.8378     3980.00000
    23.8509     3945.00000
    23.8640     4039.00000
    23.8772     4067.00000
    23.8903     4121.00000
    23.9034     4052.00000
    23.9166     4325.00000
    23.9297     4179.00000
    23.9428     4379.00000
    23.9560     4419.00000
    23.9691     4447.00000
    23.9822     4450.00000
    23.9953     4536.00000
    24.0085     4676.00000
    24.0216     4851.00000
    24.0347     4818.00000
    24.0479     5014.00000
    24.0610     5212.00000
    24.0741     5551.00000
    24.0873     6132.00000
    24.1004     7241.00000
    24.1135     9054.00000
    24.1266    12254.00000
    24.1398    17544.00000
    24.1529    25205.00000
    24.1660    34087.00000
    24.1792    41385.00000
    24.1923    45170.00000
    24.2054    45426.00000
    24.2186    42104.00000
    24.2317    38340.00000
    24.2448    34378.00000
    24.2580    31185.00000
    24.2711    26929.00000
    24.2842    22350.00000
    24.2973    20164.00000
    24.3105    21658.00000
    24.3236    27477.00000
    24.3367    33996.00000
    24.3499    38911.00000
    24.3630    43664.00000
    24.3761    46824.00000
    24.3893    46243.00000
    24.4024    41879.00000
    24.4155    38869.00000
    24.4286    33986.00000
    24.4418    27832.00000
    24.4549    21493.00000
    24.4680    17194.00000
    24.4812    13641.00000
    24.4943     9769.00000
    24.5074     7323.00000
    24.5206     5878.00000
    24.5337     5223.00000
    24.5468     4854.00000
    24.5599     4657.00000
    24.5731     4526.00000
    24.5862     4232.00000
    24.5993     4155.00000
    24.6125     4140.00000
    24.6256     4001.00000
    24.6387     4013.00000
    24.6519     4035.00000
    24.6650     3934.00000
    24.6781     3848.00000
    24.6913     3851.00000
    24.7044     3846.00000
    24.7175     3814.00000
    24.7306     3744.00000
    24.7438     3743.00000
    24.7569     3758.00000
    24.7700     3733.00000
    24.7832     3700.00000
    24.7963     3765.00000
    24.8094     3758.00000
    24.8226     3718.00000
    24.8357     3709.00000
    24.8488     3704.00000
    24.8619     3758.00000
    24.8751     3654.00000
    24.8882     3791.00000
    24.9013     3842.00000
    24.9145     3844.00000
    24.9276     3906.00000
    24.9407     3802.00000
    24.9539     3947.00000
    24.9670     3857.00000
    24.9801     3969.00000
    24.9932     3697.00000
    25.0064     3833.00000
    25.0195     3771.00000
    25.0326     3791.00000
    25.0458     3677.00000
    25.0589     3570.00000
    25.0720     3650.00000
    25.0852     3640.00000
    25.0983     3683.00000
    25.1114     3573.00000
    25.1246     3489.00000
    25.1377     3687.00000
    25.1508     3649.00000
    25.1639     3608.00000
    25.1771     3658.00000
    25.1902     3616.00000
    25.2033     3627.00000
    25.2165     3621.00000
    25.2296     3585.00000
    25.2427     3644.00000
    25.2559     3585.00000
    25.2690     3599.00000
    25.2821     3528.00000
    25.2952     3598.00000
    25.3084     3673.00000
    25.3215     3650.00000
    25.3346     3538.00000
    25.3478     3541.00000
    25.3609     3564.00000
    25.3740     3562.00000
    25.3872     3672.00000
    25.4003     3628.00000
    25.4134     3645.00000
    25.4265     3643.00000
    25.4397     3706.00000
    25.4528     3514.00000
    25.4659     3496.00000
    25.4791     3497.00000
    25.4922     3535.00000
    25.5053     3562.00000
    25.5185     3544.00000
    25.5316     3574.00000
    25.5447     3455.00000
    25.5579     3532.00000
    25.5710     3538.00000
    25.5841     3470.00000
    25.5972     3483.00000
    25.6104     3495.00000
    25.6235     3420.00000
    25.6366     3575.00000
    25.6498     3464.00000
    25.6629     3480.00000
    25.6760     3459.00000
    25.6892     3465.00000
    25.7023     3432.00000
    25.7154     3493.00000
    25.7285     3354.00000
    25.7417     3464.00000
    25.7548     3408.00000
    25.7679     3383.00000
    25.7811     3526.00000
    25.7942     3544.00000
    25.8073     3462.00000
    25.8205     3498.00000
    25.8336     3489.00000
    25.8467     3501.00000
    25.8598     3470.00000
    25.8730     3472.00000
    25.8861     3551.00000
    25.8992     3431.00000
    25.9124     3358.00000
    25.9255     3512.00000
    25.9386     3482.00000
    25.9518     3470.00000
    25.9649     3535.00000
    25.9780     3530.00000
    25.9911     3519.00000
    26.0043     3569.00000
    26.0174     3506.00000
    26.0305     3446.00000
    26.0437     3523.00000
    26.0568     3573.00000
    26.0699     3624.00000
    26.0831     3721.00000
    26.0962     3711.00000
    26.1093     3763.00000
    26.1225     3619.00000
    26.1356     3888.00000
    26.1487     3653.00000
    26.1618     3697.00000
    26.1750     3623.00000
    26.1881     3662.00000
    26.2012     3742.00000
    26.2144     3672.00000
    26.2275     3632.00000
    26.2406     3672.00000
    26.2538     3607.00000
    26.2669     3528.00000
    26.2800     3517.00000
    26.2931     3486.00000
    26.3063     3502.00000
    26.3194     3542.00000
    26.3325     3620.00000
    26.3457     3431.00000
    26.3588     3613.00000
    26.3719     3599.00000
    26.3851     3460.00000
    26.3982     3538.00000
    26.4113     3512.00000
    26.4244     3608.00000
    26.4376     3509.00000
    26.4507     3327.00000
    26.4638     3458.00000
    26.4770     3506.00000
    26.4901     3545.00000
    26.5032     3408.00000
    26.5164     3450.00000
    26.5295     3407.00000
    26.5426     3386.00000
    26.5558     3409.00000
    26.5689     3394.00000
    26.5820     3359.00000
    26.5951     3442.00000
    26.6083     3349.00000
    26.6214     3476.00000
    26.6345     3422.00000
    26.6477     3409.00000
    26.6608     3471.00000
    26.6739     3538.00000
    26.6871     3540.00000
    26.7002     3444.00000
    26.7133     3507.00000
    26.7264     3442.00000
    26.7396     3609.00000
    26.7527     3561.00000
    26.7658     3554.00000
    26.7790     3589.00000
    26.7921     3606.00000
    26.8052     3576.00000
    26.8184     3724.00000
    26.8315     3613.00000
    26.8446     3659.00000
    26.8577     3574.00000
    26.8709     3695.00000
    26.8840     3562.00000
    26.8971     3669.00000
    26.9103     3714.00000
    26.9234     3610.00000
    26.9365     3678.00000
    26.9497     3660.00000
    26.9628     3603.00000
    26.9759     3775.00000
    26.9891     3718.00000
    27.0022     3628.00000
    27.0153     3662.00000
    27.0284     3740.00000
    27.0416     3670.00000
    27.0547     3600.00000
    27.0678     3694.00000
    27.0810     3647.00000
    27.0941     3680.00000
    27.1072     3527.00000
    27.1204     3562.00000
    27.1335     3715.00000
    27.1466     3694.00000
    27.1597     3574.00000
    27.1729     3696.00000
    27.1860     3627.00000
    27.1991     3620.00000
    27.2123     3668.00000
    27.2254     3709.00000
    27.2385     3781.00000
    27.2517     3661.00000
    27.2648     3770.00000
    27.2779     3772.00000
    27.2910     3779.00000
    27.3042     3813.00000
    27.3173     3658.00000
    27.3304     3837.00000
    27.3436     3719.00000
    27.3567     3879.00000
    27.3698     3890.00000
    27.3830     4000.00000
    27.3961     4150.00000
    27.4092     4079.00000
    27.4224     4103.00000
    27.4355     4271.00000
    27.4486     4368.00000
    27.4617     4515.00000
    27.4749     4720.00000
    27.4880     4825.00000
    27.5011     4992.00000
    27.5143     5257.00000
    27.5274     5692.00000
    27.5405     6003.00000
    27.5537     6422.00000
    27.5668     7112.00000
    27.5799     7923.00000
    27.5930     9265.00000
    27.6062    11617.00000
    27.6193    15455.00000
    27.6324    22132.00000
    27.6456    33516.00000
    27.6587    49988.00000
    27.6718    68561.00000
    27.6850    81350.00000
    27.6981    84223.00000
    27.7112    79258.00000
    27.7243    71528.00000
    27.7375    65760.00000
    27.7506    61564.00000
    27.7637    55089.00000
    27.7769    45683.00000
    27.7900    36220.00000
    27.8031    27052.00000
    27.8163    19609.00000
    27.8294    14236.00000
    27.8425    10378.00000
    27.8556     8167.00000
    27.8688     6771.00000
    27.8819     6123.00000
    27.8950     5546.00000
    27.9082     5135.00000
    27.9213     4915.00000
    27.9344     4588.00000
    27.9476     4418.00000
    27.9607     4183.00000
    27.9738     4052.00000
    27.9870     3940.00000
    28.0001     4030.00000
    28.0132     3880.00000
    28.0263     3846.00000
    28.0395     3801.00000
    28.0526     3837.00000
    28.0657     3736.00000
    28.0789     3700.00000
    28.0920     3644.00000
    28.1051     3707.00000
    28.1183     3703.00000
    28.1314     3708.00000
    28.1445     3609.00000
    28.1576     3668.00000
    28.1708     3654.00000
    28.1839     3666.00000
    28.1970     3679.00000
    28.2102     3835.00000
    28.2233     3886.00000
    28.2364     4004.00000
    28.2496     3850.00000
    28.2627     3934.00000
    28.2758     3792.00000
    28.2889     3789.00000
    28.3021     3856.00000
    28.3152     3670.00000
    28.3283     3787.00000
    28.3415     3704.00000
    28.3546     3730.00000
    28.3677     3665.00000
    28.3809     3663.00000
    28.3940     3527.00000
    28.4071     3593.00000
    28.4203     3480.00000
    28.4334     3640.00000
    28.4465     3562.00000
    28.4596     3585.00000
    28.4728     3553.00000
    28.4859     3532.00000
    28.4990     3624.00000
    28.5122     3691.00000
    28.5253     3640.00000
    28.5384     3557.00000
    28.5516     3551.00000
    28.5647     3656.00000
    28.5778     3508.00000
    28.5909     3599.00000
    28.6041     3488.00000
    28.6172     3536.00000
    28.6303     3486.00000
    28.6435     3589.00000
    28.6566     3654.00000
    28.6697     3533.00000
    28.6829     3527.00000
    28.6960     3525.00000
    28.7091     3548.00000
    28.7222     3463.00000
    28.7354     3523.00000
    28.7485     3406.00000
    28.7616     3412.00000
    28.7748     3434.00000
    28.7879     3572.00000
    28.8010     3521.00000
    28.8142     3471.00000
    28.8273     3470.00000
    28.8404     3502.00000
    28.8536     3486.00000
    28.8667     3649.00000
    28.8798     3534.00000
    28.8929     3632.00000
    28.9061     3615.00000
    28.9192     3648.00000
    28.9323     3641.00000
    28.9455     3774.00000
    28.9586     3715.00000
    28.9717     3667.00000
    28.9849     3832.00000
    28.9980     3857.00000
    29.0111     3787.00000
    29.0242     3994.00000
    29.0374     3889.00000
    29.0505     4000.00000
    29.0636     4103.00000
    29.0768     4391.00000
    29.0899     4491.00000
    29.1030     4701.00000
    29.1162     4954.00000
    29.1293     5286.00000
    29.1424     5933.00000
    29.1555     7029.00000
    29.1687     9465.00000
    29.1818    13342.00000
    29.1949    19491.00000
    29.2081    26356.00000
    29.2212    31616.00000
    29.2343    33803.00000
    29.2475    32035.00000
    29.2606    27914.00000
    29.2737    25784.00000
    29.2869    24943.00000
    29.3000    24627.00000
    29.3131    23314.00000
    29.3262    22052.00000
    29.3394    20533.00000
    29.3525    20777.00000
    29.3656    21025.00000
    29.3788    21250.00000
    29.3919    20937.00000
    29.4050    18886.00000
    29.4182    16859.00000
    29.4313    15201.00000
    29.4444    13687.00000
    29.4575    12735.00000
    29.4707    11552.00000
    29.4838     9697.00000
    29.4969     7935.00000
    29.5101     6596.00000
    29.5232     5377.00000
    29.5363     4528.00000
    29.5495     4204.00000
    29.5626     3939.00000
    29.5757     3921.00000
    29.5888     3806.00000
    29.6020     3724.00000
    29.6151     3648.00000
    29.6282     3629.00000
    29.6414     3508.00000
    29.6545     3508.00000
    29.6676     3452.00000
    29.6808     3510.00000
    29.6939     3428.00000
    29.7070     3436.00000
    29.7201     3389.00000
    29.7333     3346.00000
    29.7464     3444.00000
    29.7595     3398.00000
    29.7727     3207.00000
    29.7858     3247.00000
    29.7989     3370.00000
    29.8121     3375.00000
    29.8252     3257.00000
    29.8383     3224.00000
    29.8515     3228.00000
    29.8646     3304.00000
    29.8777     3351.00000
    29.8908     3279.00000
    29.9040     3334.00000
    29.9171     3206.00000
    29.9302     3518.00000
    29.9434     3390.00000
    29.9565     3405.00000
    29.9696     3345.00000
    29.9828     3367.00000
    29.9959     3403.00000
    30.0090     3320.00000
    30.0221     3307.00000
    30.0353     3255.00000
    30.0484     3290.00000
    30.0615     3323.00000
    30.0747     3270.00000
    30.0878     3341.00000
    30.1009     3293.00000
    30.1141     3333.00000
    30.1272     3201.00000
    30.1403     3258.00000
    30.1535     3264.00000
    30.1666     3296.00000
    30.1797     3276.00000
    30.1928     3240.00000
    30.2060     3279.00000
    30.2191     3215.00000
    30.2322     3155.00000
    30.2454     3239.00000
    30.2585     3372.00000
    30.2716     3291.00000
    30.2848     3437.00000
    30.2979     3365.00000
    30.3110     3379.00000
    30.3241     3456.00000
    30.3373     3318.00000
    30.3504     3323.00000
    30.3635     3287.00000
    30.3767     3332.00000
    30.3898     3305.00000
    30.4029     3254.00000
    30.4161     3123.00000
    30.4292     3291.00000
    30.4423     3229.00000
    30.4554     3317.00000
    30.4686     3211.00000
    30.4817     3281.00000
    30.4948     3255.00000
    30.5080     3258.00000
    30.5211     3105.00000
    30.5342     3186.00000
    30.5474     3216.00000
    30.5605     3375.00000
    30.5736     3174.00000
    30.5868     3129.00000
    30.5999     3144.00000
    30.6130     3164.00000
    30.6261     3065.00000
    30.6393     3151.00000
    30.6524     3128.00000
    30.6655     3125.00000
    30.6787     3133.00000
    30.6918     3217.00000
    30.7049     3121.00000
    30.7181     3285.00000
    30.7312     3182.00000
    30.7443     3247.00000
    30.7574     3217.00000
    30.7706     3140.00000
    30.7837     3269.00000
    30.7968     3130.00000
    30.8100     3125.00000
    30.8231     3215.00000
    30.8362     3117.00000
    30.8494     3155.00000
    30.8625     3096.00000
    30.8756     3181.00000
    30.8887     3094.00000
    30.9019     3200.00000
    30.9150     3197.00000
    30.9281     3153.00000
    30.9413     3147.00000
    30.9544     3190.00000
    30.9675     3101.00000
    30.9807     3118.00000
    30.9938     3084.00000
    31.0069     3081.00000
    31.0200     3261.00000
    31.0332     3115.00000
    31.0463     3137.00000
    31.0594     3195.00000
    31.0726     3125.00000
    31.0857     3121.00000
    31.0988     3091.00000
    31.1120     3093.00000
    31.1251     3143.00000
    31.1382     3276.00000
    31.1514     3114.00000
    31.1645     3062.00000
    31.1776     3103.00000
    31.1907     3090.00000
    31.2039     3229.00000
    31.2170     3273.00000
    31.2301     3139.00000
    31.2433     3133.00000
    31.2564     3100.00000
    31.2695     3152.00000
    31.2827     3080.00000
    31.2958     3109.00000
    31.3089     3125.00000
    31.3220     3127.00000
    31.3352     3038.00000
    31.3483     3106.00000
    31.3614     3195.00000
    31.3746     3092.00000
    31.3877     3061.00000
    31.4008     3225.00000
    31.4140     3161.00000
    31.4271     3116.00000
    31.4402     3015.00000
    31.4533     3098.00000
    31.4665     3102.00000
    31.4796     3093.00000
    31.4927     3236.00000
    31.5059     3151.00000
    31.5190     3171.00000
    31.5321     3048.00000
    31.5453     3062.00000
    31.5584     3231.00000
    31.5715     3134.00000
    31.5847     3074.00000
    31.5978     3222.00000
    31.6109     3162.00000
    31.6240     3117.00000
    31.6372     3159.00000
    31.6503     3186.00000
    31.6634     3140.00000
    31.6766     3142.00000
    31.6897     3187.00000
    31.7028     2991.00000
    31.7160     3067.00000
    31.7291     3080.00000
    31.7422     3157.00000
    31.7553     3211.00000
    31.7685     3129.00000
    31.7816     3062.00000
    31.7947     3153.00000
    31.8079     3136.00000
    31.8210     3029.00000
    31.8341     3167.00000
    31.8473     3109.00000
    31.8604     3077.00000
    31.8735     3056.00000
    31.8866     3176.00000
    31.8998     3109.00000
    31.9129     3163.00000
    31.9260     3121.00000
    31.9392     3075.00000
    31.9523     3079.00000
    31.9654     3030.00000
    31.9786     3218.00000
    31.9917     3126.00000
    32.0048     3158.00000
    32.0180     3244.00000
    32.0311     3193.00000
    32.0442     3134.00000
    32.0573     3142.00000
    32.0705     3190.00000
    32.0836     3212.00000
    32.0967     3144.00000
    32.1099     3279.00000
    32.1230     3246.00000
    32.1361     3196.00000
    32.1493     3214.00000
    32.1624     3130.00000
    32.1755     3302.00000
    32.1886     3174.00000
    32.2018     3249.00000
    32.2149     3243.00000
    32.2280     3240.00000
    32.2412     3201.00000
    32.2543     3147.00000
    32.2674     3244.00000
    32.2806     3178.00000
    32.2937     3210.00000
    32.3068     3258.00000
    32.3199     3219.00000
    32.3331     3313.00000
    32.3462     3276.00000
    32.3593     3244.00000
    32.3725     3241.00000
    32.3856     3265.00000
    32.3987     3263.00000
    32.4119     3359.00000
    32.4250     3333.00000
    32.4381     3301.00000
    32.4512     3481.00000
    32.4644     3410.00000
    32.4775     3560.00000
    32.4906     3717.00000
    32.5038     3816.00000
    32.5169     3850.00000
    32.5300     3963.00000
    32.5432     3979.00000
    32.5563     4388.00000
    32.5694     4932.00000
    32.5826     6080.00000
    32.5957     8196.00000
    32.6088    11830.00000
    32.6219    16673.00000
    32.6351    20620.00000
    32.6482    20805.00000
    32.6613    18148.00000
    32.6745    15272.00000
    32.6876    13504.00000
    32.7007    13266.00000
    32.7139    13910.00000
    32.7270    13517.00000
    32.7401    11601.00000
    32.7532     9734.00000
    32.7664     7891.00000
    32.7795     6211.00000
    32.7926     5131.00000
    32.8058     4649.00000
    32.8189     4117.00000
    32.8320     3955.00000
    32.8452     3779.00000
    32.8583     3631.00000
    32.8714     3659.00000
    32.8845     3589.00000
    32.8977     3518.00000
    32.9108     3526.00000
    32.9239     3439.00000
    32.9371     3516.00000
    32.9502     3462.00000
    32.9633     3617.00000
    32.9765     3728.00000
    32.9896     3707.00000
    33.0027     3712.00000
    33.0159     3755.00000
    33.0290     3882.00000
    33.0421     3917.00000
    33.0552     4040.00000
    33.0684     4165.00000
    33.0815     4202.00000
    33.0946     4415.00000
    33.1078     4436.00000
    33.1209     4772.00000
    33.1340     5015.00000
    33.1472     5640.00000
    33.1603     6863.00000
    33.1734     8739.00000
    33.1865    12691.00000
    33.1997    18048.00000
    33.2128    24540.00000
    33.2259    31478.00000
    33.2391    35001.00000
    33.2522    33406.00000
    33.2653    29755.00000
    33.2785    25690.00000
    33.2916    22632.00000
    33.3047    21442.00000
    33.3178    21312.00000
    33.3310    20260.00000
    33.3441    17971.00000
    33.3572    14574.00000
    33.3704    11340.00000
    33.3835     8372.00000
    33.3966     6767.00000
    33.4098     5657.00000
    33.4229     5308.00000
    33.4360     4937.00000
    33.4492     4834.00000
    33.4623     4790.00000
    33.4754     4769.00000
    33.4885     4936.00000
    33.5017     5008.00000
    33.5148     5245.00000
    33.5279     5550.00000
    33.5411     6019.00000
    33.5542     7171.00000
    33.5673     9108.00000
    33.5805    12060.00000
    33.5936    16204.00000
    33.6067    21036.00000
    33.6198    25594.00000
    33.6330    29153.00000
    33.6461    30169.00000
    33.6592    28845.00000
    33.6724    26144.00000
    33.6855    23113.00000
    33.6986    21209.00000
    33.7118    20594.00000
    33.7249    19879.00000
    33.7380    19514.00000
    33.7511    19421.00000
    33.7643    19570.00000
    33.7774    20077.00000
    33.7905    20094.00000
    33.8037    17428.00000
    33.8168    14196.00000
    33.8299    11903.00000
    33.8431    11141.00000
    33.8562    10844.00000
    33.8693    11068.00000
    33.8825    10371.00000
    33.8956     9078.00000
    33.9087     7578.00000
    33.9218     6484.00000
    33.9350     5434.00000
    33.9481     4482.00000
    33.9612     4032.00000
    33.9744     3832.00000
    33.9875     3692.00000
    34.0006     3432.00000
    34.0138     3550.00000
    34.0269     3587.00000
    34.0400     3388.00000
    34.0531     3393.00000
    34.0663     3325.00000
    34.0794     3330.00000
    34.0925     3322.00000
    34.1057     3297.00000
    34.1188     3307.00000
    34.1319     3344.00000
    34.1451     3186.00000
    34.1582     3156.00000
    34.1713     3193.00000
    34.1844     3204.00000
    34.1976     3230.00000
    34.2107     3207.00000
    34.2238     3209.00000
    34.2370     3247.00000
    34.2501     3175.00000
    34.2632     3198.00000
    34.2764     3264.00000
    34.2895     3286.00000
    34.3026     3164.00000
    34.3158     3297.00000
    34.3289     3301.00000
    34.3420     3324.00000
    34.3551     3251.00000
    34.3683     3288.00000
    34.3814     3281.00000
    34.3945     3302.00000
    34.4077     3337.00000
    34.4208     3505.00000
    34.4339     3465.00000
    34.4471     3511.00000
    34.4602     3529.00000
    34.4733     3627.00000
    34.4864     3782.00000
    34.4996     3911.00000
    34.5127     4339.00000
    34.5258     5109.00000
    34.5390     6594.00000
    34.5521     8695.00000
    34.5652    11546.00000
    34.5784    13588.00000
    34.5915    14164.00000
    34.6046    12974.00000
    34.6177    10950.00000
    34.6309     9554.00000
    34.6440     8988.00000
    34.6571     9129.00000
    34.6703     9167.00000
    34.6834     8868.00000
    34.6965     7718.00000
    34.7097     6573.00000
    34.7228     5404.00000
    34.7359     4538.00000
    34.7491     4002.00000
    34.7622     3635.00000
    34.7753     3546.00000
    34.7884     3285.00000
    34.8016     3308.00000
    34.8147     3495.00000
    34.8278     3251.00000
    34.8410     3279.00000
    34.8541     3266.00000
    34.8672     3352.00000
    34.8804     3473.00000
    34.8935     3545.00000
    34.9066     3627.00000
    34.9197     3524.00000
    34.9329     3502.00000
    34.9460     3377.00000
    34.9591     3267.00000
    34.9723     3207.00000
    34.9854     3207.00000
    34.9985     3177.00000
    35.0117     3267.00000
    35.0248     3252.00000
    35.0379     3195.00000
    35.0510     3073.00000
    35.0642     3028.00000
    35.0773     3047.00000
    35.0904     3061.00000
    35.1036     2933.00000
    35.1167     2988.00000
    35.1298     3012.00000
    35.1430     2912.00000
    35.1561     2994.00000
    35.1692     3071.00000
    35.1824     2981.00000
    35.1955     2898.00000
    35.2086     2917.00000
    35.2217     2987.00000
    35.2349     2981.00000
    35.2480     2931.00000
    35.2611     2920.00000
    35.2743     2895.00000
    35.2874     3040.00000
    35.3005     2896.00000
    35.3137     2939.00000
    35.3268     2981.00000
    35.3399     2860.00000
    35.3530     2909.00000
    35.3662     2917.00000
    35.3793     2883.00000
    35.3924     3005.00000
    35.4056     2977.00000
    35.4187     2868.00000
    35.4318     2963.00000
    35.4450     2944.00000
    35.4581     3021.00000
    35.4712     3020.00000
    35.4843     2912.00000
    35.4975     3058.00000
    35.5106     3030.00000
    35.5237     2950.00000
    35.5369     2875.00000
    35.5500     2911.00000
    35.5631     2871.00000
    35.5763     2884.00000
    35.5894     2902.00000
    35.6025     2961.00000
    35.6156     2917.00000
    35.6288     2933.00000
    35.6419     2936.00000
    35.6550     2923.00000
    35.6682     2994.00000
    35.6813     3041.00000
    35.6944     2940.00000
    35.7076     2957.00000
    35.7207     2886.00000
    35.7338     2946.00000
    35.7470     2919.00000
    35.7601     2990.00000
    35.7732     2909.00000
    35.7863     2974.00000
    35.7995     2872.00000
    35.8126     2888.00000
    35.8257     2986.00000
    35.8389     2904.00000
    35.8520     2951.00000
    35.8651     2852.00000
    35.8783     3028.00000
    35.8914     2819.00000
    35.9045     3062.00000
    35.9176     2974.00000
    35.9308     3028.00000
    35.9439     3095.00000
    35.9570     3067.00000
    35.9702     2994.00000
    35.9833     2959.00000
    35.9964     2910.00000
    36.0096     3007.00000
    36.0227     3039.00000
    36.0358     2884.00000
    36.0489     2914.00000
    36.0621     2985.00000
    36.0752     2963.00000
    36.0883     3026.00000
    36.1015     2955.00000
    36.1146     2924.00000
    36.1277     2990.00000
    36.1409     2989.00000
    36.1540     3097.00000
    36.1671     2968.00000
    36.1802     3013.00000
    36.1934     2812.00000
    36.2065     2972.00000
    36.2196     2878.00000
    36.2328     2920.00000
    36.2459     2938.00000
    36.2590     2834.00000
    36.2722     2975.00000
    36.2853     2893.00000
    36.2984     2921.00000
    36.3116     3000.00000
    36.3247     2971.00000
    36.3378     2835.00000
    36.3509     2943.00000
    36.3641     2948.00000
    36.3772     2926.00000
    36.3903     2988.00000
    36.4035     2888.00000
    36.4166     2884.00000
    36.4297     2977.00000
    36.4429     2910.00000
    36.4560     2997.00000
    36.4691     3008.00000
    36.4822     3065.00000
    36.4954     3093.00000
    36.5085     3103.00000
    36.5216     3109.00000
    36.5348     3135.00000
    36.5479     3144.00000
    36.5610     3229.00000
    36.5742     3284.00000
    36.5873     3544.00000
    36.6004     3716.00000
    36.6135     4238.00000
    36.6267     5055.00000
    36.6398     6387.00000
    36.6529     8318.00000
    36.6661     9121.00000
    36.6792     9305.00000
    36.6923     8666.00000
    36.7055     7246.00000
    36.7186     6091.00000
    36.7317     5724.00000
    36.7449     6114.00000
    36.7580     6191.00000
    36.7711     6368.00000
    36.7842     6007.00000
    36.7974     5126.00000
    36.8105     4297.00000
    36.8236     3861.00000
    36.8368     3508.00000
    36.8499     3249.00000
    36.8630     3169.00000
    36.8762     3153.00000
    36.8893     3074.00000
    36.9024     3046.00000
    36.9155     2977.00000
    36.9287     3159.00000
    36.9418     3106.00000
    36.9549     3056.00000
    36.9681     3057.00000
    36.9812     2943.00000
    36.9943     3010.00000
    37.0075     2980.00000
    37.0206     2982.00000
    37.0337     3017.00000
    37.0468     3016.00000
    37.0600     3021.00000
    37.0731     3068.00000
    37.0862     3058.00000
    37.0994     3142.00000
    37.1125     3123.00000
    37.1256     3116.00000
    37.1388     3204.00000
    37.1519     3406.00000
    37.1650     3405.00000
    37.1782     3566.00000
    37.1913     3798.00000
    37.2044     4065.00000
    37.2175     4768.00000
    37.2307     5912.00000
    37.2438     7329.00000
    37.2569     8554.00000
    37.2701     9311.00000
    37.2832     9875.00000
    37.2963     9526.00000
    37.3095     8755.00000
    37.3226     7722.00000
    37.3357     7320.00000
    37.3488     6885.00000
    37.3620     6790.00000
    37.3751     6556.00000
    37.3882     6516.00000
    37.4014     5749.00000
    37.4145     5132.00000
    37.4276     4465.00000
    37.4408     3823.00000
    37.4539     3602.00000
    37.4670     3318.00000
    37.4801     3228.00000
    37.4933     3093.00000
    37.5064     3056.00000
    37.5195     3172.00000
    37.5327     3112.00000
    37.5458     3361.00000
    37.5589     3462.00000
    37.5721     3619.00000
    37.5852     3524.00000
    37.5983     3499.00000
    37.6115     3421.00000
    37.6246     3278.00000
    37.6377     3279.00000
    37.6508     3427.00000
    37.6640     3482.00000
    37.6771     3276.00000
    37.6902     3274.00000
    37.7034     3247.00000
    37.7165     3068.00000
    37.7296     3086.00000
    37.7428     2941.00000
    37.7559     2871.00000
    37.7690     2993.00000
    37.7821     2868.00000
    37.7953     2944.00000
    37.8084     2906.00000
    37.8215     2750.00000
    37.8347     2814.00000
    37.8478     2846.00000
    37.8609     2768.00000
    37.8741     2755.00000
    37.8872     2797.00000
    37.9003     2883.00000
    37.9134     2836.00000
    37.9266     2715.00000
    37.9397     2701.00000
    37.9528     2747.00000
    37.9660     2713.00000
    37.9791     2739.00000
    37.9922     2763.00000
    38.0054     2771.00000
    38.0185     2840.00000
    38.0316     2855.00000
    38.0448     2902.00000
    38.0579     2754.00000
    38.0710     2710.00000
    38.0841     2828.00000
    38.0973     2756.00000
    38.1104     2691.00000
    38.1235     2756.00000
    38.1367     2861.00000
    38.1498     2703.00000
    38.1629     2712.00000
    38.1761     2839.00000
    38.1892     2723.00000
    38.2023     2897.00000
    38.2154     2791.00000
    38.2286     2816.00000
    38.2417     2798.00000
    38.2548     2793.00000
    38.2680     2574.00000
    38.2811     2719.00000
    38.2942     2736.00000
    38.3074     2778.00000
    38.3205     2708.00000
    38.3336     2863.00000
    38.3467     2810.00000
    38.3599     2720.00000
    38.3730     2739.00000
    38.3861     2694.00000
    38.3993     2645.00000
    38.4124     2792.00000
    38.4255     2760.00000
    38.4387     2747.00000
    38.4518     2692.00000
    38.4649     2717.00000
    38.4781     2744.00000
    38.4912     2804.00000
    38.5043     2771.00000
    38.5174     2825.00000
    38.5306     2793.00000
    38.5437     2741.00000
    38.5568     2752.00000
    38.5700     2869.00000
    38.5831     2683.00000
    38.5962     2761.00000
    38.6094     2888.00000
    38.6225     2791.00000
    38.6356     2845.00000
    38.6487     2862.00000
    38.6619     2759.00000
    38.6750     2761.00000
    38.6881     2814.00000
    38.7013     2822.00000
    38.7144     2773.00000
    38.7275     2760.00000
    38.7407     2833.00000
    38.7538     2827.00000
    38.7669     2677.00000
    38.7800     2788.00000
    38.7932     2809.00000
    38.8063     2816.00000
    38.8194     2852.00000
    38.8326     2757.00000
    38.8457     2731.00000
    38.8588     2688.00000
    38.8720     2773.00000
    38.8851     2701.00000
    38.8982     2683.00000
    38.9114     2715.00000
    38.9245     2670.00000
    38.9376     2885.00000
    38.9507     2688.00000
    38.9639     2645.00000
    38.9770     2715.00000
    38.9901     2790.00000
    39.0033     2783.00000
    39.0164     2697.00000
    39.0295     2688.00000
    39.0427     2710.00000
    39.0558     2714.00000
    39.0689     2715.00000
    39.0820     2662.00000
    39.0952     2747.00000
    39.1083     2777.00000
    39.1214     2806.00000
    39.1346     2856.00000
    39.1477     2670.00000
    39.1608     2727.00000
    39.1740     2712.00000
    39.1871     2782.00000
    39.2002     2715.00000
    39.2133     2822.00000
    39.2265     2785.00000
    39.2396     2814.00000
    39.2527     2705.00000
    39.2659     2728.00000
    39.2790     2720.00000
    39.2921     2763.00000
    39.3053     2792.00000
    39.3184     2751.00000
    39.3315     2688.00000
    39.3446     2858.00000
    39.3578     2752.00000
    39.3709     2735.00000
    39.3840     2695.00000
    39.3972     2850.00000
    39.4103     2821.00000
    39.4234     2722.00000
    39.4366     2855.00000
    39.4497     2775.00000
    39.4628     2903.00000
    39.4760     2909.00000
    39.4891     2800.00000
    39.5022     2824.00000
    39.5153     2928.00000
    39.5285     2991.00000
    39.5416     3005.00000
    39.5547     3152.00000
    39.5679     3480.00000
    39.5810     3826.00000
    39.5941     4238.00000
    39.6073     4380.00000
    39.6204     4649.00000
    39.6335     4679.00000
    39.6466     4623.00000
    39.6598     4451.00000
    39.6729     4262.00000
    39.6860     4111.00000
    39.6992     4108.00000
    39.7123     3846.00000
    39.7254     3954.00000
    39.7386     3871.00000
    39.7517     3836.00000
    39.7648     3539.00000
    39.7779     3512.00000
    39.7911     3386.00000
    39.8042     3267.00000
    39.8173     3388.00000
    39.8305     3508.00000
    39.8436     3747.00000
    39.8567     3907.00000
    39.8699     4645.00000
    39.8830     5438.00000
    39.8961     6606.00000
    39.9092     7713.00000
    39.9224     7785.00000
    39.9355     7273.00000
    39.9486     6496.00000
    39.9618     5832.00000
    39.9749     5217.00000
    39.9880     5146.00000
    40.0012     5411.00000
    40.0143     5844.00000
    40.0274     5655.00000
    40.0406     5220.00000
    40.0537     4549.00000
    40.0668     4259.00000
    40.0799     3848.00000
    40.0931     3395.00000
    40.1062     3412.00000
    40.1193     3242.00000
    40.1325     3211.00000
    40.1456     3063.00000
    40.1587     3276.00000
    40.1719     3237.00000
    40.1850     3288.00000
    40.1981     3200.00000
    40.2112     3383.00000
    40.2244     3635.00000
    40.2375     3908.00000
    40.2506     4442.00000
    40.2638     5426.00000
    40.2769     6955.00000
    40.2900     8749.00000
    40.3032    10142.00000
    40.3163    10160.00000
    40.3294     9015.00000
    40.3425     7658.00000
    40.3557     6446.00000
    40.3688     5915.00000
    40.3819     5865.00000
    40.3951     6399.00000
    40.4082     6627.00000
    40.4213     6552.00000
    40.4345     5987.00000
    40.4476     5044.00000
    40.4607     4366.00000
    40.4739     3878.00000
    40.4870     3473.00000
    40.5001     3410.00000
    40.5132     3189.00000
    40.5264     3208.00000
    40.5395     3083.00000
    40.5526     3044.00000
    40.5658     3066.00000
    40.5789     3001.00000
    40.5920     2976.00000
    40.6052     3067.00000
    40.6183     3023.00000
    40.6314     3013.00000
    40.6445     2994.00000
    40.6577     2944.00000
    40.6708     3091.00000
    40.6839     3130.00000
    40.6971     3161.00000
    40.7102     3255.00000
    40.7233     3370.00000
    40.7365     3388.00000
    40.7496     3410.00000
    40.7627     3530.00000
    40.7758     3873.00000
    40.7890     4300.00000
    40.8021     4769.00000
    40.8152     5665.00000
    40.8284     6860.00000
    40.8415     8230.00000
    40.8546     9979.00000
    40.8678    11193.00000
    40.8809    11406.00000
    40.8940    10757.00000
    40.9072     9438.00000
    40.9203     8085.00000
    40.9334     7403.00000
    40.9465     7618.00000
    40.9597     7923.00000
    40.9728     8573.00000
    40.9859     9273.00000
    40.9991     9847.00000
    41.0122    11109.00000
    41.0253    12243.00000
    41.0385    13016.00000
    41.0516    13502.00000
    41.0647    12898.00000
    41.0778    11262.00000
    41.0910    10098.00000
    41.1041     9811.00000
    41.1172    10824.00000
    41.1304    13117.00000
    41.1435    15456.00000
    41.1566    16771.00000
    41.1698    16388.00000
    41.1829    14152.00000
    41.1960    11414.00000
    41.2091     8898.00000
    41.2223     7795.00000
    41.2354     7464.00000
    41.2485     7769.00000
    41.2617     7786.00000
    41.2748     7817.00000
    41.2879     7194.00000
    41.3011     6106.00000
    41.3142     4999.00000
    41.3273     4247.00000
    41.3405     3821.00000
    41.3536     3487.00000
    41.3667     3278.00000
    41.3798     3101.00000
    41.3930     3156.00000
    41.4061     3039.00000
    41.4192     3031.00000
    41.4324     2955.00000
    41.4455     2874.00000
    41.4586     2847.00000
    41.4718     2860.00000
    41.4849     2913.00000
    41.4980     2995.00000
    41.5111     2706.00000
    41.5243     2789.00000
    41.5374     2790.00000
    41.5505     2816.00000
    41.5637     2688.00000
    41.5768     2856.00000
    41.5899     2792.00000
    41.6031     2669.00000
    41.6162     2804.00000
    41.6293     2698.00000
    41.6424     2748.00000
    41.6556     2876.00000
    41.6687     2704.00000
    41.6818     2623.00000
    41.6950     2762.00000
    41.7081     2802.00000
    41.7212     2899.00000
    41.7344     2802.00000
    41.7475     2754.00000
    41.7606     2693.00000
    41.7738     2761.00000
    41.7869     2702.00000
    41.8000     2699.00000
    41.8131     2772.00000
    41.8263     2681.00000
    41.8394     2677.00000
    41.8525     2732.00000
    41.8657     2699.00000
    41.8788     2621.00000
    41.8919     2685.00000
    41.9051     2685.00000
    41.9182     2751.00000
    41.9313     2786.00000
    41.9444     2705.00000
    41.9576     2715.00000
    41.9707     2683.00000
    41.9838     2641.00000
    41.9970     2711.00000
    42.0101     2701.00000
    42.0232     2720.00000
    42.0364     2765.00000
    42.0495     2729.00000
    42.0626     2714.00000
    42.0757     2643.00000
    42.0889     2641.00000
    42.1020     2653.00000
    42.1151     2624.00000
    42.1283     2708.00000
    42.1414     2628.00000
    42.1545     2693.00000
    42.1677     2671.00000
    42.1808     2750.00000
    42.1939     2684.00000
    42.2071     2799.00000
    42.2202     2766.00000
    42.2333     2703.00000
    42.2464     2680.00000
    42.2596     2701.00000
    42.2727     2808.00000
    42.2858     2839.00000
    42.2990     2648.00000
    42.3121     2625.00000
    42.3252     2676.00000
    42.3384     2704.00000
    42.3515     2728.00000
    42.3646     2750.00000
    42.3777     2696.00000
    42.3909     2764.00000
    42.4040     2652.00000
    42.4171     2718.00000
    42.4303     2739.00000
    42.4434     2636.00000
    42.4565     2715.00000
    42.4697     2643.00000
    42.4828     2671.00000
    42.4959     2689.00000
    42.5090     2696.00000
    42.5222     2718.00000
    42.5353     2723.00000
    42.5484     2570.00000
    42.5616     2736.00000
    42.5747     2628.00000
    42.5878     2629.00000
    42.6010     2714.00000
    42.6141     2778.00000
    42.6272     2705.00000
    42.6404     2604.00000
    42.6535     2716.00000
    42.6666     2724.00000
    42.6797     2720.00000
    42.6929     2634.00000
    42.7060     2689.00000
    42.7191     2691.00000
    42.7323     2692.00000
    42.7454     2680.00000
    42.7585     2762.00000
    42.7717     2722.00000
    42.7848     2676.00000
    42.7979     2731.00000
    42.8110     2626.00000
    42.8242     2743.00000
    42.8373     2709.00000
    42.8504     2699.00000
    42.8636     2692.00000
    42.8767     2711.00000
    42.8898     2731.00000
    42.9030     2708.00000
    42.9161     2695.00000
    42.9292     2748.00000
    42.9423     2716.00000
    42.9555     2706.00000
    42.9686     2782.00000
    42.9817     2643.00000
    42.9949     2671.00000
    43.0080     2616.00000
    43.0211     2704.00000
    43.0343     2603.00000
    43.0474     2731.00000
    43.0605     2604.00000
    43.0736     2711.00000
    43.0868     2611.00000
    43.0999     2686.00000
    43.1130     2723.00000
    43.1262     2706.00000
    43.1393     2729.00000
    43.1524     2765.00000
    43.1656     2732.00000
    43.1787     2661.00000
    43.1918     2560.00000
    43.2050     2723.00000
    43.2181     2686.00000
    43.2312     2705.00000
    43.2443     2817.00000
    43.2575     2740.00000
    43.2706     2865.00000
    43.2837     2920.00000
    43.2969     2937.00000
    43.3100     3260.00000
    43.3231     3376.00000
    43.3363     3266.00000
    43.3494     3118.00000
    43.3625     3227.00000
    43.3756     2967.00000
    43.3888     2971.00000
    43.4019     3075.00000
    43.4150     2982.00000
    43.4282     2937.00000
    43.4413     3041.00000
    43.4544     3003.00000
    43.4676     2927.00000
    43.4807     2874.00000
    43.4938     2843.00000
    43.5069     2808.00000
    43.5201     2769.00000
    43.5332     2653.00000
    43.5463     2618.00000
    43.5595     2701.00000
    43.5726     2709.00000
    43.5857     2685.00000
    43.5989     2767.00000
    43.6120     2617.00000
    43.6251     2725.00000
    43.6383     2651.00000
    43.6514     2669.00000
    43.6645     2640.00000
    43.6776     2674.00000
    43.6908     2604.00000
    43.7039     2697.00000
    43.7170     2743.00000
    43.7302     2698.00000
    43.7433     2695.00000
    43.7564     2594.00000
    43.7696     2715.00000
    43.7827     2605.00000
    43.7958     2641.00000
    43.8089     2641.00000
    43.8221     2638.00000
    43.8352     2718.00000
    43.8483     2668.00000
    43.8615     2707.00000
    43.8746     2663.00000
    43.8877     2747.00000
    43.9009     2734.00000
    43.9140     2663.00000
    43.9271     2748.00000
    43.9402     2728.00000
    43.9534     2692.00000
    43.9665     2710.00000
    43.9796     2676.00000
    43.9928     2750.00000
    44.0059     2758.00000
    44.0190     2750.00000
    44.0322     2791.00000
    44.0453     2859.00000
    44.0584     2970.00000
    44.0715     3171.00000
    44.0847     3553.00000
    44.0978     3752.00000
    44.1109     4037.00000
    44.1241     4161.00000
    44.1372     4125.00000
    44.1503     3926.00000
    44.1635     3463.00000
    44.1766     3310.00000
    44.1897     3268.00000
    44.2029     3351.00000
    44.2160     3541.00000
    44.2291     3584.00000
    44.2422     3459.00000
    44.2554     3557.00000
    44.2685     3341.00000
    44.2816     3175.00000
    44.2948     3143.00000
    44.3079     2958.00000
    44.3210     2968.00000
    44.3342     3069.00000
    44.3473     3158.00000
    44.3604     3282.00000
    44.3735     3783.00000
    44.3867     3937.00000
    44.3998     4518.00000
    44.4129     4909.00000
    44.4261     5450.00000
    44.4392     5621.00000
    44.4523     5484.00000
    44.4655     5182.00000
    44.4786     4548.00000
    44.4917     4298.00000
    44.5048     4091.00000
    44.5180     4051.00000
    44.5311     4106.00000
    44.5442     4286.00000
    44.5574     4241.00000
    44.5705     4033.00000
    44.5836     3752.00000
    44.5968     3551.00000
    44.6099     3276.00000
    44.6230     3097.00000
    44.6362     2923.00000
    44.6493     2810.00000
    44.6624     2818.00000
    44.6755     2863.00000
    44.6887     2647.00000
    44.7018     2684.00000
    44.7149     2799.00000
    44.7281     2736.00000
    44.7412     2605.00000
    44.7543     2722.00000
    44.7675     2691.00000
    44.7806     2724.00000
    44.7937     2741.00000
    44.8068     2706.00000
    44.8200     2817.00000
    44.8331     2791.00000
    44.8462     2745.00000
    44.8594     2725.00000
    44.8725     2700.00000
    44.8856     2727.00000
    44.8988     2651.00000
    44.9119     2723.00000
    44.9250     2665.00000
    44.9381     2606.00000
    44.9513     2593.00000
    44.9644     2710.00000
    44.9775     2701.00000
    44.9907     2674.00000
    45.0038     2706.00000
    45.0169     2694.00000
    45.0301     2764.00000
    45.0432     2703.00000
    45.0563     2694.00000
    45.0695     2632.00000
    45.0826     2653.00000
    45.0957     2586.00000
    45.1088     2633.00000
    45.1220     2606.00000
    45.1351     2680.00000
    45.1482     2604.00000
    45.1614     2683.00000
    45.1745     2704.00000
    45.1876     2730.00000
    45.2008     2640.00000
    45.2139     2670.00000
    45.2270     2803.00000
    45.2401     2614.00000
    45.2533     2745.00000
    45.2664     2761.00000
    45.2795     2706.00000
    45.2927     2695.00000
    45.3058     2723.00000
    45.3189     2803.00000
    45.3321     2797.00000
    45.3452     2808.00000
    45.3583     2727.00000
    45.3714     2719.00000
    45.3846     2772.00000
    45.3977     2905.00000
    45.4108     2870.00000
    45.4240     2753.00000
    45.4371     2884.00000
    45.4502     2888.00000
    45.4634     2932.00000
    45.4765     3048.00000
    45.4896     3125.00000
    45.5028     3134.00000
    45.5159     3436.00000
    45.5290     3745.00000
    45.5421     4299.00000
    45.5553     5363.00000
    45.5684     6985.00000
    45.5815     9192.00000
    45.5947    11222.00000
    45.6078    11561.00000
    45.6209    10027.00000
    45.6341     8325.00000
    45.6472     6752.00000
    45.6603     5690.00000
    45.6734     5200.00000
    45.6866     5392.00000
    45.6997     6171.00000
    45.7128     7095.00000
    45.7260     7154.00000
    45.7391     6652.00000
    45.7522     5551.00000
    45.7654     4777.00000
    45.7785     4085.00000
    45.7916     3618.00000
    45.8047     3303.00000
    45.8179     3099.00000
    45.8310     3023.00000
    45.8441     2927.00000
    45.8573     2872.00000
    45.8704     2805.00000
    45.8835     2778.00000
    45.8967     2771.00000
    45.9098     2708.00000
    45.9229     2809.00000
    45.9361     2749.00000
    45.9492     2738.00000
    45.9623     2729.00000
    45.9754     2741.00000
    45.9886     2717.00000
    46.0017     2766.00000
    46.0148     2875.00000
    46.0280     2779.00000
    46.0411     2800.00000
    46.0542     2892.00000
    46.0674     2896.00000
    46.0805     2814.00000
    46.0936     2817.00000
    46.1067     2849.00000
    46.1199     2767.00000
    46.1330     2841.00000
    46.1461     2899.00000
    46.1593     2855.00000
    46.1724     2990.00000
    46.1855     2908.00000
    46.1987     2884.00000
    46.2118     2956.00000
    46.2249     3131.00000
    46.2380     3254.00000
    46.2512     3447.00000
    46.2643     4065.00000
    46.2774     4680.00000
    46.2906     5525.00000
    46.3037     6599.00000
    46.3168     7305.00000
    46.3300     6775.00000
    46.3431     6008.00000
    46.3562     4764.00000
    46.3694     4333.00000
    46.3825     4065.00000
    46.3956     3875.00000
    46.4087     4240.00000
    46.4219     4747.00000
    46.4350     4911.00000
    46.4481     5059.00000
    46.4613     4490.00000
    46.4744     4102.00000
    46.4875     3626.00000
    46.5007     3286.00000
    46.5138     3068.00000
    46.5269     2969.00000
    46.5400     2909.00000
    46.5532     2844.00000
    46.5663     2802.00000
    46.5794     2783.00000
    46.5926     2839.00000
    46.6057     2877.00000
    46.6188     2829.00000
    46.6320     2734.00000
    46.6451     2807.00000
    46.6582     2886.00000
    46.6713     2820.00000
    46.6845     2851.00000
    46.6976     2777.00000
    46.7107     2767.00000
    46.7239     2867.00000
    46.7370     2856.00000
    46.7501     2801.00000
    46.7633     2817.00000
    46.7764     2880.00000
    46.7895     2876.00000
    46.8027     2863.00000
    46.8158     2909.00000
    46.8289     2918.00000
    46.8420     2974.00000
    46.8552     2964.00000
    46.8683     2981.00000
    46.8814     2978.00000
    46.8946     3151.00000
    46.9077     3258.00000
    46.9208     3328.00000
    46.9340     3618.00000
    46.9471     3907.00000
    46.9602     4570.00000
    46.9733     5418.00000
    46.9865     6301.00000
    46.9996     7097.00000
    47.0127     8032.00000
    47.0259     8656.00000
    47.0390     8689.00000
    47.0521     8073.00000
    47.0653     6888.00000
    47.0784     5922.00000
    47.0915     5320.00000
    47.1046     5358.00000
    47.1178     5403.00000
    47.1309     5499.00000
    47.1440     5782.00000
    47.1572     6028.00000
    47.1703     5684.00000
    47.1834     5036.00000
    47.1966     4328.00000
    47.2097     3824.00000
    47.2228     3483.00000
    47.2359     3188.00000
    47.2491     3150.00000
    47.2622     3039.00000
    47.2753     3057.00000
    47.2885     2937.00000
    47.3016     3008.00000
    47.3147     3022.00000
    47.3279     2977.00000
    47.3410     3180.00000
    47.3541     3117.00000
    47.3673     3134.00000
    47.3804     3102.00000
    47.3935     3157.00000
    47.4066     3216.00000
    47.4198     3121.00000
    47.4329     3213.00000
    47.4460     3211.00000
    47.4592     3286.00000
    47.4723     3453.00000
    47.4854     3442.00000
    47.4986     3499.00000
    47.5117     3548.00000
    47.5248     3565.00000
    47.5379     3724.00000
    47.5511     3815.00000
    47.5642     4067.00000
    47.5773     4368.00000
    47.5905     4798.00000
    47.6036     5212.00000
    47.6167     5931.00000
    47.6299     7412.00000
    47.6430     9232.00000
    47.6561    12023.00000
    47.6692    15360.00000
    47.6824    18867.00000
    47.6955    20647.00000
    47.7086    20211.00000
    47.7218    18145.00000
    47.7349    14895.00000
    47.7480    12446.00000
    47.7612    10846.00000
    47.7743    10208.00000
    47.7874    10616.00000
    47.8005    11556.00000
    47.8137    12240.00000
    47.8268    12434.00000
    47.8399    11849.00000
    47.8531    10077.00000
    47.8662     8310.00000
    47.8793     6869.00000
    47.8925     5695.00000
    47.9056     4961.00000
    47.9187     4302.00000
    47.9319     4106.00000
    47.9450     3747.00000
    47.9581     3699.00000
    47.9712     3465.00000
    47.9844     3483.00000
    47.9975     3197.00000
    48.0106     3338.00000
    48.0238     3144.00000
    48.0369     3275.00000
    48.0500     3177.00000
    48.0632     3143.00000
    48.0763     3163.00000
    48.0894     3221.00000
    48.1025     3261.00000
    48.1157     3303.00000
    48.1288     3303.00000
    48.1419     3219.00000
    48.1551     3297.00000
    48.1682     3262.00000
    48.1813     3448.00000
    48.1945     3559.00000
    48.2076     3674.00000
    48.2207     3925.00000
    48.2338     4546.00000
    48.2470     5190.00000
    48.2601     6626.00000
    48.2732     8435.00000
    48.2864    10814.00000
    48.2995    12563.00000
    48.3126    13011.00000
    48.3258    12812.00000
    48.3389    13461.00000
    48.3520    13505.00000
    48.3652    13087.00000
    48.3783    11862.00000
    48.3914    11106.00000
    48.4045    10653.00000
    48.4177    10135.00000
    48.4308     9537.00000
    48.4439     8975.00000
    48.4571     8672.00000
    48.4702     8668.00000
    48.4833     8414.00000
    48.4965     7755.00000
    48.5096     7043.00000
    48.5227     6201.00000
    48.5358     5633.00000
    48.5490     4871.00000
    48.5621     4311.00000
    48.5752     4272.00000
    48.5884     4100.00000
    48.6015     4370.00000
    48.6146     4645.00000
    48.6278     5432.00000
    48.6409     6849.00000
    48.6540     8348.00000
    48.6671    10638.00000
    48.6803    12423.00000
    48.6934    13069.00000
    48.7065    12386.00000
    48.7197    10814.00000
    48.7328     8714.00000
    48.7459     7056.00000
    48.7591     6326.00000
    48.7722     6210.00000
    48.7853     6446.00000
    48.7985     7329.00000
    48.8116     8095.00000
    48.8247     8195.00000
    48.8378     7570.00000
    48.8510     6581.00000
    48.8641     5497.00000
    48.8772     4581.00000
    48.8904     4028.00000
    48.9035     3625.00000
    48.9166     3364.00000
    48.9298     3377.00000
    48.9429     3195.00000
    48.9560     3212.00000
    48.9691     3078.00000
    48.9823     2992.00000
    48.9954     3006.00000
    49.0085     2886.00000
    49.0217     2917.00000
    49.0348     3002.00000
    49.0479     3013.00000
    49.0611     2966.00000
    49.0742     2860.00000
    49.0873     2970.00000
    49.1004     2974.00000
    49.1136     2990.00000
    49.1267     2884.00000
    49.1398     2897.00000
    49.1530     2986.00000
    49.1661     2923.00000
    49.1792     2949.00000
    49.1924     2804.00000
    49.2055     2918.00000
    49.2186     2887.00000
    49.2318     2877.00000
    49.2449     2929.00000
    49.2580     2837.00000
    49.2711     2935.00000
    49.2843     3023.00000
    49.2974     3115.00000
    49.3105     3120.00000
    49.3237     3197.00000
    49.3368     3248.00000
    49.3499     3452.00000
    49.3631     3458.00000
    49.3762     3584.00000
    49.3893     3566.00000
    49.4024     3338.00000
    49.4156     3340.00000
    49.4287     3111.00000
    49.4418     3191.00000
    49.4550     3242.00000
    49.4681     3294.00000
    49.4812     3299.00000
    49.4944     3363.00000
    49.5075     3404.00000
    49.5206     3539.00000
    49.5337     3475.00000
    49.5469     3446.00000
    49.5600     3492.00000
    49.5731     3502.00000
    49.5863     3504.00000
    49.5994     3532.00000
    49.6125     3491.00000
    49.6257     3333.00000
    49.6388     3436.00000
    49.6519     3345.00000
    49.6651     3492.00000
    49.6782     3486.00000
    49.6913     3546.00000
    49.7044     3619.00000
    49.7176     3653.00000
    49.7307     3625.00000
    49.7438     3698.00000
    49.7570     3680.00000
    49.7701     3753.00000
    49.7832     3852.00000
    49.7964     4240.00000
    49.8095     4601.00000
    49.8226     5355.00000
    49.8357     6342.00000
    49.8489     7955.00000
    49.8620    10429.00000
    49.8751    13681.00000
    49.8883    16685.00000
    49.9014    18843.00000
    49.9145    18823.00000
    49.9277    17436.00000
    49.9408    14874.00000
    49.9539    12348.00000
    49.9670    10628.00000
    49.9802     9780.00000
    49.9933     9746.00000
    50.0064    10601.00000
    50.0196    11523.00000
    50.0327    12120.00000
    50.0458    11866.00000
    50.0590    10707.00000
    50.0721     9328.00000
    50.0852     7953.00000
    50.0984     6506.00000
    50.1115     5615.00000
    50.1246     5137.00000
    50.1377     4823.00000
    50.1509     4339.00000
    50.1640     4140.00000
    50.1771     3936.00000
    50.1903     3849.00000
    50.2034     3743.00000
    50.2165     3691.00000
    50.2297     3502.00000
    50.2428     3741.00000
    50.2559     3840.00000
    50.2690     3944.00000
    50.2822     4233.00000
    50.2953     4585.00000
    50.3084     5137.00000
    50.3216     6007.00000
    50.3347     7103.00000
    50.3478     8439.00000
    50.3610     9626.00000
    50.3741    10753.00000
    50.3872    11602.00000
    50.4003    11220.00000
    50.4135    10361.00000
    50.4266     8979.00000
    50.4397     7384.00000
    50.4529     6821.00000
    50.4660     6407.00000
    50.4791     6573.00000
    50.4923     6991.00000
    50.5054     7402.00000
    50.5185     7484.00000
    50.5317     7416.00000
    50.5448     6844.00000
    50.5579     5854.00000
    50.5710     5113.00000
    50.5842     4414.00000
    50.5973     4002.00000
    50.6104     3666.00000
    50.6236     3559.00000
    50.6367     3473.00000
    50.6498     3061.00000
    50.6630     3097.00000
    50.6761     3039.00000
    50.6892     3039.00000
    50.7023     3011.00000
    50.7155     3036.00000
    50.7286     2990.00000
    50.7417     2967.00000
    50.7549     2898.00000
    50.7680     2995.00000
    50.7811     2884.00000
    50.7943     2864.00000
    50.8074     2852.00000
    50.8205     3010.00000
    50.8336     2905.00000
    50.8468     2838.00000
    50.8599     2867.00000
    50.8730     2909.00000
    50.8862     2767.00000
    50.8993     2867.00000
    50.9124     2779.00000
    50.9256     2867.00000
    50.9387     2783.00000
    50.9518     2898.00000
    50.9649     2818.00000
    50.9781     2900.00000
    50.9912     2869.00000
    51.0043     2912.00000
    51.0175     2929.00000
    51.0306     3033.00000
    51.0437     2905.00000
    51.0569     3039.00000
    51.0700     2913.00000
    51.0831     3061.00000
    51.0963     2899.00000
    51.1094     3066.00000
    51.1225     2933.00000
    51.1356     3061.00000
    51.1488     3081.00000
    51.1619     3251.00000
    51.1750     3436.00000
    51.1882     3760.00000
    51.2013     4030.00000
    51.2144     5013.00000
    51.2276     6173.00000
    51.2407     7468.00000
    51.2538     8613.00000
    51.2669     9020.00000
    51.2801     8439.00000
    51.2932     7319.00000
    51.3063     6053.00000
    51.3195     5151.00000
    51.3326     4817.00000
    51.3457     4616.00000
    51.3589     4714.00000
    51.3720     5199.00000
    51.3851     5787.00000
    51.3982     6096.00000
    51.4114     5837.00000
    51.4245     5528.00000
    51.4376     4763.00000
    51.4508     4321.00000
    51.4639     4039.00000
    51.4770     3893.00000
    51.4902     3868.00000
    51.5033     3856.00000
    51.5164     3709.00000
    51.5296     3444.00000
    51.5427     3342.00000
    51.5558     3205.00000
    51.5689     3102.00000
    51.5821     3107.00000
    51.5952     2968.00000
    51.6083     3035.00000
    51.6215     3140.00000
    51.6346     3052.00000
    51.6477     3175.00000
    51.6609     3108.00000
    51.6740     3036.00000
    51.6871     3031.00000
    51.7002     2953.00000
    51.7134     2849.00000
    51.7265     2817.00000
    51.7396     2810.00000
    51.7528     2889.00000
    51.7659     2825.00000
    51.7790     2888.00000
    51.7922     2716.00000
    51.8053     2763.00000
    51.8184     2789.00000
    51.8315     2847.00000
    51.8447     2779.00000
    51.8578     2863.00000
    51.8709     2839.00000
    51.8841     2774.00000
    51.8972     2753.00000
    51.9103     2883.00000
    51.9235     2806.00000
    51.9366     2708.00000
    51.9497     2726.00000
    51.9628     2739.00000
    51.9760     2740.00000
    51.9891     2862.00000
    52.0022     2823.00000
    52.0154     2819.00000
    52.0285     2823.00000
    52.0416     2717.00000
    52.0548     2800.00000
    52.0679     2779.00000
    52.0810     2803.00000
    52.0942     2772.00000
    52.1073     2834.00000
    52.1204     2806.00000
    52.1335     2821.00000
    52.1467     2826.00000
    52.1598     2801.00000
    52.1729     2895.00000
    52.1861     2899.00000
    52.1992     2897.00000
    52.2123     3002.00000
    52.2255     2959.00000
    52.2386     2906.00000
    52.2517     2895.00000
    52.2648     3048.00000
    52.2780     2995.00000
    52.2911     3119.00000
    52.3042     3071.00000
    52.3174     2950.00000
    52.3305     3151.00000
    52.3436     3262.00000
    52.3568     3333.00000
    52.3699     3560.00000
    52.3830     3831.00000
    52.3961     4248.00000
    52.4093     4884.00000
    52.4224     6075.00000
    52.4355     7113.00000
    52.4487     8505.00000
    52.4618     9683.00000
    52.4749    10378.00000
    52.4881    10630.00000
    52.5012    10138.00000
    52.5143     9386.00000
    52.5275     8218.00000
    52.5406     7121.00000
    52.5537     6326.00000
    52.5668     5942.00000
    52.5800     6159.00000
    52.5931     6318.00000
    52.6062     6674.00000
    52.6194     6875.00000
    52.6325     6994.00000
    52.6456     6550.00000
    52.6588     6085.00000
    52.6719     5354.00000
    52.6850     4650.00000
    52.6981     4250.00000
    52.7113     3763.00000
    52.7244     3664.00000
    52.7375     3628.00000
    52.7507     3645.00000
    52.7638     3991.00000
    52.7769     4242.00000
    52.7901     4764.00000
    52.8032     5097.00000
    52.8163     5390.00000
    52.8294     5853.00000
    52.8426     5863.00000
    52.8557     6080.00000
    52.8688     6170.00000
    52.8820     6093.00000
    52.8951     5879.00000
    52.9082     5265.00000
    52.9214     4960.00000
    52.9345     4782.00000
    52.9476     4497.00000
    52.9608     4460.00000
    52.9739     4383.00000
    52.9870     4377.00000
    53.0001     4445.00000
    53.0133     4369.00000
    53.0264     4282.00000
    53.0395     4067.00000
    53.0527     3711.00000
    53.0658     3609.00000
    53.0789     3283.00000
    53.0921     2998.00000
    53.1052     2922.00000
    53.1183     2937.00000
    53.1314     2812.00000
    53.1446     2887.00000
    53.1577     2824.00000
    53.1708     2815.00000
    53.1840     2850.00000
    53.1971     2729.00000
    53.2102     2779.00000
    53.2234     2798.00000
    53.2365     2751.00000
    53.2496     2660.00000
    53.2627     2749.00000
    53.2759     2818.00000
    53.2890     2774.00000
    53.3021     2779.00000
    53.3153     2823.00000
    53.3284     2654.00000
    53.3415     2776.00000
    53.3547     2727.00000
    53.3678     2729.00000
    53.3809     2825.00000
    53.3941     2863.00000
    53.4072     2931.00000
    53.4203     2945.00000
    53.4334     3162.00000
    53.4466     3140.00000
    53.4597     3331.00000
    53.4728     3576.00000
    53.4860     3855.00000
    53.4991     4085.00000
    53.5122     4137.00000
    53.5254     4103.00000
    53.5385     3977.00000
    53.5516     3736.00000
    53.5647     3363.00000
    53.5779     3336.00000
    53.5910     3230.00000
    53.6041     3290.00000
    53.6173     3333.00000
    53.6304     3313.00000
    53.6435     3287.00000
    53.6567     3477.00000
    53.6698     3427.00000
    53.6829     3281.00000
    53.6960     3067.00000
    53.7092     3062.00000
    53.7223     2960.00000
    53.7354     2896.00000
    53.7486     2886.00000
    53.7617     2830.00000
    53.7748     2914.00000
    53.7880     2728.00000
    53.8011     2798.00000
    53.8142     2896.00000
    53.8274     2702.00000
    53.8405     2775.00000
    53.8536     2757.00000
    53.8667     2690.00000
    53.8799     2735.00000
    53.8930     2747.00000
    53.9061     2781.00000
    53.9193     2725.00000
    53.9324     2711.00000
    53.9455     2777.00000
    53.9587     2719.00000
    53.9718     2784.00000
    53.9849     2619.00000
    53.9980     2703.00000
    54.0112     2723.00000
    54.0243     2672.00000
    54.0374     2859.00000
    54.0506     2748.00000
    54.0637     2694.00000
    54.0768     2712.00000
    54.0900     2758.00000
    54.1031     2738.00000
    54.1162     2766.00000
    54.1293     2820.00000
    54.1425     2771.00000
    54.1556     2886.00000
    54.1687     2933.00000
    54.1819     3076.00000
    54.1950     3014.00000
    54.2081     3062.00000
    54.2213     3119.00000
    54.2344     3097.00000
    54.2475     3129.00000
    54.2607     3162.00000
    54.2738     3121.00000
    54.2869     3012.00000
    54.3000     3016.00000
    54.3132     2988.00000
    54.3263     2933.00000
    54.3394     2931.00000
    54.3526     2892.00000
    54.3657     2931.00000
    54.3788     2901.00000
    54.3920     2866.00000
    54.4051     2922.00000
    54.4182     2836.00000
    54.4313     2781.00000
    54.4445     2913.00000
    54.4576     2783.00000
    54.4707     2687.00000
    54.4839     2642.00000
    54.4970     2714.00000
    54.5101     2711.00000
    54.5233     2716.00000
    54.5364     2669.00000
    54.5495     2711.00000
    54.5626     2598.00000
    54.5758     2767.00000
    54.5889     2665.00000
    54.6020     2727.00000
    54.6152     2673.00000
    54.6283     2780.00000
    54.6414     2715.00000
    54.6546     2704.00000
    54.6677     2772.00000
    54.6808     2639.00000
    54.6940     2626.00000
    54.7071     2651.00000
    54.7202     2700.00000
    54.7333     2681.00000
    54.7465     2670.00000
    54.7596     2654.00000
    54.7727     2691.00000
    54.7859     2694.00000
    54.7990     2697.00000
    54.8121     2658.00000
    54.8253     2824.00000
    54.8384     2745.00000
    54.8515     2720.00000
    54.8646     2709.00000
    54.8778     2735.00000
    54.8909     2847.00000
    54.9040     2734.00000
    54.9172     2651.00000
    54.9303     2775.00000
    54.9434     2803.00000
    54.9566     2764.00000
    54.9697     2757.00000
    54.9828     2705.00000
    54.9959     2828.00000
    55.0091     2906.00000
    55.0222     2834.00000
    55.0353     2937.00000
    55.0485     2974.00000
    55.0616     2998.00000
    55.0747     2946.00000
    55.0879     2915.00000
    55.1010     3111.00000
    55.1141     2996.00000
    55.1272     3189.00000
    55.1404     3202.00000
    55.1535     3421.00000
    55.1666     3448.00000
    55.1798     3694.00000
    55.1929     3899.00000
    55.2060     4081.00000
    55.2192     4837.00000
    55.2323     5660.00000
    55.2454     6746.00000
    55.2586     8454.00000
    55.2717    10072.00000
    55.2848    11208.00000
    55.2979    11056.00000
    55.3111    10390.00000
    55.3242     8872.00000
    55.3373     7536.00000
    55.3505     6516.00000
    55.3636     5720.00000
    55.3767     5685.00000
    55.3899     5644.00000
    55.4030     6056.00000
    55.4161     6731.00000
    55.4292     7360.00000
    55.4424     7382.00000
    55.4555     7161.00000
    55.4686     6561.00000
    55.4818     5695.00000
    55.4949     5011.00000
    55.5080     4291.00000
    55.5212     3980.00000
    55.5343     3728.00000
    55.5474     3662.00000
    55.5605     3592.00000
    55.5737     3566.00000
    55.5868     3633.00000
    55.5999     3575.00000
    55.6131     3457.00000
    55.6262     3386.00000
    55.6393     3291.00000
    55.6525     3202.00000
    55.6656     3201.00000
    55.6787     3055.00000
    55.6918     2959.00000
    55.7050     3007.00000
    55.7181     3203.00000
    55.7312     3084.00000
    55.7444     3135.00000
    55.7575     3079.00000
    55.7706     3136.00000
    55.7838     3051.00000
    55.7969     2937.00000
    55.8100     2912.00000
    55.8232     2934.00000
    55.8363     2909.00000
    55.8494     2893.00000
    55.8625     2842.00000
    55.8757     2839.00000
    55.8888     2835.00000
    55.9019     2894.00000
    55.9151     2902.00000
    55.9282     2845.00000
    55.9413     2921.00000
    55.9545     2913.00000
    55.9676     2949.00000
    55.9807     2995.00000
    55.9938     3104.00000
    56.0070     3064.00000
    56.0201     3156.00000
    56.0332     3098.00000
    56.0464     3147.00000
    56.0595     3239.00000
    56.0726     3266.00000
    56.0858     3244.00000
    56.0989     3508.00000
    56.1120     3875.00000
    56.1251     4156.00000
    56.1383     4745.00000
    56.1514     5336.00000
    56.1645     6110.00000
    56.1777     6680.00000
    56.1908     7207.00000
    56.2039     7755.00000
    56.2171     8422.00000
    56.2302     9474.00000
    56.2433    10757.00000
    56.2565    11839.00000
    56.2696    12660.00000
    56.2827    13221.00000
    56.2958    12630.00000
    56.3090    11685.00000
    56.3221    10189.00000
    56.3352     8924.00000
    56.3484     7849.00000
    56.3615     7226.00000
    56.3746     7012.00000
    56.3878     7139.00000
    56.4009     7724.00000
    56.4140     7884.00000
    56.4271     8047.00000
    56.4403     7772.00000
    56.4534     7303.00000
    56.4665     6432.00000
    56.4797     5645.00000
    56.4928     4821.00000
    56.5059     4157.00000
    56.5191     3801.00000
    56.5322     3527.00000
    56.5453     3379.00000
    56.5584     3290.00000
    56.5716     3297.00000
    56.5847     3041.00000
    56.5978     3148.00000
    56.6110     3091.00000
    56.6241     3041.00000
    56.6372     3120.00000
    56.6504     3099.00000
    56.6635     2968.00000
    56.6766     3062.00000
    56.6898     2987.00000
    56.7029     3007.00000
    56.7160     3122.00000
    56.7291     3154.00000
    56.7423     3014.00000
    56.7554     3071.00000
    56.7685     3323.00000
    56.7817     3179.00000
    56.7948     3394.00000
    56.8079     3348.00000
    56.8211     3367.00000
    56.8342     3523.00000
    56.8473     3765.00000
    56.8604     4142.00000
    56.8736     4468.00000
    56.8867     5036.00000
    56.8998     5957.00000
    56.9130     6573.00000
    56.9261     7252.00000
    56.9392     7969.00000
    56.9524     8492.00000
    56.9655     9033.00000
    56.9786     9223.00000
    56.9917     9527.00000
    57.0049     9826.00000
    57.0180     9604.00000
    57.0311     8854.00000
    57.0443     8269.00000
    57.0574     7432.00000
    57.0705     7116.00000
    57.0837     6675.00000
    57.0968     6640.00000
    57.1099     6791.00000
    57.1231     7003.00000
    57.1362     7458.00000
    57.1493     7880.00000
    57.1624     8108.00000
    57.1756     8749.00000
    57.1887     8892.00000
    57.2018     8867.00000
    57.2150     8275.00000
    57.2281     7332.00000
    57.2412     6306.00000
    57.2544     5494.00000
    57.2675     4993.00000
    57.2806     4496.00000
    57.2937     4318.00000
    57.3069     4436.00000
    57.3200     4472.00000
    57.3331     4687.00000
    57.3463     4877.00000
    57.3594     5069.00000
    57.3725     4961.00000
    57.3857     4673.00000
    57.3988     4203.00000
    57.4119     3897.00000
    57.4250     3748.00000
    57.4382     3500.00000
    57.4513     3391.00000
    57.4644     3227.00000
    57.4776     3185.00000
    57.4907     3077.00000
    57.5038     3097.00000
    57.5170     2933.00000
    57.5301     3044.00000
    57.5432     3112.00000
    57.5564     3077.00000
    57.5695     3097.00000
    57.5826     3120.00000
    57.5957     3057.00000
    57.6089     3149.00000
    57.6220     3157.00000
    57.6351     3108.00000
    57.6483     3165.00000
    57.6614     3149.00000
    57.6745     3226.00000
    57.6877     3476.00000
    57.7008     3570.00000
    57.7139     3709.00000
    57.7270     3802.00000
    57.7402     4278.00000
    57.7533     4907.00000
    57.7664     5455.00000
    57.7796     6728.00000
    57.7927     7739.00000
    57.8058     8681.00000
    57.8190     9373.00000
    57.8321     8547.00000
    57.8452     7366.00000
    57.8583     6431.00000
    57.8715     5777.00000
    57.8846     5199.00000
    57.8977     4971.00000
    57.9109     5223.00000
    57.9240     5420.00000
    57.9371     6224.00000
    57.9503     6724.00000
    57.9634     7151.00000
    57.9765     7180.00000
    57.9897     6742.00000
    58.0028     6059.00000
    58.0159     5423.00000
    58.0290     4704.00000
    58.0422     4203.00000
    58.0553     3869.00000
    58.0684     3712.00000
    58.0816     3960.00000
    58.0947     3781.00000
    58.1078     3785.00000
    58.1210     3891.00000
    58.1341     3811.00000
    58.1472     3728.00000
    58.1603     3589.00000
    58.1735     3546.00000
    58.1866     3425.00000
    58.1997     3228.00000
    58.2129     3286.00000
    58.2260     3217.00000
    58.2391     3319.00000
    58.2523     3283.00000
    58.2654     3319.00000
    58.2785     3443.00000
    58.2916     3500.00000
    58.3048     3683.00000
    58.3179     3955.00000
    58.3310     4382.00000
    58.3442     4519.00000
    58.3573     5294.00000
    58.3704     6015.00000
    58.3836     6605.00000
    58.3967     7623.00000
    58.4098     8294.00000
    58.4230     8666.00000
    58.4361     8556.00000
    58.4492     8028.00000
    58.4623     7071.00000
    58.4755     6379.00000
    58.4886     5682.00000
    58.5017     5222.00000
    58.5149     5267.00000
    58.5280     5529.00000
    58.5411     5775.00000
    58.5543     6361.00000
    58.5674     6833.00000
    58.5805     7305.00000
    58.5936     7981.00000
    58.6068     8672.00000
    58.6199     9550.00000
    58.6330     9768.00000
    58.6462    10219.00000
    58.6593     9768.00000
    58.6724     8673.00000
    58.6856     7391.00000
    58.6987     6142.00000
    58.7118     5290.00000
    58.7249     4897.00000
    58.7381     4792.00000
    58.7512     4997.00000
    58.7643     5267.00000
    58.7775     5720.00000
    58.7906     6375.00000
    58.8037     6761.00000
    58.8169     7159.00000
    58.8300     7313.00000
    58.8431     7296.00000
    58.8562     7753.00000
    58.8694     8154.00000
    58.8825     8963.00000
    58.8956     9351.00000
    58.9088     9749.00000
    58.9219     9217.00000
    58.9350     8325.00000
    58.9482     7181.00000
    58.9613     6143.00000
    58.9744     5576.00000
    58.9876     5017.00000
    59.0007     4931.00000
    59.0138     5074.00000
    59.0269     5424.00000
    59.0401     5740.00000
    59.0532     5951.00000
    59.0663     6177.00000
    59.0795     6013.00000
    59.0926     5765.00000
    59.1057     5197.00000
    59.1189     4499.00000
    59.1320     4094.00000
    59.1451     3776.00000
    59.1582     3636.00000
    59.1714     3340.00000
    59.1845     3216.00000
    59.1976     3226.00000
    59.2108     3071.00000
    59.2239     3106.00000
    59.2370     3207.00000
    59.2502     3143.00000
    59.2633     3108.00000
    59.2764     3089.00000
    59.2895     3084.00000
    59.3027     3028.00000
    59.3158     2965.00000
    59.3289     3125.00000
    59.3421     3069.00000
    59.3552     2985.00000
    59.3683     3038.00000
    59.3815     3058.00000
    59.3946     2988.00000
    59.4077     3183.00000
    59.4208     3224.00000
    59.4340     3337.00000
    59.4471     3589.00000
    59.4602     3838.00000
    59.4734     4395.00000
    59.4865     4830.00000
    59.4996     5370.00000
    59.5128     6056.00000
    59.5259     6875.00000
    59.5390     7571.00000
    59.5522     8275.00000
    59.5653     8580.00000
    59.5784     8241.00000
    59.5915     7567.00000
    59.6047     6967.00000
    59.6178     6189.00000
    59.6309     5693.00000
    59.6441     5302.00000
    59.6572     5201.00000
    59.6703     5269.00000
    59.6835     5557.00000
    59.6966     5981.00000
    59.7097     6466.00000
    59.7228     7056.00000
    59.7360     7574.00000
    59.7491     7716.00000
    59.7622     7908.00000
    59.7754     8033.00000
    59.7885     8130.00000
    59.8016     8389.00000
    59.8148     9052.00000
    59.8279    10075.00000
    59.8410    10920.00000
    59.8541    11226.00000
    59.8673    10571.00000
    59.8804     9335.00000
    59.8935     7861.00000
    59.9067     6918.00000
    59.9198     6209.00000
    59.9329     5706.00000
    59.9461     5679.00000
    59.9592     5728.00000
    59.9723     6006.00000
    59.9855     6284.00000
    59.9986     6830.00000
    60.0117     7121.00000
    60.0248     6885.00000
    60.0380     6497.00000
    60.0511     5549.00000
    60.0642     4790.00000
    60.0774     4078.00000
    60.0905     3706.00000
    60.1036     3534.00000
    60.1168     3364.00000
    60.1299     3084.00000
    60.1430     3036.00000
    60.1561     3063.00000
    60.1693     3022.00000
    60.1824     3023.00000
    60.1955     3017.00000
    60.2087     3041.00000
    60.2218     3031.00000
    60.2349     2985.00000
    60.2481     3004.00000
    60.2612     2991.00000
    60.2743     3110.00000
    60.2874     3003.00000
    60.3006     3077.00000
    60.3137     2991.00000
    60.3268     3045.00000
    60.3400     3126.00000
    60.3531     3171.00000
    60.3662     3174.00000
    60.3794     3177.00000
    60.3925     3263.00000
    60.4056     3252.00000
    60.4188     3352.00000
    60.4319     3367.00000
    60.4450     3539.00000
    60.4581     3624.00000
    60.4713     3803.00000
    60.4844     4029.00000
    60.4975     4497.00000
    60.5107     5115.00000
    60.5238     6014.00000
    60.5369     7083.00000
    60.5501     8638.00000
    60.5632    10484.00000
    60.5763    12621.00000
    60.5894    13905.00000
    60.6026    14135.00000
    60.6157    13617.00000
    60.6288    11948.00000
    60.6420    10720.00000
    60.6551     9233.00000
    60.6682     7795.00000
    60.6814     7338.00000
    60.6945     6989.00000
    60.7076     7349.00000
    60.7207     8053.00000
    60.7339     8719.00000
    60.7470     9585.00000
    60.7601    10289.00000
    60.7733    10142.00000
    60.7864     9626.00000
    60.7995     9060.00000
    60.8127     8012.00000
    60.8258     7285.00000
    60.8389     6517.00000
    60.8521     5814.00000
    60.8652     5433.00000
    60.8783     5062.00000
    60.8914     4868.00000
    60.9046     4988.00000
    60.9177     5072.00000
    60.9308     5233.00000
    60.9440     5517.00000
    60.9571     5546.00000
    60.9702     5657.00000
    60.9834     5621.00000
    60.9965     5561.00000
    61.0096     5318.00000
    61.0227     5055.00000
    61.0359     4601.00000
    61.0490     4061.00000
    61.0621     3740.00000
    61.0753     3670.00000
    61.0884     3585.00000
    61.1015     3711.00000
    61.1147     3540.00000
    61.1278     3684.00000
    61.1409     3712.00000
    61.1540     3754.00000
    61.1672     3732.00000
    61.1803     3581.00000
    61.1934     3374.00000
    61.2066     3172.00000
    61.2197     3096.00000
    61.2328     2894.00000
    61.2460     2897.00000
    61.2591     2853.00000
    61.2722     2756.00000
    61.2854     2732.00000
    61.2985     2667.00000
    61.3116     2568.00000
    61.3247     2762.00000
    61.3379     2668.00000
    61.3510     2709.00000
    61.3641     2709.00000
    61.3773     2643.00000
    61.3904     2546.00000
    61.4035     2578.00000
    61.4167     2719.00000
    61.4298     2583.00000
    61.4429     2636.00000
    61.4560     2640.00000
    61.4692     2467.00000
    61.4823     2564.00000
    61.4954     2611.00000
    61.5086     2564.00000
    61.5217     2640.00000
    61.5348     2572.00000
    61.5480     2527.00000
    61.5611     2615.00000
    61.5742     2581.00000
    61.5873     2628.00000
    61.6005     2618.00000
    61.6136     2533.00000
    61.6267     2691.00000
    61.6399     2583.00000
    61.6530     2531.00000
    61.6661     2625.00000
    61.6793     2591.00000
    61.6924     2621.00000
    61.7055     2648.00000
    61.7187     2500.00000
    61.7318     2612.00000
    61.7449     2509.00000
    61.7580     2588.00000
    61.7712     2622.00000
    61.7843     2661.00000
    61.7974     2657.00000
    61.8106     2601.00000
    61.8237     2519.00000
    61.8368     2655.00000
    61.8500     2501.00000
    61.8631     2600.00000
    61.8762     2519.00000
    61.8893     2525.00000
    61.9025     2479.00000
    61.9156     2510.00000
    61.9287     2513.00000
    61.9419     2512.00000
    61.9550     2583.00000
    61.9681     2528.00000
    61.9813     2522.00000
    61.9944     2475.00000
    62.0075     2541.00000
    62.0206     2607.00000
    62.0338     2479.00000
    62.0469     2578.00000
    62.0600     2516.00000
    62.0732     2566.00000
    62.0863     2609.00000
    62.0994     2635.00000
    62.1126     2487.00000
    62.1257     2595.00000
    62.1388     2607.00000
    62.1520     2538.00000
    62.1651     2520.00000
    62.1782     2455.00000
    62.1913     2590.00000
    62.2045     2477.00000
    62.2176     2533.00000
    62.2307     2590.00000
    62.2439     2471.00000
    62.2570     2551.00000
    62.2701     2512.00000
    62.2833     2532.00000
    62.2964     2587.00000
    62.3095     2496.00000
    62.3226     2523.00000
    62.3358     2613.00000
    62.3489     2540.00000
    62.3620     2576.00000
    62.3752     2606.00000
    62.3883     2600.00000
    62.4014     2619.00000
    62.4146     2605.00000
    62.4277     2618.00000
    62.4408     2494.00000
    62.4539     2493.00000
    62.4671     2532.00000
    62.4802     2596.00000
    62.4933     2590.00000
    62.5065     2632.00000
    62.5196     2456.00000
    62.5327     2563.00000
    62.5459     2492.00000
    62.5590     2499.00000
    62.5721     2525.00000
    62.5852     2532.00000
    62.5984     2475.00000
    62.6115     2554.00000
    62.6246     2575.00000
    62.6378     2504.00000
    62.6509     2505.00000
    62.6640     2473.00000
    62.6772     2492.00000
    62.6903     2492.00000
    62.7034     2487.00000
    62.7166     2525.00000
    62.7297     2458.00000
    62.7428     2552.00000
    62.7559     2482.00000
    62.7691     2452.00000
    62.7822     2425.00000
    62.7953     2516.00000
    62.8085     2539.00000
    62.8216     2492.00000
    62.8347     2449.00000
    62.8479     2575.00000
    62.8610     2530.00000
    62.8741     2560.00000
    62.8872     2435.00000
    62.9004     2587.00000
    62.9135     2502.00000
    62.9266     2440.00000
    62.9398     2473.00000
    62.9529     2424.00000
    62.9660     2457.00000
    62.9792     2500.00000
    62.9923     2402.00000
    63.0054     2487.00000
    63.0185     2531.00000
    63.0317     2582.00000
    63.0448     2459.00000
    63.0579     2486.00000
    63.0711     2626.00000
    63.0842     2427.00000
    63.0973     2474.00000
    63.1105     2488.00000
    63.1236     2522.00000
    63.1367     2443.00000
    63.1499     2506.00000
    63.1630     2524.00000
    63.1761     2537.00000
    63.1892     2683.00000
    63.2024     2426.00000
    63.2155     2550.00000
    63.2286     2537.00000
    63.2418     2646.00000
    63.2549     2641.00000
    63.2680     2738.00000
    63.2812     2759.00000
    63.2943     2750.00000
    63.3074     2668.00000
    63.3205     2686.00000
    63.3337     2824.00000
    63.3468     2803.00000
    63.3599     2947.00000
    63.3731     2934.00000
    63.3862     2961.00000
    63.3993     3076.00000
    63.4125     3140.00000
    63.4256     3285.00000
    63.4387     3519.00000
    63.4518     3819.00000
    63.4650     3918.00000
    63.4781     4080.00000
    63.4912     4097.00000
    63.5044     3740.00000
    63.5175     3593.00000
    63.5306     3347.00000
    63.5438     3217.00000
    63.5569     3085.00000
    63.5700     3048.00000
    63.5831     2939.00000
    63.5963     2925.00000
    63.6094     3106.00000
    63.6225     3149.00000
    63.6357     3227.00000
    63.6488     3307.00000
    63.6619     3292.00000
    63.6751     3233.00000
    63.6882     3169.00000
    63.7013     2950.00000
    63.7145     2882.00000
    63.7276     2782.00000
    63.7407     2854.00000
    63.7538     2814.00000
    63.7670     2841.00000
    63.7801     2854.00000
    63.7932     2953.00000
    63.8064     3017.00000
    63.8195     3118.00000
    63.8326     3386.00000
    63.8458     3655.00000
    63.8589     3901.00000
    63.8720     4006.00000
    63.8851     4247.00000
    63.8983     4179.00000
    63.9114     4108.00000
    63.9245     3839.00000
    63.9377     3654.00000
    63.9508     3405.00000
    63.9639     3185.00000
    63.9771     3151.00000
    63.9902     3150.00000
    64.0033     3252.00000
    64.0164     3404.00000
    64.0296     3487.00000
    64.0427     3755.00000
    64.0558     3926.00000
    64.0690     4208.00000
    64.0821     4348.00000
    64.0952     4399.00000
    64.1084     4297.00000
    64.1215     4277.00000
    64.1346     4082.00000
    64.1478     3761.00000
    64.1609     3445.00000
    64.1740     3240.00000
    64.1871     3099.00000
    64.2003     2940.00000
    64.2134     2903.00000
    64.2265     2915.00000
    64.2397     2963.00000
    64.2528     3022.00000
    64.2659     3093.00000
    64.2791     3118.00000
    64.2922     3087.00000
    64.3053     3101.00000
    64.3184     2997.00000
    64.3316     2934.00000
    64.3447     2799.00000
    64.3578     2701.00000
    64.3710     2679.00000
    64.3841     2604.00000
    64.3972     2496.00000
    64.4104     2469.00000
    64.4235     2594.00000
    64.4366     2492.00000
    64.4498     2456.00000
    64.4629     2558.00000
    64.4760     2476.00000
    64.4891     2482.00000
    64.5023     2444.00000
    64.5154     2565.00000
    64.5285     2381.00000
    64.5417     2502.00000
    64.5548     2409.00000
    64.5679     2476.00000
    64.5811     2381.00000
    64.5942     2407.00000
    64.6073     2450.00000
    64.6204     2451.00000
    64.6336     2495.00000
    64.6467     2399.00000
    64.6598     2496.00000
    64.6730     2561.00000
    64.6861     2617.00000
    64.6992     2726.00000
    64.7124     2620.00000
    64.7255     2705.00000
    64.7386     2672.00000
    64.7517     2709.00000
    64.7649     2672.00000
    64.7780     2758.00000
    64.7911     2719.00000
    64.8043     2721.00000
    64.8174     2691.00000
    64.8305     2724.00000
    64.8437     2801.00000
    64.8568     2641.00000
    64.8699     2829.00000
    64.8830     2688.00000
    64.8962     2678.00000
    64.9093     2805.00000
    64.9224     2848.00000
    64.9356     2714.00000
    64.9487     2669.00000
    64.9618     2766.00000
    64.9750     2713.00000
    64.9881     2701.00000
    65.0012     2707.00000
    65.0144     2671.00000
    65.0275     2691.00000
    65.0406     2636.00000
    65.0537     2573.00000
    65.0669     2496.00000
    65.0800     2485.00000
    65.0931     2585.00000
    65.1063     2464.00000
    65.1194     2517.00000
    65.1325     2529.00000
    65.1457     2592.00000
    65.1588     2361.00000
    65.1719     2561.00000
    65.1850     2499.00000
    65.1982     2544.00000
    65.2113     2420.00000
    65.2244     2382.00000
    65.2376     2389.00000
    65.2507     2402.00000
    65.2638     2351.00000
    65.2770     2415.00000
    65.2901     2360.00000
    65.3032     2344.00000
    65.3163     2485.00000
    65.3295     2386.00000
    65.3426     2404.00000
    65.3557     2432.00000
    65.3689     2377.00000
    65.3820     2343.00000
    65.3951     2409.00000
    65.4083     2420.00000
    65.4214     2432.00000
    65.4345     2529.00000
    65.4476     2457.00000
    65.4608     2423.00000
    65.4739     2446.00000
    65.4870     2455.00000
    65.5002     2414.00000
    65.5133     2465.00000
    65.5264     2493.00000
    65.5396     2349.00000
    65.5527     2535.00000
    65.5658     2366.00000
    65.5790     2462.00000
    65.5921     2432.00000
    65.6052     2464.00000
    65.6183     2372.00000
    65.6315     2355.00000
    65.6446     2387.00000
    65.6577     2408.00000
    65.6709     2362.00000
    65.6840     2416.00000
    65.6971     2467.00000
    65.7103     2476.00000
    65.7234     2505.00000
    65.7365     2497.00000
    65.7496     2403.00000
    65.7628     2522.00000
    65.7759     2482.00000
    65.7890     2435.00000
    65.8022     2427.00000
    65.8153     2316.00000
    65.8284     2399.00000
    65.8416     2474.00000
    65.8547     2494.00000
    65.8678     2421.00000
    65.8810     2438.00000
    65.8941     2337.00000
    65.9072     2444.00000
    65.9203     2478.00000
    65.9335     2362.00000
    65.9466     2420.00000
    65.9597     2365.00000
    65.9729     2412.00000
    65.9860     2355.00000
    65.9991     2458.00000
    66.0123     2450.00000
    66.0254     2460.00000
    66.0385     2405.00000
    66.0516     2323.00000
    66.0648     2464.00000
    66.0779     2458.00000
    66.0910     2355.00000
    66.1042     2463.00000
    66.1173     2436.00000
    66.1304     2366.00000
    66.1436     2350.00000
    66.1567     2369.00000
    66.1698     2392.00000
    66.1829     2304.00000
    66.1961     2521.00000
    66.2092     2423.00000
    66.2223     2451.00000
    66.2355     2515.00000
    66.2486     2448.00000
    66.2617     2488.00000
    66.2749     2440.00000
    66.2880     2498.00000
    66.3011     2528.00000
    66.3142     2497.00000
    66.3274     2467.00000
    66.3405     2493.00000
    66.3536     2431.00000
    66.3668     2443.00000
    66.3799     2456.00000
    66.3930     2459.00000
    66.4062     2466.00000
    66.4193     2469.00000
    66.4324     2441.00000
    66.4455     2442.00000
    66.4587     2472.00000
    66.4718     2500.00000
    66.4849     2569.00000
    66.4981     2511.00000
    66.5112     2402.00000
    66.5243     2463.00000
    66.5375     2477.00000
    66.5506     2373.00000
    66.5637     2533.00000
    66.5769     2384.00000
    66.5900     2550.00000
    66.6031     2446.00000
    66.6162     2559.00000
    66.6294     2576.00000
    66.6425     2506.00000
    66.6556     2487.00000
    66.6688     2558.00000
    66.6819     2594.00000
    66.6950     2390.00000
    66.7082     2450.00000
    66.7213     2456.00000
    66.7344     2481.00000
    66.7476     2561.00000
    66.7607     2425.00000
    66.7738     2428.00000
    66.7869     2461.00000
    66.8001     2452.00000
    66.8132     2365.00000
    66.8263     2418.00000
    66.8395     2445.00000
    66.8526     2449.00000
    66.8657     2449.00000
    66.8789     2427.00000
    66.8920     2367.00000
    66.9051     2433.00000
    66.9182     2460.00000
    66.9314     2399.00000
    66.9445     2423.00000
    66.9576     2392.00000
    66.9708     2341.00000
    66.9839     2383.00000
    66.9970     2471.00000
    67.0102     2367.00000
    67.0233     2389.00000
    67.0364     2343.00000
    67.0495     2448.00000
    67.0627     2442.00000
    67.0758     2407.00000
    67.0889     2371.00000
    67.1021     2374.00000
    67.1152     2309.00000
    67.1283     2450.00000
    67.1415     2407.00000
    67.1546     2421.00000
    67.1677     2289.00000
    67.1808     2358.00000
    67.1940     2378.00000
    67.2071     2461.00000
    67.2202     2380.00000
    67.2334     2394.00000
    67.2465     2452.00000
    67.2596     2393.00000
    67.2728     2358.00000
    67.2859     2417.00000
    67.2990     2375.00000
    67.3121     2464.00000
    67.3253     2446.00000
    67.3384     2359.00000
    67.3515     2423.00000
    67.3647     2438.00000
    67.3778     2386.00000
    67.3909     2464.00000
    67.4041     2459.00000
    67.4172     2398.00000
    67.4303     2345.00000
    67.4435     2472.00000
    67.4566     2525.00000
    67.4697     2416.00000
    67.4828     2481.00000
    67.4960     2497.00000
    67.5091     2378.00000
    67.5222     2418.00000
    67.5354     2370.00000
    67.5485     2474.00000
    67.5616     2519.00000
    67.5748     2421.00000
    67.5879     2367.00000
    67.6010     2448.00000
    67.6142     2482.00000
    67.6273     2387.00000
    67.6404     2414.00000
    67.6535     2403.00000
    67.6667     2406.00000
    67.6798     2491.00000
    67.6929     2466.00000
    67.7061     2470.00000
    67.7192     2406.00000
    67.7323     2444.00000
    67.7455     2460.00000
    67.7586     2445.00000
    67.7717     2448.00000
    67.7848     2424.00000
    67.7980     2439.00000
    67.8111     2416.00000
    67.8242     2395.00000
    67.8374     2453.00000
    67.8505     2481.00000
    67.8636     2485.00000
    67.8768     2621.00000
    67.8899     2535.00000
    67.9030     2551.00000
    67.9161     2681.00000
    67.9293     2708.00000
    67.9424     2852.00000
    67.9555     2983.00000
    67.9687     3214.00000
    67.9818     3417.00000
    67.9949     3588.00000
    68.0081     3871.00000
    68.0212     3671.00000
    68.0343     3621.00000
    68.0474     3446.00000
    68.0606     3256.00000
    68.0737     3132.00000
    68.0868     3133.00000
    68.1000     3081.00000
    68.1131     3069.00000
    68.1262     3275.00000
    68.1394     3264.00000
    68.1525     3327.00000
    68.1656     3307.00000
    68.1787     3404.00000
    68.1919     3366.00000
    68.2050     3446.00000
    68.2181     3438.00000
    68.2313     3217.00000
    68.2444     3140.00000
    68.2575     3056.00000
    68.2707     2815.00000
    68.2838     2968.00000
    68.2969     3016.00000
    68.3101     3127.00000
    68.3232     3221.00000
    68.3363     3244.00000
    68.3494     3571.00000
    68.3626     4000.00000
    68.3757     4371.00000
    68.3888     4876.00000
    68.4020     5301.00000
    68.4151     5130.00000
    68.4282     5017.00000
    68.4414     4365.00000
    68.4545     3858.00000
    68.4676     3591.00000
    68.4807     3226.00000
    68.4939     3131.00000
    68.5070     2948.00000
    68.5201     2969.00000
    68.5333     2961.00000
    68.5464     3159.00000
    68.5595     3214.00000
    68.5727     3553.00000
    68.5858     3784.00000
    68.5989     3769.00000
    68.6120     3861.00000
    68.6252     3543.00000
    68.6383     3354.00000
    68.6514     3206.00000
    68.6646     2990.00000
    68.6777     2767.00000
    68.6908     2747.00000
    68.7040     2666.00000
    68.7171     2561.00000
    68.7302     2702.00000
    68.7434     2600.00000
    68.7565     2543.00000
    68.7696     2520.00000
    68.7827     2494.00000
    68.7959     2548.00000
    68.8090     2533.00000
    68.8221     2504.00000
    68.8353     2584.00000
    68.8484     2484.00000
    68.8615     2502.00000
    68.8747     2507.00000
    68.8878     2541.00000
    68.9009     2497.00000
    68.9140     2487.00000
    68.9272     2521.00000
    68.9403     2520.00000
    68.9534     2593.00000
    68.9666     2563.00000
    68.9797     2546.00000
    68.9928     2542.00000
    69.0060     2560.00000
    69.0191     2661.00000
    69.0322     2633.00000
    69.0453     2610.00000
    69.0585     2646.00000
    69.0716     2662.00000
    69.0847     2671.00000
    69.0979     2865.00000
    69.1110     2904.00000
    69.1241     2985.00000
    69.1373     3209.00000
    69.1504     3350.00000
    69.1635     3747.00000
    69.1767     3984.00000
    69.1898     4400.00000
    69.2029     4549.00000
    69.2160     4420.00000
    69.2292     4445.00000
    69.2423     4107.00000
    69.2554     4049.00000
    69.2686     3843.00000
    69.2817     3717.00000
    69.2948     3760.00000
    69.3080     3623.00000
    69.3211     3551.00000
    69.3342     3491.00000
    69.3473     3474.00000
    69.3605     3579.00000
    69.3736     3547.00000
    69.3867     3707.00000
    69.3999     3673.00000
    69.4130     3629.00000
    69.4261     3511.00000
    69.4393     3480.00000
    69.4524     3445.00000
    69.4655     3289.00000
    69.4786     3451.00000
    69.4918     3327.00000
    69.5049     3408.00000
    69.5180     3438.00000
    69.5312     3551.00000
    69.5443     3465.00000
    69.5574     3577.00000
    69.5706     3510.00000
    69.5837     3355.00000
    69.5968     3290.00000
    69.6099     3225.00000
    69.6231     3101.00000
    69.6362     3138.00000
    69.6493     3152.00000
    69.6625     3180.00000
    69.6756     3270.00000
    69.6887     3386.00000
    69.7019     3539.00000
    69.7150     3908.00000
    69.7281     4338.00000
    69.7413     4770.00000
    69.7544     5453.00000
    69.7675     6059.00000
    69.7806     6800.00000
    69.7938     7127.00000
    69.8069     7233.00000
    69.8200     7263.00000
    69.8332     6720.00000
    69.8463     6389.00000
    69.8594     5763.00000
    69.8726     5484.00000
    69.8857     5260.00000
    69.8988     4846.00000
    69.9119     4716.00000
    69.9251     4581.00000
    69.9382     4487.00000
    69.9513     4667.00000
    69.9645     4791.00000
    69.9776     5107.00000
    69.9907     5142.00000
    70.0039     5194.00000
    70.0170     5276.00000
    70.0301     5300.00000
    70.0433     4923.00000
    70.0564     4757.00000
    70.0695     4562.00000
    70.0826     4185.00000
    70.0958     3954.00000
    70.1089     3545.00000
    70.1220     3493.00000
    70.1352     3203.00000
    70.1483     3142.00000
    70.1614     3033.00000
    70.1746     3045.00000
    70.1877     2954.00000
    70.2008     3063.00000
    70.2139     3019.00000
    70.2271     3028.00000
    70.2402     2927.00000
    70.2533     3112.00000
    70.2665     3044.00000
    70.2796     3054.00000
    70.2927     2930.00000
    70.3059     3072.00000
    70.3190     3044.00000
    70.3321     3272.00000
    70.3452     3378.00000
    70.3584     3620.00000
    70.3715     3837.00000
    70.3846     4248.00000
    70.3978     4673.00000
    70.4109     4997.00000
    70.4240     5208.00000
    70.4372     5236.00000
    70.4503     5068.00000
    70.4634     4645.00000
    70.4765     4173.00000
    70.4897     3904.00000
    70.5028     3584.00000
    70.5159     3451.00000
    70.5291     3405.00000
    70.5422     3324.00000
    70.5553     3389.00000
    70.5685     3574.00000
    70.5816     3785.00000
    70.5947     3990.00000
    70.6078     4167.00000
    70.6210     4390.00000
    70.6341     4540.00000
    70.6472     4753.00000
    70.6604     4636.00000
    70.6735     4723.00000
    70.6866     4739.00000
    70.6998     4773.00000
    70.7129     4693.00000
    70.7260     4664.00000
    70.7392     4655.00000
    70.7523     4329.00000
    70.7654     4299.00000
    70.7785     4293.00000
    70.7917     4179.00000
    70.8048     3988.00000
    70.8179     3758.00000
    70.8311     3605.00000
    70.8442     3441.00000
    70.8573     3592.00000
    70.8705     3587.00000
    70.8836     3586.00000
    70.8967     3595.00000
    70.9099     3580.00000
    70.9230     3748.00000
    70.9361     3761.00000
    70.9492     3638.00000
    70.9624     3682.00000
    70.9755     3529.00000
    70.9886     3533.00000
    71.0018     3642.00000
    71.0149     3676.00000
    71.0280     3765.00000
    71.0412     3994.00000
    71.0543     4400.00000
    71.0674     4833.00000
    71.0805     5264.00000
    71.0937     5142.00000
    71.1068     4918.00000
    71.1199     4402.00000
    71.1331     3888.00000
    71.1462     3445.00000
    71.1593     3247.00000
    71.1725     3164.00000
    71.1856     2945.00000
    71.1987     2947.00000
    71.2118     2968.00000
    71.2250     2996.00000
    71.2381     3091.00000
    71.2512     3291.00000
    71.2644     3569.00000
    71.2775     3706.00000
    71.2906     3903.00000
    71.3038     3813.00000
    71.3169     3497.00000
    71.3300     3347.00000
    71.3431     3201.00000
    71.3563     3045.00000
    71.3694     2992.00000
    71.3825     2836.00000
    71.3957     2788.00000
    71.4088     2834.00000
    71.4219     2713.00000
    71.4351     2739.00000
    71.4482     2814.00000
    71.4613     2731.00000
    71.4744     2821.00000
    71.4876     2901.00000
    71.5007     2902.00000
    71.5138     3124.00000
    71.5270     3171.00000
    71.5401     3327.00000
    71.5532     3728.00000
    71.5664     3962.00000
    71.5795     4276.00000
    71.5926     4435.00000
    71.6058     4650.00000
    71.6189     4595.00000
    71.6320     4429.00000
    71.6451     4361.00000
    71.6583     4127.00000
    71.6714     3971.00000
    71.6845     3980.00000
    71.6977     3911.00000
    71.7108     3829.00000
    71.7239     3779.00000
    71.7371     3609.00000
    71.7502     3507.00000
    71.7633     3606.00000
    71.7764     3625.00000
    71.7896     3679.00000
    71.8027     3738.00000
    71.8158     3655.00000
    71.8290     3658.00000
    71.8421     3445.00000
    71.8552     3385.00000
    71.8684     3231.00000
    71.8815     3255.00000
    71.8946     3169.00000
    71.9078     3230.00000
    71.9209     3170.00000
    71.9340     2974.00000
    71.9471     2926.00000
    71.9603     2876.00000
    71.9734     2811.00000
    71.9865     2741.00000
    71.9997     2715.00000
    72.0128     2729.00000
    72.0259     2612.00000
    72.0391     2607.00000
    72.0522     2595.00000
    72.0653     2543.00000
    72.0784     2486.00000
    72.0916     2553.00000
    72.1047     2497.00000
    72.1178     2599.00000
    72.1310     2584.00000
    72.1441     2614.00000
    72.1572     2630.00000
    72.1704     2482.00000
    72.1835     2524.00000
    72.1966     2553.00000
    72.2097     2563.00000
    72.2229     2604.00000
    72.2360     2611.00000
    72.2491     2665.00000
    72.2623     2518.00000
    72.2754     2664.00000
    72.2885     2619.00000
    72.3017     2643.00000
    72.3148     2630.00000
    72.3279     2656.00000
    72.3410     2816.00000
    72.3542     2983.00000
    72.3673     3084.00000
    72.3804     3258.00000
    72.3936     3450.00000
    72.4067     3708.00000
    72.4198     3840.00000
    72.4330     4176.00000
    72.4461     4229.00000
    72.4592     4121.00000
    72.4724     3806.00000
    72.4855     3605.00000
    72.4986     3460.00000
    72.5117     3097.00000
    72.5249     3016.00000
    72.5380     2975.00000
    72.5511     2891.00000
    72.5643     2923.00000
    72.5774     2945.00000
    72.5905     2991.00000
    72.6037     3015.00000
    72.6168     3252.00000
    72.6299     3156.00000
    72.6430     3445.00000
    72.6562     3413.00000
    72.6693     3333.00000
    72.6824     3278.00000
    72.6956     3029.00000
    72.7087     2935.00000
    72.7218     2948.00000
    72.7350     2843.00000
    72.7481     2852.00000
    72.7612     2656.00000
    72.7743     2683.00000
    72.7875     2782.00000
    72.8006     2627.00000
    72.8137     2608.00000
    72.8269     2744.00000
    72.8400     2763.00000
    72.8531     2806.00000
    72.8663     2870.00000
    72.8794     3086.00000
    72.8925     3192.00000
    72.9057     3442.00000
    72.9188     3650.00000
    72.9319     3889.00000
    72.9450     4207.00000
    72.9582     4422.00000
    72.9713     4461.00000
    72.9844     4338.00000
    72.9976     4346.00000
    73.0107     4038.00000
    73.0238     3732.00000
    73.0370     3531.00000
    73.0501     3297.00000
    73.0632     3056.00000
    73.0763     3074.00000
    73.0895     2978.00000
    73.1026     3077.00000
    73.1157     3094.00000
    73.1289     3258.00000
    73.1420     3414.00000
    73.1551     3545.00000
    73.1683     3686.00000
    73.1814     3859.00000
    73.1945     3936.00000
    73.2076     4055.00000
    73.2208     4095.00000
    73.2339     3947.00000
    73.2470     3932.00000
    73.2602     3992.00000
    73.2733     3963.00000
    73.2864     3938.00000
    73.2996     3843.00000
    73.3127     3788.00000
    73.3258     3643.00000
    73.3390     3445.00000
    73.3521     3294.00000
    73.3652     3268.00000
    73.3783     3095.00000
    73.3915     3157.00000
    73.4046     3117.00000
    73.4177     3356.00000
    73.4309     3375.00000
    73.4440     3528.00000
    73.4571     3681.00000
    73.4703     3773.00000
    73.4834     3737.00000
    73.4965     3762.00000
    73.5096     3500.00000
    73.5228     3454.00000
    73.5359     3249.00000
    73.5490     3136.00000
    73.5622     3193.00000
    73.5753     3063.00000
    73.5884     2994.00000
    73.6016     3062.00000
    73.6147     3040.00000
    73.6278     3065.00000
    73.6409     3228.00000
    73.6541     3356.00000
    73.6672     3566.00000
    73.6803     3952.00000
    73.6935     4338.00000
    73.7066     4705.00000
    73.7197     5005.00000
    73.7329     5338.00000
    73.7460     5550.00000
    73.7591     5629.00000
    73.7722     5663.00000
    73.7854     5522.00000
    73.7985     5509.00000
    73.8116     5574.00000
    73.8248     5394.00000
    73.8379     5152.00000
    73.8510     4735.00000
    73.8642     4295.00000
    73.8773     4070.00000
    73.8904     3839.00000
    73.9035     3749.00000
    73.9167     3819.00000
    73.9298     3981.00000
    73.9429     4035.00000
    73.9561     4027.00000
    73.9692     4218.00000
    73.9823     4055.00000
    73.9955     4073.00000
    74.0086     4067.00000
    74.0217     3963.00000
    74.0349     3946.00000
    74.0480     3684.00000
    74.0611     3539.00000
    74.0742     3367.00000
    74.0874     3182.00000
    74.1005     2818.00000
    74.1136     2745.00000
    74.1268     2672.00000
    74.1399     2700.00000
    74.1530     2599.00000
    74.1662     2619.00000
    74.1793     2616.00000
    74.1924     2489.00000
    74.2056     2508.00000
    74.2187     2611.00000
    74.2318     2459.00000
    74.2449     2471.00000
    74.2581     2522.00000
    74.2712     2410.00000
    74.2843     2493.00000
    74.2975     2488.00000
    74.3106     2378.00000
    74.3237     2457.00000
    74.3369     2489.00000
    74.3500     2542.00000
    74.3631     2374.00000
    74.3762     2468.00000
    74.3894     2364.00000
    74.4025     2416.00000
    74.4156     2450.00000
    74.4288     2503.00000
    74.4419     2520.00000
    74.4550     2556.00000
    74.4682     2362.00000
    74.4813     2488.00000
    74.4944     2467.00000
    74.5075     2420.00000
    74.5207     2424.00000
    74.5338     2410.00000
    74.5469     2357.00000
    74.5601     2380.00000
    74.5732     2452.00000
    74.5863     2419.00000
    74.5995     2487.00000
    74.6126     2487.00000
    74.6257     2475.00000
    74.6388     2485.00000
    74.6520     2485.00000
    74.6651     2420.00000
    74.6782     2360.00000
    74.6914     2428.00000
    74.7045     2440.00000
    74.7176     2397.00000
    74.7308     2330.00000
    74.7439     2350.00000
    74.7570     2474.00000
    74.7701     2380.00000
    74.7833     2339.00000
    74.7964     2364.00000
    74.8095     2448.00000
    74.8227     2444.00000
    74.8358     2406.00000
    74.8489     2465.00000
    74.8621     2409.00000
    74.8752     2271.00000
    74.8883     2454.00000
    74.9015     2353.00000
    74.9146     2340.00000
    74.9277     2498.00000
    74.9408     2336.00000
    74.9540     2449.00000
    74.9671     2373.00000
    74.9802     2327.00000
    74.9934     2421.00000
    75.0065     2390.00000
    75.0196     2410.00000
    75.0328     2433.00000
    75.0459     2479.00000
    75.0590     2368.00000
    75.0722     2349.00000
    75.0853     2416.00000
    75.0984     2226.00000
    75.1115     2382.00000
    75.1247     2502.00000
    75.1378     2432.00000
    75.1509     2412.00000
    75.1641     2405.00000
    75.1772     2424.00000
    75.1903     2428.00000
    75.2035     2449.00000
    75.2166     2477.00000
    75.2297     2487.00000
    75.2428     2518.00000
    75.2560     2376.00000
    75.2691     2477.00000
    75.2822     2468.00000
    75.2954     2538.00000
    75.3085     2554.00000
    75.3216     2483.00000
    75.3348     2468.00000
    75.3479     2529.00000
    75.3610     2541.00000
    75.3741     2534.00000
    75.3873     2525.00000
    75.4004     2513.00000
    75.4135     2403.00000
    75.4267     2441.00000
    75.4398     2471.00000
    75.4529     2475.00000
    75.4661     2537.00000
    75.4792     2550.00000
    75.4923     2564.00000
    75.5054     2415.00000
    75.5186     2522.00000
    75.5317     2507.00000
    75.5448     2567.00000
    75.5580     2578.00000
    75.5711     2457.00000
    75.5842     2586.00000
    75.5974     2543.00000
    75.6105     2546.00000
    75.6236     2586.00000
    75.6367     2614.00000
    75.6499     2628.00000
    75.6630     2521.00000
    75.6761     2508.00000
    75.6893     2507.00000
    75.7024     2586.00000
    75.7155     2504.00000
    75.7287     2464.00000
    75.7418     2414.00000
    75.7549     2437.00000
    75.7681     2550.00000
    75.7812     2409.00000
    75.7943     2470.00000
    75.8074     2602.00000
    75.8206     2666.00000
    75.8337     2666.00000
    75.8468     2578.00000
    75.8600     2660.00000
    75.8731     2716.00000
    75.8862     2775.00000
    75.8994     2702.00000
    75.9125     2772.00000
    75.9256     2834.00000
    75.9387     2955.00000
    75.9519     2974.00000
    75.9650     3062.00000
    75.9781     3120.00000
    75.9913     2992.00000
    76.0044     3100.00000
    76.0175     3162.00000
    76.0307     3135.00000
    76.0438     3264.00000
    76.0569     3303.00000
    76.0701     3356.00000
    76.0832     3501.00000
    76.0963     3683.00000
    76.1094     3932.00000
    76.1226     4132.00000
    76.1357     4539.00000
    76.1488     4687.00000
    76.1620     4840.00000
    76.1751     4901.00000
    76.1882     4877.00000
    76.2014     4784.00000
    76.2145     4416.00000
    76.2276     4190.00000
    76.2407     3857.00000
    76.2539     3718.00000
    76.2670     3664.00000
    76.2801     3321.00000
    76.2933     3294.00000
    76.3064     3264.00000
    76.3195     3345.00000
    76.3327     3446.00000
    76.3458     3392.00000
    76.3589     3362.00000
    76.3720     3577.00000
    76.3852     3536.00000
    76.3983     3663.00000
    76.4114     3518.00000
    76.4246     3443.00000
    76.4377     3407.00000
    76.4508     3139.00000
    76.4640     3174.00000
    76.4771     3028.00000
    76.4902     2987.00000
    76.5033     2852.00000
    76.5165     2757.00000
    76.5296     2713.00000
    76.5427     2713.00000
    76.5559     2716.00000
    76.5690     2677.00000
    76.5821     2664.00000
    76.5953     2832.00000
    76.6084     2824.00000
    76.6215     2989.00000
    76.6347     2783.00000
    76.6478     2943.00000
    76.6609     3112.00000
    76.6740     3265.00000
    76.6872     3458.00000
    76.7003     3558.00000
    76.7134     3817.00000
    76.7266     4133.00000
    76.7397     4087.00000
    76.7528     4322.00000
    76.7660     4483.00000
    76.7791     4475.00000
    76.7922     4438.00000
    76.8053     4293.00000
    76.8185     4158.00000
    76.8316     3870.00000
    76.8447     3726.00000
    76.8579     3385.00000
    76.8710     3222.00000
    76.8841     3137.00000
    76.8973     3241.00000
    76.9104     3140.00000
    76.9235     3239.00000
    76.9366     3262.00000
    76.9498     3270.00000
    76.9629     3423.00000
    76.9760     3385.00000
    76.9892     3487.00000
    77.0023     3496.00000
    77.0154     3479.00000
    77.0286     3429.00000
    77.0417     3246.00000
    77.0548     3182.00000
    77.0679     3034.00000
    77.0811     3013.00000
    77.0942     2929.00000
    77.1073     2786.00000
    77.1205     2683.00000
    77.1336     2554.00000
    77.1467     2543.00000
    77.1599     2618.00000
    77.1730     2584.00000
    77.1861     2518.00000
    77.1993     2496.00000
    77.2124     2515.00000
    77.2255     2478.00000
    77.2386     2526.00000
    77.2518     2547.00000
    77.2649     2426.00000
    77.2780     2578.00000
    77.2912     2485.00000
    77.3043     2484.00000
    77.3174     2528.00000
    77.3306     2487.00000
    77.3437     2551.00000
    77.3568     2546.00000
    77.3699     2528.00000
    77.3831     2582.00000
    77.3962     2627.00000
    77.4093     2614.00000
    77.4225     2722.00000
    77.4356     2864.00000
    77.4487     2970.00000
    77.4619     3066.00000
    77.4750     3164.00000
    77.4881     3196.00000
    77.5013     3163.00000
    77.5144     3166.00000
    77.5275     3066.00000
    77.5406     2957.00000
    77.5538     2807.00000
    77.5669     2727.00000
    77.5800     2746.00000
    77.5932     2668.00000
    77.6063     2613.00000
    77.6194     2639.00000
    77.6326     2636.00000
    77.6457     2649.00000
    77.6588     2624.00000
    77.6719     2684.00000
    77.6851     2775.00000
    77.6982     2811.00000
    77.7113     2819.00000
    77.7245     2901.00000
    77.7376     2853.00000
    77.7507     2819.00000
    77.7639     2697.00000
    77.7770     2718.00000
    77.7901     2642.00000
    77.8032     2612.00000
    77.8164     2617.00000
    77.8295     2552.00000
    77.8426     2469.00000
    77.8558     2540.00000
    77.8689     2487.00000
    77.8820     2598.00000
    77.8952     2597.00000
    77.9083     2628.00000
    77.9214     2676.00000
    77.9345     2595.00000
    77.9477     2787.00000
    77.9608     2804.00000
    77.9739     2773.00000
    77.9871     2897.00000
    78.0002     2952.00000
    78.0133     2881.00000
    78.0265     2799.00000
    78.0396     2682.00000
    78.0527     2617.00000
    78.0658     2635.00000
    78.0790     2693.00000
    78.0921     2703.00000
    78.1052     2695.00000
    78.1184     2743.00000
    78.1315     2832.00000
    78.1446     2803.00000
    78.1578     2787.00000
    78.1709     2944.00000
    78.1840     3188.00000
    78.1972     3256.00000
    78.2103     3338.00000
    78.2234     3515.00000
    78.2365     3518.00000
    78.2497     3547.00000
    78.2628     3602.00000
    78.2759     3509.00000
    78.2891     3476.00000
    78.3022     3428.00000
    78.3153     3493.00000
    78.3285     3532.00000
    78.3416     3478.00000
    78.3547     3280.00000
    78.3679     3292.00000
    78.3810     3270.00000
    78.3941     3199.00000
    78.4072     3262.00000
    78.4204     3140.00000
    78.4335     3364.00000
    78.4466     3377.00000
    78.4598     3670.00000
    78.4729     3698.00000
    78.4860     3951.00000
    78.4992     4040.00000
    78.5123     4159.00000
    78.5254     4320.00000
    78.5385     4359.00000
    78.5517     4412.00000
    78.5648     4512.00000
    78.5779     4281.00000
    78.5911     4217.00000
    78.6042     4307.00000
    78.6173     4222.00000
    78.6305     4107.00000
    78.6436     4159.00000
    78.6567     4361.00000
    78.6698     4199.00000
    78.6830     4152.00000
    78.6961     4111.00000
    78.7092     4095.00000
    78.7224     4143.00000
    78.7355     4242.00000
    78.7486     4080.00000
    78.7618     4021.00000
    78.7749     4039.00000
    78.7880     3875.00000
    78.8011     3739.00000
    78.8143     3479.00000
    78.8274     3535.00000
    78.8405     3419.00000
    78.8537     3453.00000
    78.8668     3433.00000
    78.8799     3431.00000
    78.8931     3437.00000
    78.9062     3309.00000
    78.9193     3219.00000
    78.9324     3254.00000
    78.9456     3258.00000
    78.9587     3192.00000
    78.9718     3164.00000
    78.9850     3078.00000
    78.9981     3003.00000
    79.0112     2932.00000
    79.0244     2995.00000
    79.0375     2859.00000
    79.0506     2807.00000
    79.0638     2697.00000
    79.0769     2725.00000
    79.0900     2752.00000
    79.1031     2704.00000
    79.1163     2769.00000
    79.1294     2746.00000
    79.1425     2880.00000
    79.1557     2906.00000
    79.1688     2981.00000
    79.1819     3020.00000
    79.1951     3087.00000
    79.2082     3360.00000
    79.2213     3440.00000
    79.2345     3729.00000
    79.2476     3852.00000
    79.2607     3993.00000
    79.2738     4140.00000
    79.2870     4082.00000
    79.3001     3869.00000
    79.3132     3561.00000
    79.3264     3519.00000
    79.3395     3320.00000
    79.3526     3136.00000
    79.3658     3328.00000
    79.3789     3079.00000
    79.3920     3110.00000
    79.4051     3111.00000
    79.4183     3222.00000
    79.4314     3237.00000
    79.4445     3428.00000
    79.4577     3400.00000
    79.4708     3495.00000
    79.4839     3490.00000
    79.4971     3561.00000
    79.5102     3514.00000
    79.5233     3522.00000
    79.5364     3391.00000
    79.5496     3278.00000
    79.5627     3106.00000
    79.5758     3005.00000
    79.5890     2867.00000
    79.6021     2944.00000
    79.6152     2872.00000
    79.6284     2847.00000
    79.6415     2813.00000
    79.6546     2895.00000
    79.6677     2819.00000
    79.6809     2944.00000
    79.6940     2876.00000
    79.7071     2888.00000
    79.7203     2961.00000
    79.7334     3009.00000
    79.7465     3035.00000
    79.7597     2996.00000
    79.7728     3121.00000
    79.7859     3069.00000
    79.7990     3160.00000
    79.8122     3184.00000
    79.8253     3389.00000
    79.8384     3383.00000
    79.8516     3551.00000
    79.8647     3831.00000
    79.8778     4079.00000
    79.8910     4325.00000
    79.9041     4527.00000
    79.9172     4752.00000
    79.9304     4984.00000
    79.9435     4828.00000
    79.9566     4651.00000
    79.9697     4485.00000
    79.9829     4289.00000
    79.9960     4201.00000
    80.0091     3837.00000
    80.0223     3727.00000
    80.0354     3714.00000
    80.0485     3564.00000
    80.0617     3516.00000
    80.0748     3741.00000
    80.0879     3761.00000
    80.1010     3831.00000
    80.1142     4017.00000
    80.1273     4427.00000
    80.1404     4753.00000
    80.1536     5010.00000
    80.1667     5402.00000
    80.1798     5652.00000
    80.1930     5809.00000
    80.2061     6078.00000
    80.2192     5930.00000
    80.2323     5975.00000
    80.2455     6147.00000
    80.2586     6060.00000
    80.2717     6011.00000
    80.2849     6183.00000
    80.2980     6184.00000
    80.3111     5616.00000
    80.3243     5449.00000
    80.3374     5100.00000
    80.3505     4726.00000
    80.3637     4610.00000
    80.3768     4640.00000
    80.3899     4537.00000
    80.4030     4844.00000
    80.4162     5072.00000
    80.4293     5218.00000
    80.4424     5342.00000
    80.4556     5333.00000
    80.4687     5263.00000
    80.4818     5058.00000
    80.4950     5183.00000
    80.5081     4856.00000
    80.5212     4892.00000
    80.5343     5023.00000
    80.5475     4993.00000
    80.5606     4793.00000
    80.5737     4681.00000
    80.5869     4599.00000
    80.6000     4277.00000
    80.6131     4214.00000
    80.6263     4008.00000
    80.6394     3894.00000
    80.6525     3830.00000
    80.6656     3834.00000
    80.6788     3768.00000
    80.6919     3618.00000
    80.7050     3591.00000
    80.7182     3562.00000
    80.7313     3320.00000
    80.7444     3367.00000
    80.7576     3361.00000
    80.7707     3396.00000
    80.7838     3389.00000
    80.7970     3467.00000
    80.8101     3573.00000
    80.8232     3565.00000
    80.8363     3696.00000
    80.8495     3717.00000
    80.8626     3661.00000
    80.8757     3599.00000
    80.8889     3527.00000
    80.9020     3544.00000
    80.9151     3482.00000
    80.9283     3420.00000
    80.9414     3543.00000
    80.9545     3505.00000
    80.9676     3469.00000
    80.9808     3300.00000
    80.9939     3309.00000
    81.0070     3382.00000
    81.0202     3172.00000
    81.0333     3198.00000
    81.0464     3165.00000
    81.0596     3011.00000
    81.0727     2968.00000
    81.0858     2897.00000
    81.0989     2937.00000
    81.1121     2875.00000
    81.1252     2881.00000
    81.1383     2853.00000
    81.1515     2889.00000
    81.1646     2918.00000
    81.1777     2841.00000
    81.1909     2896.00000
    81.2040     2931.00000
    81.2171     2955.00000
    81.2302     2874.00000
    81.2434     2869.00000
    81.2565     2825.00000
    81.2696     2759.00000
    81.2828     2698.00000
    81.2959     2619.00000
    81.3090     2632.00000
    81.3222     2671.00000
    81.3353     2614.00000
    81.3484     2516.00000
    81.3616     2464.00000
    81.3747     2552.00000
    81.3878     2499.00000
    81.4009     2537.00000
    81.4141     2548.00000
    81.4272     2448.00000
    81.4403     2546.00000
    81.4535     2575.00000
    81.4666     2471.00000
    81.4797     2524.00000
    81.4929     2497.00000
    81.5060     2592.00000
    81.5191     2509.00000
    81.5322     2636.00000
    81.5454     2555.00000
    81.5585     2568.00000
    81.5716     2599.00000
    81.5848     2624.00000
    81.5979     2570.00000
    81.6110     2675.00000
    81.6242     2663.00000
    81.6373     2769.00000
    81.6504     2814.00000
    81.6636     2860.00000
    81.6767     2852.00000
    81.6898     2896.00000
    81.7029     3121.00000
    81.7161     3372.00000
    81.7292     3431.00000
    81.7423     3450.00000
    81.7555     3516.00000
    81.7686     3542.00000
    81.7817     3703.00000
    81.7949     3644.00000
    81.8080     3641.00000
    81.8211     3625.00000
    81.8342     3575.00000
    81.8474     3354.00000
    81.8605     3418.00000
    81.8736     3127.00000
    81.8868     3140.00000
    81.8999     3029.00000
    81.9130     2981.00000
    81.9262     2860.00000
    81.9393     2966.00000
    81.9524     3014.00000
    81.9655     3131.00000
    81.9787     3170.00000
    81.9918     3398.00000
    82.0049     3338.00000
    82.0181     3382.00000
    82.0312     3397.00000
    82.0443     3519.00000
    82.0575     3500.00000
    82.0706     3527.00000
    82.0837     3341.00000
    82.0968     3438.00000
    82.1100     3320.00000
    82.1231     3279.00000
    82.1362     3064.00000
    82.1494     3013.00000
    82.1625     2853.00000
    82.1756     2847.00000
    82.1888     2833.00000
    82.2019     2808.00000
    82.2150     2701.00000
    82.2281     2736.00000
    82.2413     2769.00000
    82.2544     2793.00000
    82.2675     2750.00000
    82.2807     2747.00000
    82.2938     2738.00000
    82.3069     2832.00000
    82.3201     2906.00000
    82.3332     2941.00000
    82.3463     2926.00000
    82.3595     2923.00000
    82.3726     3065.00000
    82.3857     3016.00000
    82.3988     3082.00000
    82.4120     3199.00000
    82.4251     3410.00000
    82.4382     3583.00000
    82.4514     3684.00000
    82.4645     3858.00000
    82.4776     3788.00000
    82.4908     3474.00000
    82.5039     3238.00000
    82.5170     3127.00000
    82.5302     2958.00000
    82.5433     2771.00000
    82.5564     2741.00000
    82.5695     2653.00000
    82.5827     2669.00000
    82.5958     2627.00000
    82.6089     2615.00000
    82.6221     2743.00000
    82.6352     2756.00000
    82.6483     2751.00000
    82.6615     2741.00000
    82.6746     2824.00000
    82.6877     3030.00000
    82.7008     2977.00000
    82.7140     3118.00000
    82.7271     3098.00000
    82.7402     2971.00000
    82.7534     2920.00000
    82.7665     2690.00000
    82.7796     2726.00000
    82.7928     2769.00000
    82.8059     2651.00000
    82.8190     2592.00000
    82.8321     2524.00000
    82.8453     2566.00000
    82.8584     2511.00000
    82.8715     2573.00000
    82.8847     2606.00000
    82.8978     2392.00000
    82.9109     2414.00000
    82.9241     2587.00000
    82.9372     2374.00000
    82.9503     2484.00000
    82.9634     2465.00000
    82.9766     2414.00000
    82.9897     2442.00000
    83.0028     2534.00000
    83.0160     2584.00000
    83.0291     2475.00000
    83.0422     2638.00000
    83.0554     2656.00000
    83.0685     2731.00000
    83.0816     2653.00000
    83.0947     2748.00000
    83.1079     2712.00000
    83.1210     2781.00000
    83.1341     2766.00000
    83.1473     2759.00000
    83.1604     2752.00000
    83.1735     2804.00000
    83.1867     2785.00000
    83.1998     2759.00000
    83.2129     2722.00000
    83.2261     2734.00000
    83.2392     2770.00000
    83.2523     2796.00000
    83.2654     2776.00000
    83.2786     2781.00000
    83.2917     2756.00000
    83.3048     2823.00000
    83.3180     2712.00000
    83.3311     2912.00000
    83.3442     2906.00000
    83.3574     2937.00000
    83.3705     3005.00000
    83.3836     3113.00000
    83.3967     3291.00000
    83.4099     3454.00000
    83.4230     3547.00000
    83.4361     3488.00000
    83.4493     3488.00000
    83.4624     3338.00000
    83.4755     3176.00000
    83.4887     3067.00000
    83.5018     2909.00000
    83.5149     2711.00000
    83.5281     2800.00000
    83.5412     2726.00000
    83.5543     2604.00000
    83.5674     2681.00000
    83.5806     2742.00000
    83.5937     2560.00000
    83.6068     2682.00000
    83.6200     2751.00000
    83.6331     2799.00000
    83.6462     2837.00000
    83.6594     2851.00000
    83.6725     2817.00000
    83.6856     2825.00000
    83.6987     2787.00000
    83.7119     2763.00000
    83.7250     2729.00000
    83.7381     2699.00000
    83.7513     2606.00000
    83.7644     2622.00000
    83.7775     2527.00000
    83.7907     2468.00000
    83.8038     2392.00000
    83.8169     2440.00000
    83.8300     2525.00000
    83.8432     2507.00000
    83.8563     2445.00000
    83.8694     2421.00000
    83.8826     2435.00000
    83.8957     2325.00000
    83.9088     2418.00000
    83.9220     2409.00000
    83.9351     2373.00000
    83.9482     2383.00000
    83.9613     2540.00000
    83.9745     2397.00000
    83.9876     2442.00000
    84.0007     2451.00000
    84.0139     2384.00000
    84.0270     2482.00000
    84.0401     2358.00000
    84.0533     2421.00000
    84.0664     2392.00000
    84.0795     2521.00000
    84.0927     2487.00000
    84.1058     2416.00000
    84.1189     2405.00000
    84.1320     2470.00000
    84.1452     2473.00000
    84.1583     2433.00000
    84.1714     2428.00000
    84.1846     2390.00000
    84.1977     2391.00000
    84.2108     2482.00000
    84.2240     2425.00000
    84.2371     2455.00000
    84.2502     2554.00000
    84.2633     2395.00000
    84.2765     2502.00000
    84.2896     2599.00000
    84.3027     2564.00000
    84.3159     2526.00000
    84.3290     2641.00000
    84.3421     2529.00000
    84.3553     2603.00000
    84.3684     2553.00000
    84.3815     2543.00000
    84.3946     2604.00000
    84.4078     2533.00000
    84.4209     2638.00000
    84.4340     2533.00000
    84.4472     2503.00000
    84.4603     2462.00000
    84.4734     2465.00000
    84.4866     2533.00000
    84.4997     2455.00000
    84.5128     2564.00000
    84.5260     2459.00000
    84.5391     2414.00000
    84.5522     2502.00000
    84.5653     2452.00000
    84.5785     2410.00000
    84.5916     2464.00000
    84.6047     2443.00000
    84.6179     2623.00000
    84.6310     2528.00000
    84.6441     2528.00000
    84.6573     2603.00000
    84.6704     2636.00000
    84.6835     2573.00000
    84.6966     2548.00000
    84.7098     2520.00000
    84.7229     2455.00000
    84.7360     2496.00000
    84.7492     2568.00000
    84.7623     2599.00000
    84.7754     2706.00000
    84.7886     2510.00000
    84.8017     2444.00000
    84.8148     2491.00000
    84.8279     2394.00000
    84.8411     2420.00000
    84.8542     2550.00000
    84.8673     2509.00000
    84.8805     2604.00000
    84.8936     2470.00000
    84.9067     2519.00000
    84.9199     2480.00000
    84.9330     2481.00000
    84.9461     2482.00000
    84.9593     2534.00000
    84.9724     2625.00000
    84.9855     2575.00000
    84.9986     2660.00000
    85.0118     2637.00000
    85.0249     2609.00000
    85.0380     2643.00000
    85.0512     2755.00000
    85.0643     2900.00000
    85.0774     2883.00000
    85.0906     2852.00000
    85.1037     3066.00000
    85.1168     3058.00000
    85.1299     2929.00000
    85.1431     3067.00000
    85.1562     2997.00000
    85.1693     3052.00000
    85.1825     3160.00000
    85.1956     3169.00000
    85.2087     3186.00000
    85.2219     3284.00000
    85.2350     3306.00000
    85.2481     3267.00000
    85.2612     3248.00000
    85.2744     3283.00000
    85.2875     3452.00000
    85.3006     3593.00000
    85.3138     3537.00000
    85.3269     3652.00000
    85.3400     3764.00000
    85.3532     3927.00000
    85.3663     3961.00000
    85.3794     4207.00000
    85.3925     4228.00000
    85.4057     4455.00000
    85.4188     4432.00000
    85.4319     4484.00000
    85.4451     4288.00000
    85.4582     4103.00000
    85.4713     3931.00000
    85.4845     3814.00000
    85.4976     3678.00000
    85.5107     3579.00000
    85.5238     3412.00000
    85.5370     3322.00000
    85.5501     3370.00000
    85.5632     3374.00000
    85.5764     3332.00000
    85.5895     3305.00000
    85.6026     3308.00000
    85.6158     3321.00000
    85.6289     3234.00000
    85.6420     3278.00000
    85.6552     3218.00000
    85.6683     3485.00000
    85.6814     3237.00000
    85.6945     3374.00000
    85.7077     3304.00000
    85.7208     3072.00000
    85.7339     3025.00000
    85.7471     2896.00000
    85.7602     2850.00000
    85.7733     2766.00000
    85.7865     2810.00000
    85.7996     2680.00000
    85.8127     2698.00000
    85.8259     2702.00000
    85.8390     2678.00000
    85.8521     2684.00000
    85.8652     2628.00000
    85.8784     2615.00000
    85.8915     2555.00000
    85.9046     2582.00000
    85.9178     2553.00000
    85.9309     2767.00000
    85.9440     2553.00000
    85.9572     2548.00000
    85.9703     2604.00000
    85.9834     2537.00000
    85.9965     2488.00000
    86.0097     2506.00000
    86.0228     2530.00000
    86.0359     2601.00000
    86.0491     2734.00000
    86.0622     2658.00000
    86.0753     2757.00000
    86.0885     2940.00000
    86.1016     3050.00000
    86.1147     3120.00000
    86.1278     3116.00000
    86.1410     3028.00000
    86.1541     3056.00000
    86.1672     2778.00000
    86.1804     2933.00000
    86.1935     2769.00000
    86.2066     2794.00000
    86.2198     2799.00000
    86.2329     2681.00000
    86.2460     2560.00000
    86.2591     2650.00000
    86.2723     2530.00000
    86.2854     2558.00000
    86.2985     2588.00000
    86.3117     2629.00000
    86.3248     2596.00000
    86.3379     2699.00000
    86.3511     2654.00000
    86.3642     2736.00000
    86.3773     2740.00000
    86.3904     2844.00000
    86.4036     2793.00000
    86.4167     2836.00000
    86.4298     2741.00000
    86.4430     2687.00000
    86.4561     2679.00000
    86.4692     2671.00000
    86.4824     2693.00000
    86.4955     2653.00000
    86.5086     2648.00000
    86.5218     2769.00000
    86.5349     2651.00000
    86.5480     2719.00000
    86.5611     2808.00000
    86.5743     2851.00000
    86.5874     3022.00000
    86.6005     3014.00000
    86.6137     3213.00000
    86.6268     3321.00000
    86.6399     3353.00000
    86.6531     3300.00000
    86.6662     3349.00000
    86.6793     3233.00000
    86.6925     3137.00000
    86.7056     2964.00000
    86.7187     2936.00000
    86.7318     2767.00000
    86.7450     2741.00000
    86.7581     2740.00000
    86.7712     2663.00000
    86.7844     2706.00000
    86.7975     2654.00000
    86.8106     2718.00000
    86.8238     2613.00000
    86.8369     2716.00000
    86.8500     2676.00000
    86.8631     2747.00000
    86.8763     2900.00000
    86.8894     2879.00000
    86.9025     2858.00000
    86.9157     3032.00000
    86.9288     3004.00000
    86.9419     2931.00000
    86.9551     2860.00000
    86.9682     2860.00000
    86.9813     2810.00000
    86.9944     2847.00000
    87.0076     2795.00000
    87.0207     2700.00000
    87.0338     2756.00000
    87.0470     2767.00000
    87.0601     2852.00000
    87.0732     2969.00000
    87.0864     3043.00000
    87.0995     3106.00000
    87.1126     3292.00000
    87.1257     3444.00000
    87.1389     3631.00000
    87.1520     3561.00000
    87.1651     3614.00000
    87.1783     3528.00000
    87.1914     3460.00000
    87.2045     3302.00000
    87.2177     3275.00000
    87.2308     2929.00000
    87.2439     2882.00000
    87.2570     2959.00000
    87.2702     2778.00000
    87.2833     2764.00000
    87.2964     2703.00000
    87.3096     2747.00000
    87.3227     2709.00000
    87.3358     2789.00000
    87.3490     2700.00000
    87.3621     2775.00000
    87.3752     2910.00000
    87.3884     2885.00000
    87.4015     2993.00000
    87.4146     3065.00000
    87.4277     3119.00000
    87.4409     3013.00000
    87.4540     2993.00000
    87.4671     3011.00000
    87.4803     3038.00000
    87.4934     2865.00000
    87.5065     2828.00000
    87.5197     2877.00000
    87.5328     2872.00000
    87.5459     2797.00000
    87.5590     2835.00000
    87.5722     2886.00000
    87.5853     2810.00000
    87.5984     2864.00000
    87.6116     3052.00000
    87.6247     3146.00000
    87.6378     3236.00000
    87.6510     3426.00000
    87.6641     3520.00000
    87.6772     3528.00000
    87.6904     3623.00000
    87.7035     3542.00000
    87.7166     3299.00000
    87.7297     3180.00000
    87.7429     3090.00000
    87.7560     2950.00000
    87.7691     2956.00000
    87.7823     2823.00000
    87.7954     2848.00000
    87.8085     2829.00000
    87.8217     2782.00000
    87.8348     2782.00000
    87.8479     2885.00000
    87.8610     2795.00000
    87.8742     2852.00000
    87.8873     2829.00000
    87.9004     2883.00000
    87.9136     2892.00000
    87.9267     2987.00000
    87.9398     3121.00000
    87.9530     3089.00000
    87.9661     3230.00000
    87.9792     2970.00000
    87.9923     3125.00000
    88.0055     3070.00000
    88.0186     3024.00000
    88.0317     3085.00000
    88.0449     3039.00000
    88.0580     3335.00000
    88.0711     3409.00000
    88.0843     3517.00000
    88.0974     3521.00000
    88.1105     3687.00000
    88.1236     3790.00000
    88.1368     3830.00000
    88.1499     3697.00000
    88.1630     3645.00000
    88.1762     3712.00000
    88.1893     3625.00000
    88.2024     3368.00000
    88.2156     3266.00000
    88.2287     3003.00000
    88.2418     3010.00000
    88.2550     2985.00000
    88.2681     2951.00000
    88.2812     2862.00000
    88.2943     2943.00000
    88.3075     2913.00000
    88.3206     3019.00000
    88.3337     2975.00000
    88.3469     3035.00000
    88.3600     3196.00000
    88.3731     3299.00000
    88.3863     3235.00000
    88.3994     3228.00000
    88.4125     3366.00000
    88.4256     3274.00000
    88.4388     3253.00000
    88.4519     3117.00000
    88.4650     2967.00000
    88.4782     2983.00000
    88.4913     2887.00000
    88.5044     2816.00000
    88.5176     2866.00000
    88.5307     2744.00000
    88.5438     2651.00000
    88.5569     2702.00000
    88.5701     2646.00000
    88.5832     2644.00000
    88.5963     2690.00000
    88.6095     2589.00000
    88.6226     2747.00000
    88.6357     2672.00000
    88.6489     2702.00000
    88.6620     2595.00000
    88.6751     2626.00000
    88.6882     2576.00000
    88.7014     2589.00000
    88.7145     2626.00000
    88.7276     2681.00000
    88.7408     2596.00000
    88.7539     2623.00000
    88.7670     2576.00000
    88.7802     2571.00000
    88.7933     2591.00000
    88.8064     2661.00000
    88.8196     2770.00000
    88.8327     2803.00000
    88.8458     2801.00000
    88.8589     2949.00000
    88.8721     2929.00000
    88.8852     3229.00000
    88.8983     3208.00000
    88.9115     3269.00000
    88.9246     3244.00000
    88.9377     3371.00000
    88.9509     3049.00000
    88.9640     3131.00000
    88.9771     2932.00000
    88.9902     2817.00000
    89.0034     2826.00000
    89.0165     2899.00000
    89.0296     2741.00000
    89.0428     2766.00000
    89.0559     2738.00000
    89.0690     2787.00000
    89.0822     2624.00000
    89.0953     2722.00000
    89.1084     2693.00000
    89.1216     2642.00000
    89.1347     2704.00000
    89.1478     2820.00000
    89.1609     2909.00000
    89.1741     2975.00000
    89.1872     2973.00000
    89.2003     2979.00000
    89.2135     2848.00000
    89.2266     2995.00000
    89.2397     2779.00000
    89.2529     2903.00000
    89.2660     2830.00000
    89.2791     2802.00000
    89.2922     2716.00000
    89.3054     2886.00000
    89.3185     2873.00000
    89.3316     2892.00000
    89.3448     2821.00000
    89.3579     2976.00000
    89.3710     2888.00000
    89.3842     2806.00000
    89.3973     2944.00000
    89.4104     2835.00000
    89.4235     2644.00000
    89.4367     2605.00000
    89.4498     2648.00000
    89.4629     2516.00000
    89.4761     2503.00000
    89.4892     2593.00000
    89.5023     2525.00000
    89.5155     2651.00000
    89.5286     2641.00000
    89.5417     2631.00000
    89.5548     2543.00000
    89.5680     2576.00000
    89.5811     2659.00000
    89.5942     2672.00000
    89.6074     2760.00000
    89.6205     2812.00000
    89.6336     2735.00000
    89.6468     2752.00000
    89.6599     2821.00000
    89.6730     2834.00000
    89.6861     2848.00000
    89.6993     3011.00000
    89.7124     3076.00000
    89.7255     3215.00000
    89.7387     3437.00000
    89.7518     3475.00000
    89.7649     3582.00000
    89.7781     3603.00000
    89.7912     3584.00000
    89.8043     3433.00000
    89.8175     3319.00000
    89.8306     3295.00000
    89.8437     3128.00000
    89.8568     3090.00000
    89.8700     3083.00000
    89.8831     3018.00000
    89.8962     3041.00000
    89.9094     3186.00000
    89.9225     3055.00000
    89.9356     3115.00000
    89.9488     3247.00000
    89.9619     3227.00000
    89.9750     3426.00000
    89.9882     3687.00000
    90.0013     3551.00000
    90.0144     3777.00000
    90.0275     3705.00000
    90.0407     3804.00000
    90.0538     3844.00000
    90.0669     3787.00000
    90.0801     3572.00000
    90.0932     3559.00000
    90.1063     3530.00000
    90.1195     3336.00000
    90.1326     3285.00000
    90.1457     3178.00000
    90.1588     3014.00000
    90.1720     3024.00000
    90.1851     3081.00000
    90.1982     2866.00000
    90.2114     2956.00000
    90.2245     2968.00000
    90.2376     2911.00000
    90.2508     3027.00000
    90.2639     3161.00000
    90.2770     3127.00000
    90.2901     3104.00000
    90.3033     3160.00000
    90.3164     3317.00000
    90.3295     3356.00000
    90.3427     3411.00000
    90.3558     3478.00000
    90.3689     3541.00000
    90.3821     3557.00000
    90.3952     3444.00000
    90.4083     3429.00000
    90.4214     3003.00000
    90.4346     3067.00000
    90.4477     2923.00000
    90.4608     2857.00000
    90.4740     2862.00000
    90.4871     2784.00000
    90.5002     2823.00000
    90.5134     2759.00000
    90.5265     2652.00000
    90.5396     2769.00000
    90.5527     2794.00000
    90.5659     2761.00000
    90.5790     2864.00000
    90.5921     2848.00000
    90.6053     2883.00000
    90.6184     2957.00000
    90.6315     2917.00000
    90.6447     3066.00000
    90.6578     3050.00000
    90.6709     3113.00000
    90.6841     3005.00000
    90.6972     2973.00000
    90.7103     2894.00000
    90.7234     2993.00000
    90.7366     2833.00000
    90.7497     2920.00000
    90.7628     2901.00000
    90.7760     3014.00000
    90.7891     3027.00000
    90.8022     3097.00000
    90.8154     3035.00000
    90.8285     3163.00000
    90.8416     3222.00000
    90.8548     3112.00000
    90.8679     3052.00000
    90.8810     3070.00000
    90.8941     2880.00000
    90.9073     2925.00000
    90.9204     2920.00000
    90.9335     2864.00000
    90.9467     2894.00000
    90.9598     2827.00000
    90.9729     2771.00000
    90.9861     2861.00000
    90.9992     2730.00000
    91.0123     2808.00000
    91.0254     2879.00000
    91.0386     2976.00000
    91.0517     3017.00000
    91.0648     3087.00000
    91.0780     3324.00000
    91.0911     3273.00000
    91.1042     3377.00000
    91.1174     3572.00000
    91.1305     3607.00000
    91.1436     3595.00000
    91.1567     3650.00000
    91.1699     3670.00000
    91.1830     3576.00000
    91.1961     3596.00000
    91.2093     3425.00000
    91.2224     3588.00000
    91.2355     3482.00000
    91.2487     3326.00000
    91.2618     3169.00000
    91.2749     3090.00000
    91.2880     3000.00000
    91.3012     2820.00000
    91.3143     2773.00000
    91.3274     2932.00000
    91.3406     2940.00000
    91.3537     2909.00000
    91.3668     2999.00000
    91.3800     3068.00000
    91.3931     3099.00000
    91.4062     3154.00000
    91.4193     3355.00000
    91.4325     3386.00000
    91.4456     3559.00000
    91.4587     3674.00000
    91.4719     3626.00000
    91.4850     3914.00000
    91.4981     3992.00000
    91.5113     4122.00000
    91.5244     4302.00000
    91.5375     4339.00000
    91.5507     4264.00000
    91.5638     4182.00000
    91.5769     3799.00000
    91.5900     3598.00000
    91.6032     3544.00000
    91.6163     3285.00000
    91.6294     3151.00000
    91.6426     3020.00000
    91.6557     2961.00000
    91.6688     2953.00000
    91.6820     2955.00000
    91.6951     2889.00000
    91.7082     2890.00000
    91.7213     2901.00000
    91.7345     2899.00000
    91.7476     2951.00000
    91.7607     2948.00000
    91.7739     3055.00000
    91.7870     3217.00000
    91.8001     3277.00000
    91.8133     3336.00000
    91.8264     3393.00000
    91.8395     3390.00000
    91.8526     3236.00000
    91.8658     3126.00000
    91.8789     3154.00000
    91.8920     3040.00000
    91.9052     2933.00000
    91.9183     2822.00000
    91.9314     2727.00000
    91.9446     2649.00000
    91.9577     2649.00000
    91.9708     2671.00000
    91.9840     2692.00000
    91.9971     2676.00000
    92.0102     2799.00000
    92.0233     2738.00000
    92.0365     2757.00000
    92.0496     2715.00000
    92.0627     2727.00000
    92.0759     2722.00000
    92.0890     2858.00000
    92.1021     2858.00000
    92.1153     3014.00000
    92.1284     2916.00000
    92.1415     3014.00000
    92.1546     2933.00000
    92.1678     3005.00000
    92.1809     3058.00000
    92.1940     3023.00000
    92.2072     2948.00000
    92.2203     3060.00000
    92.2334     2920.00000
    92.2466     2956.00000
    92.2597     2947.00000
    92.2728     2932.00000
    92.2859     2884.00000
    92.2991     2962.00000
    92.3122     2994.00000
    92.3253     2895.00000
    92.3385     2985.00000
    92.3516     3003.00000
    92.3647     3081.00000
    92.3779     3124.00000
    92.3910     3104.00000
    92.4041     3174.00000
    92.4173     3174.00000
    92.4304     3309.00000
    92.4435     3462.00000
    92.4566     3606.00000
    92.4698     3792.00000
    92.4829     3777.00000
    92.4960     3820.00000
    92.5092     3779.00000
    92.5223     3666.00000
    92.5354     3515.00000
    92.5486     3353.00000
    92.5617     3230.00000
    92.5748     3095.00000
    92.5879     2998.00000
    92.6011     3059.00000
    92.6142     2839.00000
    92.6273     2784.00000
    92.6405     2902.00000
    92.6536     2887.00000
    92.6667     2895.00000
    92.6799     2846.00000
    92.6930     2808.00000
    92.7061     2860.00000
    92.7192     2797.00000
    92.7324     2863.00000
    92.7455     2878.00000
    92.7586     2955.00000
    92.7718     3083.00000
    92.7849     3098.00000
    92.7980     3057.00000
    92.8112     2996.00000
    92.8243     2862.00000
    92.8374     2826.00000
    92.8505     2804.00000
    92.8637     2737.00000
    92.8768     2678.00000
    92.8899     2631.00000
    92.9031     2600.00000
    92.9162     2486.00000
    92.9293     2591.00000
    92.9425     2506.00000
    92.9556     2450.00000
    92.9687     2558.00000
    92.9819     2583.00000
    92.9950     2449.00000
    93.0081     2526.00000
    93.0212     2398.00000
    93.0344     2443.00000
    93.0475     2482.00000
    93.0606     2459.00000
    93.0738     2436.00000
    93.0869     2398.00000
    93.1000     2451.00000
    93.1132     2440.00000
    93.1263     2493.00000
    93.1394     2374.00000
    93.1525     2458.00000
    93.1657     2397.00000
    93.1788     2477.00000
    93.1919     2425.00000
    93.2051     2441.00000
    93.2182     2424.00000
    93.2313     2352.00000
    93.2445     2373.00000
    93.2576     2366.00000
    93.2707     2425.00000
    93.2839     2396.00000
    93.2970     2455.00000
    93.3101     2454.00000
    93.3232     2369.00000
    93.3364     2432.00000
    93.3495     2434.00000
    93.3626     2445.00000
    93.3758     2409.00000
    93.3889     2454.00000
    93.4020     2499.00000
    93.4152     2465.00000
    93.4283     2412.00000
    93.4414     2382.00000
    93.4545     2535.00000
    93.4677     2591.00000
    93.4808     2573.00000
    93.4939     2633.00000
    93.5071     2610.00000
    93.5202     2555.00000
    93.5333     2790.00000
    93.5465     2727.00000
    93.5596     2920.00000
    93.5727     2985.00000
    93.5858     3168.00000
    93.5990     3089.00000
    93.6121     3170.00000
    93.6252     3161.00000
    93.6384     3079.00000
    93.6515     3047.00000
    93.6646     2971.00000
    93.6778     2843.00000
    93.6909     2876.00000
    93.7040     2752.00000
    93.7171     2746.00000
    93.7303     2705.00000
    93.7434     2733.00000
    93.7565     2844.00000
    93.7697     2668.00000
    93.7828     2816.00000
    93.7959     2955.00000
    93.8091     2848.00000
    93.8222     2993.00000
    93.8353     2980.00000
    93.8484     3016.00000
    93.8616     3010.00000
    93.8747     2928.00000
    93.8878     2891.00000
    93.9010     3067.00000
    93.9141     3034.00000
    93.9272     2956.00000
    93.9404     2858.00000
    93.9535     2770.00000
    93.9666     2769.00000
    93.9798     2631.00000
    93.9929     2667.00000
    94.0060     2681.00000
    94.0191     2725.00000
    94.0323     2693.00000
    94.0454     2621.00000
    94.0585     2682.00000
    94.0717     2656.00000
    94.0848     2711.00000
    94.0979     2655.00000
    94.1111     2686.00000
    94.1242     2698.00000
    94.1373     2766.00000
    94.1505     2738.00000
    94.1636     2568.00000
    94.1767     2673.00000
    94.1898     2662.00000
    94.2030     2692.00000
    94.2161     2645.00000
    94.2292     2673.00000
    94.2424     2615.00000
    94.2555     2636.00000
    94.2686     2739.00000
    94.2818     2734.00000
    94.2949     2955.00000
    94.3080     3032.00000
    94.3211     2950.00000
    94.3343     3134.00000
    94.3474     3097.00000
    94.3605     3092.00000
    94.3737     3103.00000
    94.3868     3119.00000
    94.3999     3146.00000
    94.4131     3193.00000
    94.4262     3051.00000
    94.4393     3165.00000
    94.4524     3191.00000
    94.4656     3208.00000
    94.4787     3223.00000
    94.4918     3350.00000
    94.5050     3256.00000
    94.5181     3107.00000
    94.5312     3050.00000
    94.5444     2837.00000
    94.5575     2913.00000
    94.5706     2952.00000
    94.5837     2748.00000
    94.5969     2747.00000
    94.6100     2767.00000
    94.6231     2746.00000
    94.6363     2637.00000
    94.6494     2796.00000
    94.6625     2866.00000
    94.6757     2824.00000
    94.6888     2803.00000
    94.7019     2782.00000
    94.7150     2801.00000
    94.7282     2788.00000
    94.7413     2879.00000
    94.7544     2828.00000
    94.7676     2842.00000
    94.7807     2874.00000
    94.7938     2787.00000
    94.8070     2815.00000
    94.8201     2811.00000
    94.8332     2700.00000
    94.8464     2581.00000
    94.8595     2599.00000
    94.8726     2537.00000
    94.8857     2679.00000
    94.8989     2543.00000
    94.9120     2523.00000
    94.9251     2468.00000
    94.9383     2449.00000
    94.9514     2591.00000
    94.9645     2423.00000
    94.9777     2516.00000
    94.9908     2414.00000
    95.0039     2414.00000
    95.0170     2455.00000
    95.0302     2376.00000
    95.0433     2403.00000
    95.0564     2432.00000
    95.0696     2496.00000
    95.0827     2421.00000
    95.0958     2447.00000
    95.1090     2481.00000
    95.1221     2435.00000
    95.1352     2456.00000
    95.1484     2442.00000
    95.1615     2421.00000
    95.1746     2339.00000
    95.1877     2409.00000
    95.2009     2541.00000
    95.2140     2471.00000
    95.2271     2425.00000
    95.2403     2398.00000
    95.2534     2372.00000
    95.2665     2381.00000
    95.2797     2505.00000
    95.2928     2391.00000
    95.3059     2518.00000
    95.3190     2465.00000
    95.3322     2354.00000
    95.3453     2418.00000
    95.3584     2367.00000
    95.3716     2403.00000
    95.3847     2510.00000
    95.3978     2446.00000
    95.4110     2441.00000
    95.4241     2418.00000
    95.4372     2499.00000
    95.4503     2389.00000
    95.4635     2345.00000
    95.4766     2418.00000
    95.4897     2431.00000
    95.5029     2551.00000
    95.5160     2346.00000
    95.5291     2354.00000
    95.5423     2514.00000
    95.5554     2393.00000
    95.5685     2380.00000
    95.5816     2370.00000
    95.5948     2433.00000
    95.6079     2425.00000
    95.6210     2346.00000
    95.6342     2384.00000
    95.6473     2466.00000
    95.6604     2512.00000
    95.6736     2388.00000
    95.6867     2497.00000
    95.6998     2459.00000
    95.7130     2390.00000
    95.7261     2368.00000
    95.7392     2400.00000
    95.7523     2433.00000
    95.7655     2462.00000
    95.7786     2509.00000
    95.7917     2519.00000
    95.8049     2554.00000
    95.8180     2562.00000
    95.8311     2631.00000
    95.8443     2565.00000
    95.8574     2561.00000
    95.8705     2516.00000
    95.8836     2514.00000
    95.8968     2605.00000
    95.9099     2537.00000
    95.9230     2559.00000
    95.9362     2521.00000
    95.9493     2504.00000
    95.9624     2512.00000
    95.9756     2461.00000
    95.9887     2426.00000
    96.0018     2430.00000
    96.0149     2529.00000
    96.0281     2500.00000
    96.0412     2397.00000
    96.0543     2461.00000
    96.0675     2473.00000
    96.0806     2497.00000
    96.0937     2572.00000
    96.1069     2528.00000
    96.1200     2496.00000
    96.1331     2506.00000
    96.1463     2591.00000
    96.1594     2553.00000
    96.1725     2549.00000
    96.1856     2473.00000
    96.1988     2504.00000
    96.2119     2577.00000
    96.2250     2547.00000
    96.2382     2655.00000
    96.2513     2530.00000
    96.2644     2706.00000
    96.2776     2579.00000
    96.2907     2575.00000
    96.3038     2659.00000
    96.3169     2703.00000
    96.3301     2740.00000
    96.3432     2868.00000
    96.3563     2987.00000
    96.3695     2986.00000
    96.3826     3238.00000
    96.3957     3402.00000
    96.4089     3474.00000
    96.4220     3581.00000
    96.4351     3667.00000
    96.4482     3615.00000
    96.4614     3542.00000
    96.4745     3490.00000
    96.4876     3301.00000
    96.5008     3290.00000
    96.5139     3215.00000
    96.5270     3109.00000
    96.5402     3231.00000
    96.5533     3121.00000
    96.5664     3330.00000
    96.5796     3228.00000
    96.5927     3278.00000
    96.6058     3408.00000
    96.6189     3450.00000
    96.6321     3339.00000
    96.6452     3507.00000
    96.6583     3507.00000
    96.6715     3437.00000
    96.6846     3333.00000
    96.6977     3227.00000
    96.7109     3279.00000
    96.7240     3328.00000
    96.7371     3267.00000
    96.7502     3392.00000
    96.7634     3346.00000
    96.7765     3166.00000
    96.7896     3116.00000
    96.8028     3141.00000
    96.8159     2946.00000
    96.8290     2893.00000
    96.8422     2783.00000
    96.8553     2877.00000
    96.8684     2948.00000
    96.8815     2864.00000
    96.8947     2860.00000
    96.9078     2853.00000
    96.9209     2831.00000
    96.9341     2902.00000
    96.9472     2858.00000
    96.9603     2866.00000
    96.9735     2877.00000
    96.9866     2847.00000
    96.9997     2778.00000
    97.0128     2687.00000
    97.0260     2606.00000
    97.0391     2571.00000
    97.0522     2602.00000
    97.0654     2583.00000
    97.0785     2560.00000
    97.0916     2523.00000
    97.1048     2624.00000
    97.1179     2515.00000
    97.1310     2561.00000
    97.1442     2588.00000
    97.1573     2558.00000
    97.1704     2594.00000
    97.1835     2502.00000
    97.1967     2594.00000
    97.2098     2590.00000
    97.2229     2626.00000
    97.2361     2669.00000
    97.2492     2732.00000
    97.2623     2632.00000
    97.2755     2732.00000
    97.2886     2810.00000
    97.3017     2935.00000
    97.3148     2889.00000
    97.3280     2968.00000
    97.3411     3007.00000
    97.3542     3299.00000
    97.3674     3355.00000
    97.3805     3375.00000
    97.3936     3413.00000
    97.4068     3501.00000
    97.4199     3380.00000
    97.4330     3390.00000
    97.4462     3413.00000
    97.4593     3509.00000
    97.4724     3276.00000
    97.4855     3180.00000
    97.4987     3161.00000
    97.5118     3047.00000
    97.5249     2950.00000
    97.5381     2819.00000
    97.5512     2825.00000
    97.5643     2712.00000
    97.5775     2726.00000
    97.5906     2784.00000
    97.6037     2665.00000
    97.6168     2742.00000
    97.6300     2665.00000
    97.6431     2636.00000
    97.6562     2819.00000
    97.6694     2821.00000
    97.6825     2897.00000
    97.6956     2796.00000
    97.7088     2904.00000
    97.7219     2948.00000
    97.7350     2959.00000
    97.7481     3019.00000
    97.7613     2988.00000
    97.7744     2906.00000
    97.7875     2920.00000
    97.8007     2930.00000
    97.8138     2819.00000
    97.8269     2763.00000
    97.8401     2639.00000
    97.8532     2645.00000
    97.8663     2699.00000
    97.8794     2617.00000
    97.8926     2607.00000
    97.9057     2491.00000
    97.9188     2460.00000
    97.9320     2589.00000
    97.9451     2540.00000
    97.9582     2522.00000
    97.9714     2480.00000
    97.9845     2546.00000
    97.9976     2462.00000
    98.0107     2559.00000
    98.0239     2477.00000
    98.0370     2501.00000
    98.0501     2446.00000
    98.0633     2570.00000
    98.0764     2559.00000
    98.0895     2570.00000
    98.1027     2544.00000
    98.1158     2623.00000
    98.1289     2574.00000
    98.1421     2547.00000
    98.1552     2634.00000
    98.1683     2603.00000
    98.1814     2617.00000
    98.1946     2771.00000
    98.2077     2745.00000
    98.2208     2782.00000
    98.2340     2854.00000
    98.2471     2828.00000
    98.2602     2884.00000
    98.2734     3057.00000
    98.2865     3088.00000
    98.2996     3108.00000
    98.3128     3184.00000
    98.3259     3205.00000
    98.3390     3289.00000
    98.3521     3206.00000
    98.3653     3341.00000
    98.3784     3331.00000
    98.3915     3388.00000
    98.4047     3430.00000
    98.4178     3539.00000
    98.4309     3604.00000
    98.4441     3520.00000
    98.4572     3673.00000
    98.4703     3759.00000
    98.4834     3785.00000
    98.4966     3792.00000
    98.5097     3788.00000
    98.5228     3664.00000
    98.5360     3612.00000
    98.5491     3497.00000
    98.5622     3360.00000
    98.5754     3269.00000
    98.5885     3278.00000
    98.6016     3232.00000
    98.6147     3283.00000
    98.6279     3205.00000
    98.6410     3163.00000
    98.6541     3230.00000
    98.6673     3235.00000
    98.6804     3291.00000
    98.6935     3389.00000
    98.7067     3194.00000
    98.7198     3225.00000
    98.7329     3176.00000
    98.7460     3368.00000
    98.7592     3387.00000
    98.7723     3568.00000
    98.7854     3687.00000
    98.7986     3885.00000
    98.8117     3811.00000
    98.8248     3862.00000
    98.8380     4118.00000
    98.8511     4241.00000
    98.8642     4165.00000
    98.8773     4173.00000
    98.8905     4041.00000
    98.9036     4057.00000
    98.9167     3953.00000
    98.9299     3847.00000
    98.9430     3968.00000
    98.9561     4084.00000
    98.9693     4146.00000
    98.9824     4327.00000
    98.9955     4450.00000
    99.0087     4415.00000
    99.0218     4612.00000
    99.0349     4668.00000
    99.0480     4629.00000
    99.0612     4524.00000
    99.0743     4391.00000
    99.0874     4433.00000
    99.1006     4292.00000
    99.1137     4226.00000
    99.1268     4114.00000
    99.1400     3970.00000
    99.1531     4027.00000
    99.1662     3894.00000
    99.1793     3951.00000
    99.1925     3782.00000
    99.2056     3770.00000
    99.2187     3606.00000
    99.2319     3673.00000
    99.2450     3414.00000
    99.2581     3423.00000
    99.2713     3289.00000
    99.2844     3275.00000
    99.2975     3311.00000
    99.3107     3423.00000
    99.3238     3416.00000
    99.3369     3473.00000
    99.3500     3514.00000
    99.3632     3560.00000
    99.3763     3464.00000
    99.3894     3413.00000
    99.4026     3355.00000
    99.4157     3461.00000
    99.4288     3398.00000
    99.4420     3198.00000
    99.4551     3164.00000
    99.4682     3114.00000
    99.4813     3126.00000
    99.4945     3045.00000
    99.5076     2852.00000
    99.5207     2931.00000
    99.5339     2833.00000
    99.5470     2780.00000
    99.5601     2756.00000
    99.5733     2761.00000
    99.5864     2751.00000
    99.5995     2718.00000
    99.6126     2729.00000
    99.6258     2751.00000
    99.6389     2646.00000
    99.6520     2693.00000
    99.6652     2784.00000
    99.6783     2672.00000
    99.6914     2776.00000
    99.7046     2878.00000
    99.7177     2834.00000
    99.7308     2939.00000
    99.7439     3066.00000
    99.7571     3186.00000
    99.7702     3406.00000
    99.7833     3265.00000
    99.7965     3308.00000
    99.8096     3281.00000
    99.8227     3146.00000
    99.8359     3063.00000
    99.8490     3015.00000
    99.8621     2913.00000
    99.8753     2977.00000
    99.8884     2933.00000
    99.9015     2982.00000
    99.9146     2987.00000
    99.9278     2977.00000
    99.9409     3034.00000
    99.9540     2844.00000
    99.9672     3035.00000
    99.9803     2949.00000
    99.9934     2995.00000
