! Initial file:   D:\ZAKARY_OUAIL\MA_THESE\Deuxième_année_de_thèse\DRX\Manips_DRX\1st_NaTaO2F2_XRK900\NaTaO2F2-Lent_260°C.xrdml
! Initial format:  58
! WAVE (A):      1.54060     1.54060     1.00000
! REM : data have been multiplied by     1.0000
! X_data : 2 Theta (deg.)                                                                                                                                                                                                                                                  
! Y_data : Intensity (arb. units)                                                                                                                                                                                                                                          
!     X         Y
!--------------------------------------------------------------------------------
    10.0116     6282.00000
    10.0247     6455.00000
    10.0379     6388.00000
    10.0510     6418.00000
    10.0641     6292.00000
    10.0772     6309.00000
    10.0904     6414.00000
    10.1035     6382.00000
    10.1166     6308.00000
    10.1298     6129.00000
    10.1429     6351.00000
    10.1560     6253.00000
    10.1692     6212.00000
    10.1823     6255.00000
    10.1954     6234.00000
    10.2086     6139.00000
    10.2217     6318.00000
    10.2348     6229.00000
    10.2479     6179.00000
    10.2611     6142.00000
    10.2742     6271.00000
    10.2873     6220.00000
    10.3005     6263.00000
    10.3136     6248.00000
    10.3267     6246.00000
    10.3399     6199.00000
    10.3530     6141.00000
    10.3661     6281.00000
    10.3792     6243.00000
    10.3924     6282.00000
    10.4055     6307.00000
    10.4186     6209.00000
    10.4318     6075.00000
    10.4449     6173.00000
    10.4580     6002.00000
    10.4712     6230.00000
    10.4843     6192.00000
    10.4974     6292.00000
    10.5105     6073.00000
    10.5237     6246.00000
    10.5368     6013.00000
    10.5499     6002.00000
    10.5631     6139.00000
    10.5762     6190.00000
    10.5893     5961.00000
    10.6025     5923.00000
    10.6156     5934.00000
    10.6287     6170.00000
    10.6418     6237.00000
    10.6550     6068.00000
    10.6681     6102.00000
    10.6812     6143.00000
    10.6944     6172.00000
    10.7075     6230.00000
    10.7206     6320.00000
    10.7338     6118.00000
    10.7469     6393.00000
    10.7600     6315.00000
    10.7732     6300.00000
    10.7863     6354.00000
    10.7994     6296.00000
    10.8125     6305.00000
    10.8257     6449.00000
    10.8388     6366.00000
    10.8519     6533.00000
    10.8651     6434.00000
    10.8782     6432.00000
    10.8913     6679.00000
    10.9045     6816.00000
    10.9176     6707.00000
    10.9307     6966.00000
    10.9438     7112.00000
    10.9570     7409.00000
    10.9701     7878.00000
    10.9832     8372.00000
    10.9964     9480.00000
    11.0095    10553.00000
    11.0226    12680.00000
    11.0358    15442.00000
    11.0489    20173.00000
    11.0620    25238.00000
    11.0751    32026.00000
    11.0883    41106.00000
    11.1014    48515.00000
    11.1145    49797.00000
    11.1277    47495.00000
    11.1408    42871.00000
    11.1539    34257.00000
    11.1671    26866.00000
    11.1802    21422.00000
    11.1933    15389.00000
    11.2065    11839.00000
    11.2196     9668.00000
    11.2327     8240.00000
    11.2458     7450.00000
    11.2590     6870.00000
    11.2721     6836.00000
    11.2852     6640.00000
    11.2984     6570.00000
    11.3115     6415.00000
    11.3246     6321.00000
    11.3378     5998.00000
    11.3509     6141.00000
    11.3640     5894.00000
    11.3771     6143.00000
    11.3903     6069.00000
    11.4034     6017.00000
    11.4165     5948.00000
    11.4297     6057.00000
    11.4428     5964.00000
    11.4559     5978.00000
    11.4691     5888.00000
    11.4822     5910.00000
    11.4953     5950.00000
    11.5084     5840.00000
    11.5216     5943.00000
    11.5347     5837.00000
    11.5478     6113.00000
    11.5610     5793.00000
    11.5741     5872.00000
    11.5872     5873.00000
    11.6004     5789.00000
    11.6135     5887.00000
    11.6266     5752.00000
    11.6398     5827.00000
    11.6529     5695.00000
    11.6660     5816.00000
    11.6791     5941.00000
    11.6923     5876.00000
    11.7054     5864.00000
    11.7185     5751.00000
    11.7317     5749.00000
    11.7448     5693.00000
    11.7579     5791.00000
    11.7711     5769.00000
    11.7842     5702.00000
    11.7973     5959.00000
    11.8104     5852.00000
    11.8236     5755.00000
    11.8367     5702.00000
    11.8498     5764.00000
    11.8630     5722.00000
    11.8761     5631.00000
    11.8892     5757.00000
    11.9024     5569.00000
    11.9155     5740.00000
    11.9286     5794.00000
    11.9417     5736.00000
    11.9549     5571.00000
    11.9680     5646.00000
    11.9811     5674.00000
    11.9943     5756.00000
    12.0074     5677.00000
    12.0205     5816.00000
    12.0337     5767.00000
    12.0468     5652.00000
    12.0599     5649.00000
    12.0731     5771.00000
    12.0862     5613.00000
    12.0993     5451.00000
    12.1124     5595.00000
    12.1256     5638.00000
    12.1387     5593.00000
    12.1518     5688.00000
    12.1650     5639.00000
    12.1781     5478.00000
    12.1912     5605.00000
    12.2044     5675.00000
    12.2175     5582.00000
    12.2306     5744.00000
    12.2437     5537.00000
    12.2569     5616.00000
    12.2700     5511.00000
    12.2831     5506.00000
    12.2963     5547.00000
    12.3094     5485.00000
    12.3225     5523.00000
    12.3357     5461.00000
    12.3488     5556.00000
    12.3619     5609.00000
    12.3750     5595.00000
    12.3882     5521.00000
    12.4013     5479.00000
    12.4144     5584.00000
    12.4276     5384.00000
    12.4407     5383.00000
    12.4538     5441.00000
    12.4670     5557.00000
    12.4801     5462.00000
    12.4932     5589.00000
    12.5063     5495.00000
    12.5195     5352.00000
    12.5326     5450.00000
    12.5457     5376.00000
    12.5589     5536.00000
    12.5720     5519.00000
    12.5851     5426.00000
    12.5983     5510.00000
    12.6114     5427.00000
    12.6245     5537.00000
    12.6377     5496.00000
    12.6508     5374.00000
    12.6639     5383.00000
    12.6770     5382.00000
    12.6902     5506.00000
    12.7033     5359.00000
    12.7164     5238.00000
    12.7296     5412.00000
    12.7427     5457.00000
    12.7558     5404.00000
    12.7690     5494.00000
    12.7821     5258.00000
    12.7952     5393.00000
    12.8083     5327.00000
    12.8215     5285.00000
    12.8346     5487.00000
    12.8477     5561.00000
    12.8609     5243.00000
    12.8740     5267.00000
    12.8871     5355.00000
    12.9003     5422.00000
    12.9134     5365.00000
    12.9265     5337.00000
    12.9396     5253.00000
    12.9528     5457.00000
    12.9659     5417.00000
    12.9790     5400.00000
    12.9922     5293.00000
    13.0053     5492.00000
    13.0184     5167.00000
    13.0316     5303.00000
    13.0447     5258.00000
    13.0578     5286.00000
    13.0710     5489.00000
    13.0841     5260.00000
    13.0972     5372.00000
    13.1103     5357.00000
    13.1235     5384.00000
    13.1366     5328.00000
    13.1497     5233.00000
    13.1629     5422.00000
    13.1760     5291.00000
    13.1891     5340.00000
    13.2023     5330.00000
    13.2154     5285.00000
    13.2285     5321.00000
    13.2416     5254.00000
    13.2548     5252.00000
    13.2679     5313.00000
    13.2810     5221.00000
    13.2942     5424.00000
    13.3073     5284.00000
    13.3204     5079.00000
    13.3336     5227.00000
    13.3467     5223.00000
    13.3598     5171.00000
    13.3729     5275.00000
    13.3861     5078.00000
    13.3992     5226.00000
    13.4123     5240.00000
    13.4255     5233.00000
    13.4386     5195.00000
    13.4517     5250.00000
    13.4649     5127.00000
    13.4780     5137.00000
    13.4911     5158.00000
    13.5043     5123.00000
    13.5174     5187.00000
    13.5305     5203.00000
    13.5436     5216.00000
    13.5568     5356.00000
    13.5699     5291.00000
    13.5830     5099.00000
    13.5962     5219.00000
    13.6093     5181.00000
    13.6224     5173.00000
    13.6356     5102.00000
    13.6487     5156.00000
    13.6618     5218.00000
    13.6749     5107.00000
    13.6881     5079.00000
    13.7012     4988.00000
    13.7143     5203.00000
    13.7275     5174.00000
    13.7406     5208.00000
    13.7537     5088.00000
    13.7669     5114.00000
    13.7800     5181.00000
    13.7931     5077.00000
    13.8062     5068.00000
    13.8194     5202.00000
    13.8325     5069.00000
    13.8456     5099.00000
    13.8588     5026.00000
    13.8719     5124.00000
    13.8850     4971.00000
    13.8982     4936.00000
    13.9113     5174.00000
    13.9244     5129.00000
    13.9376     5017.00000
    13.9507     5182.00000
    13.9638     5052.00000
    13.9769     4900.00000
    13.9901     5035.00000
    14.0032     5120.00000
    14.0163     5173.00000
    14.0295     5066.00000
    14.0426     5076.00000
    14.0557     5065.00000
    14.0689     4963.00000
    14.0820     4921.00000
    14.0951     5021.00000
    14.1082     5031.00000
    14.1214     5072.00000
    14.1345     4947.00000
    14.1476     5051.00000
    14.1608     4968.00000
    14.1739     5046.00000
    14.1870     4998.00000
    14.2002     5018.00000
    14.2133     4936.00000
    14.2264     4910.00000
    14.2395     4890.00000
    14.2527     4880.00000
    14.2658     4855.00000
    14.2789     4985.00000
    14.2921     4936.00000
    14.3052     4857.00000
    14.3183     5003.00000
    14.3315     4923.00000
    14.3446     5042.00000
    14.3577     4804.00000
    14.3708     4928.00000
    14.3840     4796.00000
    14.3971     5127.00000
    14.4102     4868.00000
    14.4234     4894.00000
    14.4365     4971.00000
    14.4496     4918.00000
    14.4628     4897.00000
    14.4759     4835.00000
    14.4890     4955.00000
    14.5022     5049.00000
    14.5153     4851.00000
    14.5284     4970.00000
    14.5415     4823.00000
    14.5547     4880.00000
    14.5678     4860.00000
    14.5809     4736.00000
    14.5941     4830.00000
    14.6072     4942.00000
    14.6203     4899.00000
    14.6335     4872.00000
    14.6466     4945.00000
    14.6597     4870.00000
    14.6728     4914.00000
    14.6860     4865.00000
    14.6991     4862.00000
    14.7122     4958.00000
    14.7254     4896.00000
    14.7385     4878.00000
    14.7516     4770.00000
    14.7648     4882.00000
    14.7779     4802.00000
    14.7910     4872.00000
    14.8041     4855.00000
    14.8173     4851.00000
    14.8304     4916.00000
    14.8435     4948.00000
    14.8567     4957.00000
    14.8698     4795.00000
    14.8829     4893.00000
    14.8961     4760.00000
    14.9092     4859.00000
    14.9223     4854.00000
    14.9355     4667.00000
    14.9486     4680.00000
    14.9617     4871.00000
    14.9748     4820.00000
    14.9880     4907.00000
    15.0011     4928.00000
    15.0142     4814.00000
    15.0274     4835.00000
    15.0405     4817.00000
    15.0536     4786.00000
    15.0668     4818.00000
    15.0799     4810.00000
    15.0930     4780.00000
    15.1061     4827.00000
    15.1193     4794.00000
    15.1324     4742.00000
    15.1455     4788.00000
    15.1587     4784.00000
    15.1718     4824.00000
    15.1849     4798.00000
    15.1981     4721.00000
    15.2112     4809.00000
    15.2243     4776.00000
    15.2374     4922.00000
    15.2506     4709.00000
    15.2637     4731.00000
    15.2768     4694.00000
    15.2900     4717.00000
    15.3031     4763.00000
    15.3162     4761.00000
    15.3294     4705.00000
    15.3425     4643.00000
    15.3556     4765.00000
    15.3688     4699.00000
    15.3819     4576.00000
    15.3950     4657.00000
    15.4081     4693.00000
    15.4213     4669.00000
    15.4344     4645.00000
    15.4475     4669.00000
    15.4607     4593.00000
    15.4738     4703.00000
    15.4869     4763.00000
    15.5001     4752.00000
    15.5132     4635.00000
    15.5263     4668.00000
    15.5394     4743.00000
    15.5526     4588.00000
    15.5657     4733.00000
    15.5788     4721.00000
    15.5920     4778.00000
    15.6051     4719.00000
    15.6182     4689.00000
    15.6314     4622.00000
    15.6445     4661.00000
    15.6576     4727.00000
    15.6707     4788.00000
    15.6839     4593.00000
    15.6970     4571.00000
    15.7101     4683.00000
    15.7233     4673.00000
    15.7364     4599.00000
    15.7495     4567.00000
    15.7627     4641.00000
    15.7758     4747.00000
    15.7889     4637.00000
    15.8021     4701.00000
    15.8152     4610.00000
    15.8283     4678.00000
    15.8414     4634.00000
    15.8546     4601.00000
    15.8677     4436.00000
    15.8808     4570.00000
    15.8940     4608.00000
    15.9071     4629.00000
    15.9202     4532.00000
    15.9334     4636.00000
    15.9465     4735.00000
    15.9596     4690.00000
    15.9727     4534.00000
    15.9859     4612.00000
    15.9990     4580.00000
    16.0121     4632.00000
    16.0253     4698.00000
    16.0384     4677.00000
    16.0515     4688.00000
    16.0647     4620.00000
    16.0778     4751.00000
    16.0909     4778.00000
    16.1040     4742.00000
    16.1172     4673.00000
    16.1303     4893.00000
    16.1434     4801.00000
    16.1566     4715.00000
    16.1697     4776.00000
    16.1828     4841.00000
    16.1960     4599.00000
    16.2091     4745.00000
    16.2222     4728.00000
    16.2353     4659.00000
    16.2485     4804.00000
    16.2616     4659.00000
    16.2747     4777.00000
    16.2879     4834.00000
    16.3010     4608.00000
    16.3141     4684.00000
    16.3273     4793.00000
    16.3404     4742.00000
    16.3535     4779.00000
    16.3667     4674.00000
    16.3798     4763.00000
    16.3929     4759.00000
    16.4060     4616.00000
    16.4192     4625.00000
    16.4323     4751.00000
    16.4454     4561.00000
    16.4586     4643.00000
    16.4717     4661.00000
    16.4848     4684.00000
    16.4980     4692.00000
    16.5111     4631.00000
    16.5242     4552.00000
    16.5373     4568.00000
    16.5505     4661.00000
    16.5636     4612.00000
    16.5767     4471.00000
    16.5899     4590.00000
    16.6030     4460.00000
    16.6161     4604.00000
    16.6293     4665.00000
    16.6424     4490.00000
    16.6555     4488.00000
    16.6686     4689.00000
    16.6818     4542.00000
    16.6949     4477.00000
    16.7080     4568.00000
    16.7212     4538.00000
    16.7343     4556.00000
    16.7474     4507.00000
    16.7606     4669.00000
    16.7737     4509.00000
    16.7868     4487.00000
    16.8000     4337.00000
    16.8131     4564.00000
    16.8262     4572.00000
    16.8393     4453.00000
    16.8525     4515.00000
    16.8656     4406.00000
    16.8787     4467.00000
    16.8919     4498.00000
    16.9050     4443.00000
    16.9181     4451.00000
    16.9313     4465.00000
    16.9444     4467.00000
    16.9575     4529.00000
    16.9706     4440.00000
    16.9838     4393.00000
    16.9969     4406.00000
    17.0100     4422.00000
    17.0232     4401.00000
    17.0363     4531.00000
    17.0494     4493.00000
    17.0626     4585.00000
    17.0757     4473.00000
    17.0888     4424.00000
    17.1019     4569.00000
    17.1151     4522.00000
    17.1282     4474.00000
    17.1413     4450.00000
    17.1545     4629.00000
    17.1676     4493.00000
    17.1807     4505.00000
    17.1939     4552.00000
    17.2070     4536.00000
    17.2201     4587.00000
    17.2333     4496.00000
    17.2464     4608.00000
    17.2595     4518.00000
    17.2726     4470.00000
    17.2858     4548.00000
    17.2989     4340.00000
    17.3120     4390.00000
    17.3252     4360.00000
    17.3383     4550.00000
    17.3514     4360.00000
    17.3646     4458.00000
    17.3777     4455.00000
    17.3908     4259.00000
    17.4039     4442.00000
    17.4171     4354.00000
    17.4302     4454.00000
    17.4433     4481.00000
    17.4565     4309.00000
    17.4696     4360.00000
    17.4827     4281.00000
    17.4959     4334.00000
    17.5090     4358.00000
    17.5221     4382.00000
    17.5352     4340.00000
    17.5484     4220.00000
    17.5615     4328.00000
    17.5746     4510.00000
    17.5878     4502.00000
    17.6009     4300.00000
    17.6140     4316.00000
    17.6272     4410.00000
    17.6403     4460.00000
    17.6534     4434.00000
    17.6666     4356.00000
    17.6797     4390.00000
    17.6928     4558.00000
    17.7059     4566.00000
    17.7191     4718.00000
    17.7322     4669.00000
    17.7453     4586.00000
    17.7585     4619.00000
    17.7716     4610.00000
    17.7847     4514.00000
    17.7979     4453.00000
    17.8110     4351.00000
    17.8241     4349.00000
    17.8372     4314.00000
    17.8504     4313.00000
    17.8635     4293.00000
    17.8766     4144.00000
    17.8898     4236.00000
    17.9029     4301.00000
    17.9160     4353.00000
    17.9292     4246.00000
    17.9423     4380.00000
    17.9554     4278.00000
    17.9685     4288.00000
    17.9817     4420.00000
    17.9948     4280.00000
    18.0079     4388.00000
    18.0211     4250.00000
    18.0342     4261.00000
    18.0473     4198.00000
    18.0605     4143.00000
    18.0736     4197.00000
    18.0867     4150.00000
    18.0998     4203.00000
    18.1130     4207.00000
    18.1261     4240.00000
    18.1392     4192.00000
    18.1524     4316.00000
    18.1655     4216.00000
    18.1786     4392.00000
    18.1918     4291.00000
    18.2049     4164.00000
    18.2180     4195.00000
    18.2312     4145.00000
    18.2443     4270.00000
    18.2574     4220.00000
    18.2705     4289.00000
    18.2837     4199.00000
    18.2968     4203.00000
    18.3099     4198.00000
    18.3231     4283.00000
    18.3362     4209.00000
    18.3493     4336.00000
    18.3625     4189.00000
    18.3756     4087.00000
    18.3887     4196.00000
    18.4018     4196.00000
    18.4150     4157.00000
    18.4281     4136.00000
    18.4412     4168.00000
    18.4544     4171.00000
    18.4675     4293.00000
    18.4806     4249.00000
    18.4938     4148.00000
    18.5069     4230.00000
    18.5200     4196.00000
    18.5331     4166.00000
    18.5463     4039.00000
    18.5594     4214.00000
    18.5725     4208.00000
    18.5857     4342.00000
    18.5988     4331.00000
    18.6119     4297.00000
    18.6251     4378.00000
    18.6382     4221.00000
    18.6513     4186.00000
    18.6645     4206.00000
    18.6776     4201.00000
    18.6907     4165.00000
    18.7038     4224.00000
    18.7170     4160.00000
    18.7301     4247.00000
    18.7432     4154.00000
    18.7564     4188.00000
    18.7695     4148.00000
    18.7826     4120.00000
    18.7958     4196.00000
    18.8089     4205.00000
    18.8220     3985.00000
    18.8351     3929.00000
    18.8483     4148.00000
    18.8614     4097.00000
    18.8745     4056.00000
    18.8877     4090.00000
    18.9008     4045.00000
    18.9139     4111.00000
    18.9271     4111.00000
    18.9402     4242.00000
    18.9533     4330.00000
    18.9664     4371.00000
    18.9796     4354.00000
    18.9927     4374.00000
    19.0058     4433.00000
    19.0190     4370.00000
    19.0321     4574.00000
    19.0452     4698.00000
    19.0584     4546.00000
    19.0715     4462.00000
    19.0846     4583.00000
    19.0978     4681.00000
    19.1109     4520.00000
    19.1240     4586.00000
    19.1371     4606.00000
    19.1503     4673.00000
    19.1634     4454.00000
    19.1765     4510.00000
    19.1897     4579.00000
    19.2028     4682.00000
    19.2159     4548.00000
    19.2291     4500.00000
    19.2422     4510.00000
    19.2553     4553.00000
    19.2684     4487.00000
    19.2816     4541.00000
    19.2947     4432.00000
    19.3078     4601.00000
    19.3210     4714.00000
    19.3341     4713.00000
    19.3472     4851.00000
    19.3604     4894.00000
    19.3735     4938.00000
    19.3866     5114.00000
    19.3997     5172.00000
    19.4129     5229.00000
    19.4260     5325.00000
    19.4391     5616.00000
    19.4523     5888.00000
    19.4654     5826.00000
    19.4785     6268.00000
    19.4917     6755.00000
    19.5048     7446.00000
    19.5179     8270.00000
    19.5311    10119.00000
    19.5442    12864.00000
    19.5573    16401.00000
    19.5704    23132.00000
    19.5836    33832.00000
    19.5967    52206.00000
    19.6098    73938.00000
    19.6230    95870.00000
    19.6361   116510.00000
    19.6492   122714.00000
    19.6624   115409.00000
    19.6755   106350.00000
    19.6886    97284.00000
    19.7017    79469.00000
    19.7149    60324.00000
    19.7280    44248.00000
    19.7411    31791.00000
    19.7543    22231.00000
    19.7674    16008.00000
    19.7805    12119.00000
    19.7937     9142.00000
    19.8068     7701.00000
    19.8199     6752.00000
    19.8330     6273.00000
    19.8462     5813.00000
    19.8593     5618.00000
    19.8724     5226.00000
    19.8856     4990.00000
    19.8987     5035.00000
    19.9118     4835.00000
    19.9250     4802.00000
    19.9381     4617.00000
    19.9512     4601.00000
    19.9643     4589.00000
    19.9775     4495.00000
    19.9906     4407.00000
    20.0037     4452.00000
    20.0169     4422.00000
    20.0300     4314.00000
    20.0431     4394.00000
    20.0563     4381.00000
    20.0694     4365.00000
    20.0825     4428.00000
    20.0957     4393.00000
    20.1088     4405.00000
    20.1219     4498.00000
    20.1350     4551.00000
    20.1482     4521.00000
    20.1613     4473.00000
    20.1744     4587.00000
    20.1876     4478.00000
    20.2007     4452.00000
    20.2138     4434.00000
    20.2270     4276.00000
    20.2401     4187.00000
    20.2532     4310.00000
    20.2663     4231.00000
    20.2795     4136.00000
    20.2926     4178.00000
    20.3057     4059.00000
    20.3189     4103.00000
    20.3320     4178.00000
    20.3451     4053.00000
    20.3583     4103.00000
    20.3714     4187.00000
    20.3845     4050.00000
    20.3976     3975.00000
    20.4108     4046.00000
    20.4239     4075.00000
    20.4370     4119.00000
    20.4502     4154.00000
    20.4633     4083.00000
    20.4764     4027.00000
    20.4896     4109.00000
    20.5027     3995.00000
    20.5158     4046.00000
    20.5290     3985.00000
    20.5421     3908.00000
    20.5552     4001.00000
    20.5683     3957.00000
    20.5815     3962.00000
    20.5946     3959.00000
    20.6077     4079.00000
    20.6209     4158.00000
    20.6340     4028.00000
    20.6471     4051.00000
    20.6603     4063.00000
    20.6734     3982.00000
    20.6865     3972.00000
    20.6996     3945.00000
    20.7128     3867.00000
    20.7259     3947.00000
    20.7390     3825.00000
    20.7522     3855.00000
    20.7653     3913.00000
    20.7784     3992.00000
    20.7916     3908.00000
    20.8047     3981.00000
    20.8178     4032.00000
    20.8309     4117.00000
    20.8441     3845.00000
    20.8572     3850.00000
    20.8703     4072.00000
    20.8835     3962.00000
    20.8966     3865.00000
    20.9097     4046.00000
    20.9229     3899.00000
    20.9360     3871.00000
    20.9491     3918.00000
    20.9623     3928.00000
    20.9754     3899.00000
    20.9885     3944.00000
    21.0016     3870.00000
    21.0148     3829.00000
    21.0279     3935.00000
    21.0410     3852.00000
    21.0542     3936.00000
    21.0673     3899.00000
    21.0804     3927.00000
    21.0936     3851.00000
    21.1067     3898.00000
    21.1198     3986.00000
    21.1329     3961.00000
    21.1461     3827.00000
    21.1592     3741.00000
    21.1723     3844.00000
    21.1855     3836.00000
    21.1986     3785.00000
    21.2117     3982.00000
    21.2249     3923.00000
    21.2380     3816.00000
    21.2511     4047.00000
    21.2642     3882.00000
    21.2774     3933.00000
    21.2905     3795.00000
    21.3036     3793.00000
    21.3168     3782.00000
    21.3299     3792.00000
    21.3430     3829.00000
    21.3562     3823.00000
    21.3693     3798.00000
    21.3824     3830.00000
    21.3956     3770.00000
    21.4087     3872.00000
    21.4218     3823.00000
    21.4349     3887.00000
    21.4481     3820.00000
    21.4612     3806.00000
    21.4743     3791.00000
    21.4875     3840.00000
    21.5006     3772.00000
    21.5137     3863.00000
    21.5269     3823.00000
    21.5400     3724.00000
    21.5531     3708.00000
    21.5662     3782.00000
    21.5794     3766.00000
    21.5925     3844.00000
    21.6056     3892.00000
    21.6188     3902.00000
    21.6319     3811.00000
    21.6450     3785.00000
    21.6582     3803.00000
    21.6713     3876.00000
    21.6844     3845.00000
    21.6975     3894.00000
    21.7107     3887.00000
    21.7238     3987.00000
    21.7369     3903.00000
    21.7501     3960.00000
    21.7632     3971.00000
    21.7763     4102.00000
    21.7895     4137.00000
    21.8026     4120.00000
    21.8157     4243.00000
    21.8288     4130.00000
    21.8420     4151.00000
    21.8551     3984.00000
    21.8682     3902.00000
    21.8814     3872.00000
    21.8945     3815.00000
    21.9076     3820.00000
    21.9208     3777.00000
    21.9339     3977.00000
    21.9470     3880.00000
    21.9602     4032.00000
    21.9733     4183.00000
    21.9864     3916.00000
    21.9995     3859.00000
    22.0127     3853.00000
    22.0258     3884.00000
    22.0389     3884.00000
    22.0521     3779.00000
    22.0652     3903.00000
    22.0783     3877.00000
    22.0915     4005.00000
    22.1046     3881.00000
    22.1177     3937.00000
    22.1308     3973.00000
    22.1440     3882.00000
    22.1571     4014.00000
    22.1702     3920.00000
    22.1834     4052.00000
    22.1965     4124.00000
    22.2096     4303.00000
    22.2228     4354.00000
    22.2359     4638.00000
    22.2490     5224.00000
    22.2621     5735.00000
    22.2753     6779.00000
    22.2884     8543.00000
    22.3015    11425.00000
    22.3147    15370.00000
    22.3278    18008.00000
    22.3409    19412.00000
    22.3541    18513.00000
    22.3672    17034.00000
    22.3803    15854.00000
    22.3935    14610.00000
    22.4066    11853.00000
    22.4197     9536.00000
    22.4328     7595.00000
    22.4460     6386.00000
    22.4591     5251.00000
    22.4722     4648.00000
    22.4854     4269.00000
    22.4985     4094.00000
    22.5116     4197.00000
    22.5248     3936.00000
    22.5379     3903.00000
    22.5510     3864.00000
    22.5641     3851.00000
    22.5773     3827.00000
    22.5904     3975.00000
    22.6035     3818.00000
    22.6167     3850.00000
    22.6298     3813.00000
    22.6429     3788.00000
    22.6561     3699.00000
    22.6692     3711.00000
    22.6823     3676.00000
    22.6954     3844.00000
    22.7086     3616.00000
    22.7217     3627.00000
    22.7348     3762.00000
    22.7480     3930.00000
    22.7611     3912.00000
    22.7742     3765.00000
    22.7874     3804.00000
    22.8005     3873.00000
    22.8136     3858.00000
    22.8268     3865.00000
    22.8399     3829.00000
    22.8530     3889.00000
    22.8661     3844.00000
    22.8793     3780.00000
    22.8924     3664.00000
    22.9055     3789.00000
    22.9187     3695.00000
    22.9318     3746.00000
    22.9449     3754.00000
    22.9581     3725.00000
    22.9712     3691.00000
    22.9843     3664.00000
    22.9974     3615.00000
    23.0106     3538.00000
    23.0237     3745.00000
    23.0368     3743.00000
    23.0500     3544.00000
    23.0631     3649.00000
    23.0762     3560.00000
    23.0894     3584.00000
    23.1025     3539.00000
    23.1156     3588.00000
    23.1287     3549.00000
    23.1419     3504.00000
    23.1550     3568.00000
    23.1681     3648.00000
    23.1813     3667.00000
    23.1944     3722.00000
    23.2075     3666.00000
    23.2207     3679.00000
    23.2338     3641.00000
    23.2469     3625.00000
    23.2601     3673.00000
    23.2732     3655.00000
    23.2863     3676.00000
    23.2994     3743.00000
    23.3126     3667.00000
    23.3257     3829.00000
    23.3388     3695.00000
    23.3520     3684.00000
    23.3651     3763.00000
    23.3782     3827.00000
    23.3914     3689.00000
    23.4045     3809.00000
    23.4176     3759.00000
    23.4307     3748.00000
    23.4439     3731.00000
    23.4570     3811.00000
    23.4701     3686.00000
    23.4833     3827.00000
    23.4964     3791.00000
    23.5095     3796.00000
    23.5227     3706.00000
    23.5358     3802.00000
    23.5489     3831.00000
    23.5620     3839.00000
    23.5752     4020.00000
    23.5883     3947.00000
    23.6014     3879.00000
    23.6146     3919.00000
    23.6277     3893.00000
    23.6408     3855.00000
    23.6540     3926.00000
    23.6671     3844.00000
    23.6802     3885.00000
    23.6933     3931.00000
    23.7065     3885.00000
    23.7196     3999.00000
    23.7327     3987.00000
    23.7459     3920.00000
    23.7590     3945.00000
    23.7721     3906.00000
    23.7853     3893.00000
    23.7984     3915.00000
    23.8115     3882.00000
    23.8247     3959.00000
    23.8378     3951.00000
    23.8509     4009.00000
    23.8640     3947.00000
    23.8772     4032.00000
    23.8903     4146.00000
    23.9034     4187.00000
    23.9166     4313.00000
    23.9297     4301.00000
    23.9428     4245.00000
    23.9560     4405.00000
    23.9691     4570.00000
    23.9822     4470.00000
    23.9953     4525.00000
    24.0085     4542.00000
    24.0216     4618.00000
    24.0347     4911.00000
    24.0479     5047.00000
    24.0610     5326.00000
    24.0741     5553.00000
    24.0873     6120.00000
    24.1004     7565.00000
    24.1135     9312.00000
    24.1266    12862.00000
    24.1398    18534.00000
    24.1529    25949.00000
    24.1660    33911.00000
    24.1792    41007.00000
    24.1923    44854.00000
    24.2054    44783.00000
    24.2186    42674.00000
    24.2317    37641.00000
    24.2448    33489.00000
    24.2580    30526.00000
    24.2711    26563.00000
    24.2842    22948.00000
    24.2973    20759.00000
    24.3105    23436.00000
    24.3236    29786.00000
    24.3367    36727.00000
    24.3499    41343.00000
    24.3630    45976.00000
    24.3761    47298.00000
    24.3893    44875.00000
    24.4024    40767.00000
    24.4155    37142.00000
    24.4286    31977.00000
    24.4418    25745.00000
    24.4549    20094.00000
    24.4680    15700.00000
    24.4812    11958.00000
    24.4943     8761.00000
    24.5074     6707.00000
    24.5206     5652.00000
    24.5337     5064.00000
    24.5468     4729.00000
    24.5599     4727.00000
    24.5731     4396.00000
    24.5862     4267.00000
    24.5993     4246.00000
    24.6125     4132.00000
    24.6256     3956.00000
    24.6387     3993.00000
    24.6519     3995.00000
    24.6650     3815.00000
    24.6781     3838.00000
    24.6913     3866.00000
    24.7044     3800.00000
    24.7175     3825.00000
    24.7306     3781.00000
    24.7438     3733.00000
    24.7569     3814.00000
    24.7700     3869.00000
    24.7832     3745.00000
    24.7963     3787.00000
    24.8094     3621.00000
    24.8226     3642.00000
    24.8357     3655.00000
    24.8488     3764.00000
    24.8619     3687.00000
    24.8751     3675.00000
    24.8882     3748.00000
    24.9013     3797.00000
    24.9145     3681.00000
    24.9276     3800.00000
    24.9407     3984.00000
    24.9539     3837.00000
    24.9670     3967.00000
    24.9801     3880.00000
    24.9932     3773.00000
    25.0064     3809.00000
    25.0195     3737.00000
    25.0326     3652.00000
    25.0458     3706.00000
    25.0589     3689.00000
    25.0720     3557.00000
    25.0852     3602.00000
    25.0983     3669.00000
    25.1114     3685.00000
    25.1246     3555.00000
    25.1377     3633.00000
    25.1508     3636.00000
    25.1639     3625.00000
    25.1771     3612.00000
    25.1902     3584.00000
    25.2033     3590.00000
    25.2165     3637.00000
    25.2296     3690.00000
    25.2427     3535.00000
    25.2559     3638.00000
    25.2690     3501.00000
    25.2821     3624.00000
    25.2952     3528.00000
    25.3084     3604.00000
    25.3215     3653.00000
    25.3346     3596.00000
    25.3478     3630.00000
    25.3609     3684.00000
    25.3740     3621.00000
    25.3872     3502.00000
    25.4003     3554.00000
    25.4134     3600.00000
    25.4265     3571.00000
    25.4397     3691.00000
    25.4528     3756.00000
    25.4659     3603.00000
    25.4791     3596.00000
    25.4922     3502.00000
    25.5053     3610.00000
    25.5185     3517.00000
    25.5316     3521.00000
    25.5447     3496.00000
    25.5579     3527.00000
    25.5710     3466.00000
    25.5841     3488.00000
    25.5972     3487.00000
    25.6104     3479.00000
    25.6235     3483.00000
    25.6366     3648.00000
    25.6498     3477.00000
    25.6629     3481.00000
    25.6760     3409.00000
    25.6892     3516.00000
    25.7023     3395.00000
    25.7154     3517.00000
    25.7285     3520.00000
    25.7417     3477.00000
    25.7548     3615.00000
    25.7679     3543.00000
    25.7811     3491.00000
    25.7942     3488.00000
    25.8073     3474.00000
    25.8205     3425.00000
    25.8336     3537.00000
    25.8467     3447.00000
    25.8598     3424.00000
    25.8730     3532.00000
    25.8861     3463.00000
    25.8992     3494.00000
    25.9124     3438.00000
    25.9255     3502.00000
    25.9386     3400.00000
    25.9518     3439.00000
    25.9649     3608.00000
    25.9780     3559.00000
    25.9911     3470.00000
    26.0043     3522.00000
    26.0174     3570.00000
    26.0305     3422.00000
    26.0437     3450.00000
    26.0568     3593.00000
    26.0699     3565.00000
    26.0831     3470.00000
    26.0962     3552.00000
    26.1093     3775.00000
    26.1225     3804.00000
    26.1356     3972.00000
    26.1487     3784.00000
    26.1618     3662.00000
    26.1750     3647.00000
    26.1881     3712.00000
    26.2012     3582.00000
    26.2144     3637.00000
    26.2275     3652.00000
    26.2406     3654.00000
    26.2538     3679.00000
    26.2669     3650.00000
    26.2800     3564.00000
    26.2931     3487.00000
    26.3063     3506.00000
    26.3194     3564.00000
    26.3325     3468.00000
    26.3457     3646.00000
    26.3588     3609.00000
    26.3719     3411.00000
    26.3851     3376.00000
    26.3982     3421.00000
    26.4113     3526.00000
    26.4244     3519.00000
    26.4376     3526.00000
    26.4507     3505.00000
    26.4638     3567.00000
    26.4770     3517.00000
    26.4901     3464.00000
    26.5032     3440.00000
    26.5164     3531.00000
    26.5295     3389.00000
    26.5426     3199.00000
    26.5558     3457.00000
    26.5689     3439.00000
    26.5820     3465.00000
    26.5951     3436.00000
    26.6083     3380.00000
    26.6214     3376.00000
    26.6345     3509.00000
    26.6477     3489.00000
    26.6608     3375.00000
    26.6739     3478.00000
    26.6871     3473.00000
    26.7002     3643.00000
    26.7133     3444.00000
    26.7264     3454.00000
    26.7396     3500.00000
    26.7527     3591.00000
    26.7658     3686.00000
    26.7790     3688.00000
    26.7921     3649.00000
    26.8052     3632.00000
    26.8184     3630.00000
    26.8315     3582.00000
    26.8446     3679.00000
    26.8577     3593.00000
    26.8709     3533.00000
    26.8840     3714.00000
    26.8971     3685.00000
    26.9103     3659.00000
    26.9234     3622.00000
    26.9365     3652.00000
    26.9497     3587.00000
    26.9628     3691.00000
    26.9759     3619.00000
    26.9891     3629.00000
    27.0022     3575.00000
    27.0153     3556.00000
    27.0284     3706.00000
    27.0416     3691.00000
    27.0547     3658.00000
    27.0678     3658.00000
    27.0810     3657.00000
    27.0941     3682.00000
    27.1072     3653.00000
    27.1204     3604.00000
    27.1335     3642.00000
    27.1466     3548.00000
    27.1597     3547.00000
    27.1729     3720.00000
    27.1860     3602.00000
    27.1991     3666.00000
    27.2123     3677.00000
    27.2254     3725.00000
    27.2385     3756.00000
    27.2517     3762.00000
    27.2648     3775.00000
    27.2779     3754.00000
    27.2910     3670.00000
    27.3042     3740.00000
    27.3173     3678.00000
    27.3304     3671.00000
    27.3436     3837.00000
    27.3567     3721.00000
    27.3698     3825.00000
    27.3830     3973.00000
    27.3961     4004.00000
    27.4092     4317.00000
    27.4224     4211.00000
    27.4355     4337.00000
    27.4486     4475.00000
    27.4617     4671.00000
    27.4749     4796.00000
    27.4880     4840.00000
    27.5011     5112.00000
    27.5143     5489.00000
    27.5274     5825.00000
    27.5405     6278.00000
    27.5537     6655.00000
    27.5668     7524.00000
    27.5799     8516.00000
    27.5930    10152.00000
    27.6062    13073.00000
    27.6193    18053.00000
    27.6324    26893.00000
    27.6456    39746.00000
    27.6587    56947.00000
    27.6718    74280.00000
    27.6850    84376.00000
    27.6981    82798.00000
    27.7112    75509.00000
    27.7243    68678.00000
    27.7375    63915.00000
    27.7506    58999.00000
    27.7637    50911.00000
    27.7769    41471.00000
    27.7900    31786.00000
    27.8031    23705.00000
    27.8163    17266.00000
    27.8294    12462.00000
    27.8425     9223.00000
    27.8556     7338.00000
    27.8688     6451.00000
    27.8819     5886.00000
    27.8950     5404.00000
    27.9082     4969.00000
    27.9213     4750.00000
    27.9344     4561.00000
    27.9476     4298.00000
    27.9607     4068.00000
    27.9738     4103.00000
    27.9870     4004.00000
    28.0001     3942.00000
    28.0132     3949.00000
    28.0263     3786.00000
    28.0395     3746.00000
    28.0526     3770.00000
    28.0657     3774.00000
    28.0789     3725.00000
    28.0920     3615.00000
    28.1051     3635.00000
    28.1183     3589.00000
    28.1314     3638.00000
    28.1445     3572.00000
    28.1576     3605.00000
    28.1708     3692.00000
    28.1839     3597.00000
    28.1970     3826.00000
    28.2102     3823.00000
    28.2233     3930.00000
    28.2364     4036.00000
    28.2496     3880.00000
    28.2627     3749.00000
    28.2758     3835.00000
    28.2889     3902.00000
    28.3021     3838.00000
    28.3152     3770.00000
    28.3283     3760.00000
    28.3415     3650.00000
    28.3546     3636.00000
    28.3677     3696.00000
    28.3809     3690.00000
    28.3940     3613.00000
    28.4071     3651.00000
    28.4203     3681.00000
    28.4334     3645.00000
    28.4465     3655.00000
    28.4596     3535.00000
    28.4728     3605.00000
    28.4859     3561.00000
    28.4990     3529.00000
    28.5122     3677.00000
    28.5253     3601.00000
    28.5384     3564.00000
    28.5516     3533.00000
    28.5647     3555.00000
    28.5778     3590.00000
    28.5909     3483.00000
    28.6041     3533.00000
    28.6172     3590.00000
    28.6303     3525.00000
    28.6435     3429.00000
    28.6566     3514.00000
    28.6697     3526.00000
    28.6829     3416.00000
    28.6960     3489.00000
    28.7091     3539.00000
    28.7222     3609.00000
    28.7354     3410.00000
    28.7485     3521.00000
    28.7616     3482.00000
    28.7748     3461.00000
    28.7879     3588.00000
    28.8010     3585.00000
    28.8142     3530.00000
    28.8273     3649.00000
    28.8404     3557.00000
    28.8536     3484.00000
    28.8667     3634.00000
    28.8798     3619.00000
    28.8929     3543.00000
    28.9061     3694.00000
    28.9192     3627.00000
    28.9323     3612.00000
    28.9455     3776.00000
    28.9586     3600.00000
    28.9717     3697.00000
    28.9849     3815.00000
    28.9980     3827.00000
    29.0111     3899.00000
    29.0242     3929.00000
    29.0374     3961.00000
    29.0505     4143.00000
    29.0636     4238.00000
    29.0768     4279.00000
    29.0899     4540.00000
    29.1030     4661.00000
    29.1162     4901.00000
    29.1293     5364.00000
    29.1424     6286.00000
    29.1555     7854.00000
    29.1687    10380.00000
    29.1818    15271.00000
    29.1949    21583.00000
    29.2081    28078.00000
    29.2212    31663.00000
    29.2343    33198.00000
    29.2475    30124.00000
    29.2606    26329.00000
    29.2737    25283.00000
    29.2869    24926.00000
    29.3000    24073.00000
    29.3131    22837.00000
    29.3262    21582.00000
    29.3394    20622.00000
    29.3525    21158.00000
    29.3656    21595.00000
    29.3788    21517.00000
    29.3919    20204.00000
    29.4050    17867.00000
    29.4182    16078.00000
    29.4313    14533.00000
    29.4444    13243.00000
    29.4575    12198.00000
    29.4707    10598.00000
    29.4838     8784.00000
    29.4969     7022.00000
    29.5101     5920.00000
    29.5232     4889.00000
    29.5363     4399.00000
    29.5495     4021.00000
    29.5626     3866.00000
    29.5757     3779.00000
    29.5888     3682.00000
    29.6020     3688.00000
    29.6151     3516.00000
    29.6282     3451.00000
    29.6414     3552.00000
    29.6545     3453.00000
    29.6676     3437.00000
    29.6808     3481.00000
    29.6939     3393.00000
    29.7070     3376.00000
    29.7201     3450.00000
    29.7333     3365.00000
    29.7464     3493.00000
    29.7595     3413.00000
    29.7727     3418.00000
    29.7858     3230.00000
    29.7989     3285.00000
    29.8121     3395.00000
    29.8252     3311.00000
    29.8383     3348.00000
    29.8515     3386.00000
    29.8646     3353.00000
    29.8777     3317.00000
    29.8908     3418.00000
    29.9040     3249.00000
    29.9171     3325.00000
    29.9302     3331.00000
    29.9434     3382.00000
    29.9565     3501.00000
    29.9696     3404.00000
    29.9828     3427.00000
    29.9959     3373.00000
    30.0090     3312.00000
    30.0221     3375.00000
    30.0353     3412.00000
    30.0484     3295.00000
    30.0615     3218.00000
    30.0747     3214.00000
    30.0878     3264.00000
    30.1009     3367.00000
    30.1141     3230.00000
    30.1272     3204.00000
    30.1403     3285.00000
    30.1535     3262.00000
    30.1666     3217.00000
    30.1797     3174.00000
    30.1928     3289.00000
    30.2060     3331.00000
    30.2191     3371.00000
    30.2322     3347.00000
    30.2454     3329.00000
    30.2585     3310.00000
    30.2716     3301.00000
    30.2848     3361.00000
    30.2979     3353.00000
    30.3110     3318.00000
    30.3241     3403.00000
    30.3373     3180.00000
    30.3504     3341.00000
    30.3635     3284.00000
    30.3767     3180.00000
    30.3898     3203.00000
    30.4029     3256.00000
    30.4161     3195.00000
    30.4292     3282.00000
    30.4423     3225.00000
    30.4554     3281.00000
    30.4686     3242.00000
    30.4817     3270.00000
    30.4948     3304.00000
    30.5080     3213.00000
    30.5211     3233.00000
    30.5342     3149.00000
    30.5474     3166.00000
    30.5605     3197.00000
    30.5736     3110.00000
    30.5868     3176.00000
    30.5999     3189.00000
    30.6130     3284.00000
    30.6261     3170.00000
    30.6393     3161.00000
    30.6524     3151.00000
    30.6655     3119.00000
    30.6787     3175.00000
    30.6918     3235.00000
    30.7049     3269.00000
    30.7181     3111.00000
    30.7312     3193.00000
    30.7443     3158.00000
    30.7574     3111.00000
    30.7706     3248.00000
    30.7837     3171.00000
    30.7968     3141.00000
    30.8100     3269.00000
    30.8231     3223.00000
    30.8362     3254.00000
    30.8494     3139.00000
    30.8625     3075.00000
    30.8756     3095.00000
    30.8887     3188.00000
    30.9019     3102.00000
    30.9150     3226.00000
    30.9281     3186.00000
    30.9413     3117.00000
    30.9544     3171.00000
    30.9675     3070.00000
    30.9807     3247.00000
    30.9938     3153.00000
    31.0069     3162.00000
    31.0200     3242.00000
    31.0332     3223.00000
    31.0463     3214.00000
    31.0594     3178.00000
    31.0726     3197.00000
    31.0857     3184.00000
    31.0988     3159.00000
    31.1120     3149.00000
    31.1251     3196.00000
    31.1382     3060.00000
    31.1514     3193.00000
    31.1645     3193.00000
    31.1776     3285.00000
    31.1907     3226.00000
    31.2039     3170.00000
    31.2170     3187.00000
    31.2301     3107.00000
    31.2433     3199.00000
    31.2564     3115.00000
    31.2695     3127.00000
    31.2827     3068.00000
    31.2958     3137.00000
    31.3089     3162.00000
    31.3220     3181.00000
    31.3352     3094.00000
    31.3483     3094.00000
    31.3614     3074.00000
    31.3746     3066.00000
    31.3877     3187.00000
    31.4008     3106.00000
    31.4140     3134.00000
    31.4271     3112.00000
    31.4402     3032.00000
    31.4533     3019.00000
    31.4665     3198.00000
    31.4796     3187.00000
    31.4927     3181.00000
    31.5059     3168.00000
    31.5190     3164.00000
    31.5321     3154.00000
    31.5453     3150.00000
    31.5584     3210.00000
    31.5715     3210.00000
    31.5847     3170.00000
    31.5978     3156.00000
    31.6109     3130.00000
    31.6240     3221.00000
    31.6372     3231.00000
    31.6503     3246.00000
    31.6634     3121.00000
    31.6766     3159.00000
    31.6897     3074.00000
    31.7028     3085.00000
    31.7160     3219.00000
    31.7291     3072.00000
    31.7422     3006.00000
    31.7553     3070.00000
    31.7685     3086.00000
    31.7816     3165.00000
    31.7947     3131.00000
    31.8079     3175.00000
    31.8210     3125.00000
    31.8341     3150.00000
    31.8473     3107.00000
    31.8604     3035.00000
    31.8735     3030.00000
    31.8866     3179.00000
    31.8998     3131.00000
    31.9129     3064.00000
    31.9260     3075.00000
    31.9392     3161.00000
    31.9523     3116.00000
    31.9654     3124.00000
    31.9786     3130.00000
    31.9917     3168.00000
    32.0048     3171.00000
    32.0180     3071.00000
    32.0311     3177.00000
    32.0442     3101.00000
    32.0573     3134.00000
    32.0705     3134.00000
    32.0836     3146.00000
    32.0967     3222.00000
    32.1099     3160.00000
    32.1230     3244.00000
    32.1361     3145.00000
    32.1493     3087.00000
    32.1624     3248.00000
    32.1755     3208.00000
    32.1886     3212.00000
    32.2018     3252.00000
    32.2149     3251.00000
    32.2280     3233.00000
    32.2412     3248.00000
    32.2543     3106.00000
    32.2674     3131.00000
    32.2806     3094.00000
    32.2937     3205.00000
    32.3068     3209.00000
    32.3199     3300.00000
    32.3331     3311.00000
    32.3462     3349.00000
    32.3593     3262.00000
    32.3725     3390.00000
    32.3856     3252.00000
    32.3987     3337.00000
    32.4119     3287.00000
    32.4250     3365.00000
    32.4381     3444.00000
    32.4512     3637.00000
    32.4644     3636.00000
    32.4775     3683.00000
    32.4906     3614.00000
    32.5038     3754.00000
    32.5169     3805.00000
    32.5300     3900.00000
    32.5432     4176.00000
    32.5563     4734.00000
    32.5694     5623.00000
    32.5826     7570.00000
    32.5957    11010.00000
    32.6088    15619.00000
    32.6219    20081.00000
    32.6351    20879.00000
    32.6482    18646.00000
    32.6613    15153.00000
    32.6745    12792.00000
    32.6876    12614.00000
    32.7007    13191.00000
    32.7139    13233.00000
    32.7270    11864.00000
    32.7401     9986.00000
    32.7532     7971.00000
    32.7664     6216.00000
    32.7795     5269.00000
    32.7926     4468.00000
    32.8058     4235.00000
    32.8189     3935.00000
    32.8320     3714.00000
    32.8452     3689.00000
    32.8583     3589.00000
    32.8714     3560.00000
    32.8845     3447.00000
    32.8977     3562.00000
    32.9108     3555.00000
    32.9239     3439.00000
    32.9371     3571.00000
    32.9502     3600.00000
    32.9633     3539.00000
    32.9765     3515.00000
    32.9896     3651.00000
    33.0027     3791.00000
    33.0159     3806.00000
    33.0290     3945.00000
    33.0421     4003.00000
    33.0552     4082.00000
    33.0684     4117.00000
    33.0815     4257.00000
    33.0946     4491.00000
    33.1078     4405.00000
    33.1209     4766.00000
    33.1340     5168.00000
    33.1472     5778.00000
    33.1603     7252.00000
    33.1734     9467.00000
    33.1865    13584.00000
    33.1997    19673.00000
    33.2128    27000.00000
    33.2259    33047.00000
    33.2391    35164.00000
    33.2522    32976.00000
    33.2653    29370.00000
    33.2785    24478.00000
    33.2916    22431.00000
    33.3047    21680.00000
    33.3178    21792.00000
    33.3310    20127.00000
    33.3441    17235.00000
    33.3572    13768.00000
    33.3704    10574.00000
    33.3835     7982.00000
    33.3966     6447.00000
    33.4098     5687.00000
    33.4229     5253.00000
    33.4360     4840.00000
    33.4492     4922.00000
    33.4623     4969.00000
    33.4754     4825.00000
    33.4885     5001.00000
    33.5017     5264.00000
    33.5148     5466.00000
    33.5279     6122.00000
    33.5411     7043.00000
    33.5542     8795.00000
    33.5673    11381.00000
    33.5805    15236.00000
    33.5936    20007.00000
    33.6067    24685.00000
    33.6198    28526.00000
    33.6330    30346.00000
    33.6461    29935.00000
    33.6592    27459.00000
    33.6724    24493.00000
    33.6855    21790.00000
    33.6986    20374.00000
    33.7118    20170.00000
    33.7249    19143.00000
    33.7380    19017.00000
    33.7511    18598.00000
    33.7643    19101.00000
    33.7774    19578.00000
    33.7905    19021.00000
    33.8037    16247.00000
    33.8168    13373.00000
    33.8299    11218.00000
    33.8431    10488.00000
    33.8562    10582.00000
    33.8693    10882.00000
    33.8825    10103.00000
    33.8956     8576.00000
    33.9087     6967.00000
    33.9218     5837.00000
    33.9350     4859.00000
    33.9481     4223.00000
    33.9612     3938.00000
    33.9744     3796.00000
    33.9875     3663.00000
    34.0006     3573.00000
    34.0138     3560.00000
    34.0269     3446.00000
    34.0400     3341.00000
    34.0531     3295.00000
    34.0663     3329.00000
    34.0794     3298.00000
    34.0925     3162.00000
    34.1057     3330.00000
    34.1188     3284.00000
    34.1319     3238.00000
    34.1451     3142.00000
    34.1582     3182.00000
    34.1713     3316.00000
    34.1844     3219.00000
    34.1976     3232.00000
    34.2107     3268.00000
    34.2238     3144.00000
    34.2370     3276.00000
    34.2501     3236.00000
    34.2632     3219.00000
    34.2764     3100.00000
    34.2895     3255.00000
    34.3026     3248.00000
    34.3158     3288.00000
    34.3289     3229.00000
    34.3420     3331.00000
    34.3551     3383.00000
    34.3683     3258.00000
    34.3814     3334.00000
    34.3945     3341.00000
    34.4077     3364.00000
    34.4208     3431.00000
    34.4339     3524.00000
    34.4471     3468.00000
    34.4602     3696.00000
    34.4733     3731.00000
    34.4864     3818.00000
    34.4996     4334.00000
    34.5127     4920.00000
    34.5258     6400.00000
    34.5390     8401.00000
    34.5521    11257.00000
    34.5652    13677.00000
    34.5784    14516.00000
    34.5915    13425.00000
    34.6046    11442.00000
    34.6177     9662.00000
    34.6309     9113.00000
    34.6440     9033.00000
    34.6571     9403.00000
    34.6703     9094.00000
    34.6834     7928.00000
    34.6965     6758.00000
    34.7097     5581.00000
    34.7228     4780.00000
    34.7359     4041.00000
    34.7491     3830.00000
    34.7622     3591.00000
    34.7753     3505.00000
    34.7884     3364.00000
    34.8016     3273.00000
    34.8147     3171.00000
    34.8278     3134.00000
    34.8410     3228.00000
    34.8541     3260.00000
    34.8672     3465.00000
    34.8804     3551.00000
    34.8935     3572.00000
    34.9066     3547.00000
    34.9197     3411.00000
    34.9329     3369.00000
    34.9460     3302.00000
    34.9591     3352.00000
    34.9723     3272.00000
    34.9854     3277.00000
    34.9985     3228.00000
    35.0117     3304.00000
    35.0248     3172.00000
    35.0379     3093.00000
    35.0510     3033.00000
    35.0642     3046.00000
    35.0773     3058.00000
    35.0904     2991.00000
    35.1036     3000.00000
    35.1167     2938.00000
    35.1298     2964.00000
    35.1430     2967.00000
    35.1561     3072.00000
    35.1692     3021.00000
    35.1824     3024.00000
    35.1955     3038.00000
    35.2086     2962.00000
    35.2217     2924.00000
    35.2349     2971.00000
    35.2480     3035.00000
    35.2611     2929.00000
    35.2743     2928.00000
    35.2874     2947.00000
    35.3005     3036.00000
    35.3137     2911.00000
    35.3268     2980.00000
    35.3399     2946.00000
    35.3530     2964.00000
    35.3662     2957.00000
    35.3793     3061.00000
    35.3924     2951.00000
    35.4056     2994.00000
    35.4187     3041.00000
    35.4318     2994.00000
    35.4450     3055.00000
    35.4581     3071.00000
    35.4712     3005.00000
    35.4843     2857.00000
    35.4975     2959.00000
    35.5106     3021.00000
    35.5237     2871.00000
    35.5369     2920.00000
    35.5500     2964.00000
    35.5631     2954.00000
    35.5763     2875.00000
    35.5894     3017.00000
    35.6025     2870.00000
    35.6156     3054.00000
    35.6288     2950.00000
    35.6419     2940.00000
    35.6550     3043.00000
    35.6682     2994.00000
    35.6813     2947.00000
    35.6944     2927.00000
    35.7076     2872.00000
    35.7207     2906.00000
    35.7338     3040.00000
    35.7470     2902.00000
    35.7601     2945.00000
    35.7732     2818.00000
    35.7863     2985.00000
    35.7995     2936.00000
    35.8126     2975.00000
    35.8257     2946.00000
    35.8389     2886.00000
    35.8520     2924.00000
    35.8651     2902.00000
    35.8783     3021.00000
    35.8914     2876.00000
    35.9045     2983.00000
    35.9176     3087.00000
    35.9308     3062.00000
    35.9439     2885.00000
    35.9570     2846.00000
    35.9702     2926.00000
    35.9833     3066.00000
    35.9964     2933.00000
    36.0096     2996.00000
    36.0227     2977.00000
    36.0358     2968.00000
    36.0489     2898.00000
    36.0621     2990.00000
    36.0752     2928.00000
    36.0883     3039.00000
    36.1015     2934.00000
    36.1146     2952.00000
    36.1277     2827.00000
    36.1409     2940.00000
    36.1540     2956.00000
    36.1671     2882.00000
    36.1802     2880.00000
    36.1934     2923.00000
    36.2065     2832.00000
    36.2196     2961.00000
    36.2328     2983.00000
    36.2459     2922.00000
    36.2590     2971.00000
    36.2722     2977.00000
    36.2853     2988.00000
    36.2984     2988.00000
    36.3116     2925.00000
    36.3247     2999.00000
    36.3378     2971.00000
    36.3509     2922.00000
    36.3641     2903.00000
    36.3772     2952.00000
    36.3903     2908.00000
    36.4035     2871.00000
    36.4166     2978.00000
    36.4297     2857.00000
    36.4429     3049.00000
    36.4560     3029.00000
    36.4691     3135.00000
    36.4822     3028.00000
    36.4954     3050.00000
    36.5085     3179.00000
    36.5216     3210.00000
    36.5348     3115.00000
    36.5479     3177.00000
    36.5610     3182.00000
    36.5742     3341.00000
    36.5873     3515.00000
    36.6004     3790.00000
    36.6135     4197.00000
    36.6267     5177.00000
    36.6398     6496.00000
    36.6529     8338.00000
    36.6661     9263.00000
    36.6792     9681.00000
    36.6923     8523.00000
    36.7055     7072.00000
    36.7186     6275.00000
    36.7317     5833.00000
    36.7449     6129.00000
    36.7580     6227.00000
    36.7711     6309.00000
    36.7842     6008.00000
    36.7974     5200.00000
    36.8105     4309.00000
    36.8236     3890.00000
    36.8368     3421.00000
    36.8499     3261.00000
    36.8630     3183.00000
    36.8762     3078.00000
    36.8893     3056.00000
    36.9024     3038.00000
    36.9155     3098.00000
    36.9287     3053.00000
    36.9418     3000.00000
    36.9549     3121.00000
    36.9681     3082.00000
    36.9812     3015.00000
    36.9943     3036.00000
    37.0075     2975.00000
    37.0206     3070.00000
    37.0337     3066.00000
    37.0468     3182.00000
    37.0600     3184.00000
    37.0731     3115.00000
    37.0862     3300.00000
    37.0994     3180.00000
    37.1125     3256.00000
    37.1256     3153.00000
    37.1388     3108.00000
    37.1519     3250.00000
    37.1650     3435.00000
    37.1782     3714.00000
    37.1913     4059.00000
    37.2044     4644.00000
    37.2175     5667.00000
    37.2307     7161.00000
    37.2438     8282.00000
    37.2569     9470.00000
    37.2701    10097.00000
    37.2832     9872.00000
    37.2963     8813.00000
    37.3095     8019.00000
    37.3226     7323.00000
    37.3357     6945.00000
    37.3488     6819.00000
    37.3620     6698.00000
    37.3751     6504.00000
    37.3882     6003.00000
    37.4014     5276.00000
    37.4145     4576.00000
    37.4276     3962.00000
    37.4408     3525.00000
    37.4539     3292.00000
    37.4670     3264.00000
    37.4801     3171.00000
    37.4933     3177.00000
    37.5064     3157.00000
    37.5195     3217.00000
    37.5327     3364.00000
    37.5458     3436.00000
    37.5589     3647.00000
    37.5721     3559.00000
    37.5852     3696.00000
    37.5983     3378.00000
    37.6115     3329.00000
    37.6246     3246.00000
    37.6377     3397.00000
    37.6508     3395.00000
    37.6640     3291.00000
    37.6771     3408.00000
    37.6902     3237.00000
    37.7034     3194.00000
    37.7165     2962.00000
    37.7296     2979.00000
    37.7428     2945.00000
    37.7559     2841.00000
    37.7690     2941.00000
    37.7821     2920.00000
    37.7953     2781.00000
    37.8084     2831.00000
    37.8215     2832.00000
    37.8347     2846.00000
    37.8478     2864.00000
    37.8609     2864.00000
    37.8741     2854.00000
    37.8872     2851.00000
    37.9003     2753.00000
    37.9134     2779.00000
    37.9266     2672.00000
    37.9397     2722.00000
    37.9528     2809.00000
    37.9660     2781.00000
    37.9791     2715.00000
    37.9922     2784.00000
    38.0054     2824.00000
    38.0185     2624.00000
    38.0316     2769.00000
    38.0448     2762.00000
    38.0579     2707.00000
    38.0710     2767.00000
    38.0841     2842.00000
    38.0973     2740.00000
    38.1104     2775.00000
    38.1235     2719.00000
    38.1367     2839.00000
    38.1498     2807.00000
    38.1629     2809.00000
    38.1761     2735.00000
    38.1892     2696.00000
    38.2023     2704.00000
    38.2154     2773.00000
    38.2286     2754.00000
    38.2417     2759.00000
    38.2548     2754.00000
    38.2680     2726.00000
    38.2811     2794.00000
    38.2942     2753.00000
    38.3074     2760.00000
    38.3205     2755.00000
    38.3336     2819.00000
    38.3467     2742.00000
    38.3599     2754.00000
    38.3730     2803.00000
    38.3861     2751.00000
    38.3993     2822.00000
    38.4124     2808.00000
    38.4255     2816.00000
    38.4387     2812.00000
    38.4518     2756.00000
    38.4649     2716.00000
    38.4781     2711.00000
    38.4912     2766.00000
    38.5043     2761.00000
    38.5174     2664.00000
    38.5306     2720.00000
    38.5437     2725.00000
    38.5568     2861.00000
    38.5700     2831.00000
    38.5831     2719.00000
    38.5962     2817.00000
    38.6094     2776.00000
    38.6225     2682.00000
    38.6356     2813.00000
    38.6487     2735.00000
    38.6619     2778.00000
    38.6750     2821.00000
    38.6881     2729.00000
    38.7013     2815.00000
    38.7144     2717.00000
    38.7275     2704.00000
    38.7407     2834.00000
    38.7538     2789.00000
    38.7669     2739.00000
    38.7800     2769.00000
    38.7932     2733.00000
    38.8063     2768.00000
    38.8194     2795.00000
    38.8326     2788.00000
    38.8457     2798.00000
    38.8588     2770.00000
    38.8720     2771.00000
    38.8851     2784.00000
    38.8982     2776.00000
    38.9114     2802.00000
    38.9245     2758.00000
    38.9376     2671.00000
    38.9507     2682.00000
    38.9639     2836.00000
    38.9770     2816.00000
    38.9901     2797.00000
    39.0033     2774.00000
    39.0164     2756.00000
    39.0295     2715.00000
    39.0427     2721.00000
    39.0558     2820.00000
    39.0689     2769.00000
    39.0820     2808.00000
    39.0952     2788.00000
    39.1083     2768.00000
    39.1214     2631.00000
    39.1346     2725.00000
    39.1477     2699.00000
    39.1608     2787.00000
    39.1740     2756.00000
    39.1871     2750.00000
    39.2002     2812.00000
    39.2133     2787.00000
    39.2265     2707.00000
    39.2396     2703.00000
    39.2527     2717.00000
    39.2659     2737.00000
    39.2790     2794.00000
    39.2921     2735.00000
    39.3053     2770.00000
    39.3184     2793.00000
    39.3315     2835.00000
    39.3446     2730.00000
    39.3578     2631.00000
    39.3709     2730.00000
    39.3840     2775.00000
    39.3972     2685.00000
    39.4103     2833.00000
    39.4234     2747.00000
    39.4366     2787.00000
    39.4497     2851.00000
    39.4628     2713.00000
    39.4760     2804.00000
    39.4891     2830.00000
    39.5022     2848.00000
    39.5153     2968.00000
    39.5285     3029.00000
    39.5416     3139.00000
    39.5547     3331.00000
    39.5679     3740.00000
    39.5810     4063.00000
    39.5941     4357.00000
    39.6073     4794.00000
    39.6204     4705.00000
    39.6335     4719.00000
    39.6466     4425.00000
    39.6598     4128.00000
    39.6729     3983.00000
    39.6860     3893.00000
    39.6992     4036.00000
    39.7123     3957.00000
    39.7254     3918.00000
    39.7386     3900.00000
    39.7517     3647.00000
    39.7648     3565.00000
    39.7779     3453.00000
    39.7911     3279.00000
    39.8042     3297.00000
    39.8173     3404.00000
    39.8305     3579.00000
    39.8436     3836.00000
    39.8567     4453.00000
    39.8699     5271.00000
    39.8830     6593.00000
    39.8961     7549.00000
    39.9092     8036.00000
    39.9224     7436.00000
    39.9355     6766.00000
    39.9486     5859.00000
    39.9618     5223.00000
    39.9749     4963.00000
    39.9880     5334.00000
    40.0012     5756.00000
    40.0143     5565.00000
    40.0274     5190.00000
    40.0406     4764.00000
    40.0537     4242.00000
    40.0668     3839.00000
    40.0799     3561.00000
    40.0931     3264.00000
    40.1062     3336.00000
    40.1193     3266.00000
    40.1325     3205.00000
    40.1456     3296.00000
    40.1587     3159.00000
    40.1719     3170.00000
    40.1850     3168.00000
    40.1981     3269.00000
    40.2112     3440.00000
    40.2244     3696.00000
    40.2375     3972.00000
    40.2506     4774.00000
    40.2638     5890.00000
    40.2769     7413.00000
    40.2900     9278.00000
    40.3032    10344.00000
    40.3163    10129.00000
    40.3294     8854.00000
    40.3425     7287.00000
    40.3557     6091.00000
    40.3688     5826.00000
    40.3819     5980.00000
    40.3951     6556.00000
    40.4082     6889.00000
    40.4213     6547.00000
    40.4345     5995.00000
    40.4476     4949.00000
    40.4607     4343.00000
    40.4739     3762.00000
    40.4870     3548.00000
    40.5001     3250.00000
    40.5132     3128.00000
    40.5264     3170.00000
    40.5395     3042.00000
    40.5526     3009.00000
    40.5658     3110.00000
    40.5789     2936.00000
    40.5920     2951.00000
    40.6052     3002.00000
    40.6183     3092.00000
    40.6314     2958.00000
    40.6445     3180.00000
    40.6577     3001.00000
    40.6708     3075.00000
    40.6839     3214.00000
    40.6971     3122.00000
    40.7102     3155.00000
    40.7233     3222.00000
    40.7365     3415.00000
    40.7496     3588.00000
    40.7627     3876.00000
    40.7758     4284.00000
    40.7890     4752.00000
    40.8021     5652.00000
    40.8152     6750.00000
    40.8284     8464.00000
    40.8415     9849.00000
    40.8546    11258.00000
    40.8678    11287.00000
    40.8809    10696.00000
    40.8940     9316.00000
    40.9072     7959.00000
    40.9203     7388.00000
    40.9334     7375.00000
    40.9465     8109.00000
    40.9597     8502.00000
    40.9728     9144.00000
    40.9859     9639.00000
    40.9991    10563.00000
    41.0122    11986.00000
    41.0253    12984.00000
    41.0385    13340.00000
    41.0516    12681.00000
    41.0647    11429.00000
    41.0778    10466.00000
    41.0910    10159.00000
    41.1041    10838.00000
    41.1172    12883.00000
    41.1304    15157.00000
    41.1435    16775.00000
    41.1566    16361.00000
    41.1698    14417.00000
    41.1829    11841.00000
    41.1960     9185.00000
    41.2091     8015.00000
    41.2223     7602.00000
    41.2354     7602.00000
    41.2485     7852.00000
    41.2617     7721.00000
    41.2748     7041.00000
    41.2879     6224.00000
    41.3011     5072.00000
    41.3142     4304.00000
    41.3273     3845.00000
    41.3405     3421.00000
    41.3536     3353.00000
    41.3667     3260.00000
    41.3798     3024.00000
    41.3930     3045.00000
    41.4061     3050.00000
    41.4192     2853.00000
    41.4324     2902.00000
    41.4455     2849.00000
    41.4586     2858.00000
    41.4718     2827.00000
    41.4849     2872.00000
    41.4980     2710.00000
    41.5111     2775.00000
    41.5243     2778.00000
    41.5374     2915.00000
    41.5505     2732.00000
    41.5637     2779.00000
    41.5768     2729.00000
    41.5899     2871.00000
    41.6031     2791.00000
    41.6162     2790.00000
    41.6293     2783.00000
    41.6424     2784.00000
    41.6556     2802.00000
    41.6687     2754.00000
    41.6818     2700.00000
    41.6950     2764.00000
    41.7081     2687.00000
    41.7212     2747.00000
    41.7344     2771.00000
    41.7475     2684.00000
    41.7606     2757.00000
    41.7738     2690.00000
    41.7869     2665.00000
    41.8000     2701.00000
    41.8131     2781.00000
    41.8263     2710.00000
    41.8394     2807.00000
    41.8525     2696.00000
    41.8657     2564.00000
    41.8788     2736.00000
    41.8919     2729.00000
    41.9051     2712.00000
    41.9182     2698.00000
    41.9313     2687.00000
    41.9444     2709.00000
    41.9576     2811.00000
    41.9707     2756.00000
    41.9838     2738.00000
    41.9970     2812.00000
    42.0101     2753.00000
    42.0232     2660.00000
    42.0364     2691.00000
    42.0495     2629.00000
    42.0626     2642.00000
    42.0757     2787.00000
    42.0889     2717.00000
    42.1020     2585.00000
    42.1151     2724.00000
    42.1283     2761.00000
    42.1414     2633.00000
    42.1545     2702.00000
    42.1677     2788.00000
    42.1808     2761.00000
    42.1939     2636.00000
    42.2071     2654.00000
    42.2202     2741.00000
    42.2333     2689.00000
    42.2464     2639.00000
    42.2596     2716.00000
    42.2727     2696.00000
    42.2858     2757.00000
    42.2990     2703.00000
    42.3121     2621.00000
    42.3252     2742.00000
    42.3384     2768.00000
    42.3515     2634.00000
    42.3646     2722.00000
    42.3777     2699.00000
    42.3909     2761.00000
    42.4040     2743.00000
    42.4171     2639.00000
    42.4303     2718.00000
    42.4434     2633.00000
    42.4565     2665.00000
    42.4697     2709.00000
    42.4828     2661.00000
    42.4959     2699.00000
    42.5090     2665.00000
    42.5222     2691.00000
    42.5353     2651.00000
    42.5484     2581.00000
    42.5616     2725.00000
    42.5747     2727.00000
    42.5878     2749.00000
    42.6010     2686.00000
    42.6141     2668.00000
    42.6272     2689.00000
    42.6404     2539.00000
    42.6535     2650.00000
    42.6666     2640.00000
    42.6797     2695.00000
    42.6929     2574.00000
    42.7060     2672.00000
    42.7191     2775.00000
    42.7323     2685.00000
    42.7454     2717.00000
    42.7585     2650.00000
    42.7717     2743.00000
    42.7848     2742.00000
    42.7979     2669.00000
    42.8110     2730.00000
    42.8242     2752.00000
    42.8373     2777.00000
    42.8504     2621.00000
    42.8636     2811.00000
    42.8767     2742.00000
    42.8898     2691.00000
    42.9030     2608.00000
    42.9161     2779.00000
    42.9292     2791.00000
    42.9423     2731.00000
    42.9555     2658.00000
    42.9686     2677.00000
    42.9817     2679.00000
    42.9949     2640.00000
    43.0080     2693.00000
    43.0211     2655.00000
    43.0343     2712.00000
    43.0474     2626.00000
    43.0605     2666.00000
    43.0736     2694.00000
    43.0868     2677.00000
    43.0999     2675.00000
    43.1130     2745.00000
    43.1262     2721.00000
    43.1393     2602.00000
    43.1524     2672.00000
    43.1656     2666.00000
    43.1787     2822.00000
    43.1918     2711.00000
    43.2050     2667.00000
    43.2181     2720.00000
    43.2312     2739.00000
    43.2443     2856.00000
    43.2575     2849.00000
    43.2706     2966.00000
    43.2837     3112.00000
    43.2969     3321.00000
    43.3100     3219.00000
    43.3231     3385.00000
    43.3363     3277.00000
    43.3494     3139.00000
    43.3625     2985.00000
    43.3756     3041.00000
    43.3888     3057.00000
    43.4019     3002.00000
    43.4150     2984.00000
    43.4282     3139.00000
    43.4413     3022.00000
    43.4544     2981.00000
    43.4676     2859.00000
    43.4807     2869.00000
    43.4938     2705.00000
    43.5069     2694.00000
    43.5201     2674.00000
    43.5332     2700.00000
    43.5463     2690.00000
    43.5595     2734.00000
    43.5726     2780.00000
    43.5857     2698.00000
    43.5989     2703.00000
    43.6120     2631.00000
    43.6251     2712.00000
    43.6383     2636.00000
    43.6514     2619.00000
    43.6645     2603.00000
    43.6776     2622.00000
    43.6908     2642.00000
    43.7039     2598.00000
    43.7170     2701.00000
    43.7302     2676.00000
    43.7433     2735.00000
    43.7564     2681.00000
    43.7696     2700.00000
    43.7827     2703.00000
    43.7958     2721.00000
    43.8089     2676.00000
    43.8221     2743.00000
    43.8352     2689.00000
    43.8483     2723.00000
    43.8615     2623.00000
    43.8746     2698.00000
    43.8877     2670.00000
    43.9009     2734.00000
    43.9140     2734.00000
    43.9271     2765.00000
    43.9402     2778.00000
    43.9534     2793.00000
    43.9665     2610.00000
    43.9796     2692.00000
    43.9928     2779.00000
    44.0059     2752.00000
    44.0190     2807.00000
    44.0322     2757.00000
    44.0453     3028.00000
    44.0584     3156.00000
    44.0715     3456.00000
    44.0847     3776.00000
    44.0978     3916.00000
    44.1109     4163.00000
    44.1241     4089.00000
    44.1372     3950.00000
    44.1503     3587.00000
    44.1635     3409.00000
    44.1766     3230.00000
    44.1897     3238.00000
    44.2029     3330.00000
    44.2160     3438.00000
    44.2291     3496.00000
    44.2422     3453.00000
    44.2554     3450.00000
    44.2685     3229.00000
    44.2816     3196.00000
    44.2948     3090.00000
    44.3079     3077.00000
    44.3210     3130.00000
    44.3342     3123.00000
    44.3473     3420.00000
    44.3604     3654.00000
    44.3735     4040.00000
    44.3867     4617.00000
    44.3998     5021.00000
    44.4129     5437.00000
    44.4261     5591.00000
    44.4392     5451.00000
    44.4523     4987.00000
    44.4655     4502.00000
    44.4786     4187.00000
    44.4917     4126.00000
    44.5048     4113.00000
    44.5180     4060.00000
    44.5311     4241.00000
    44.5442     4075.00000
    44.5574     3932.00000
    44.5705     3729.00000
    44.5836     3457.00000
    44.5968     3303.00000
    44.6099     3120.00000
    44.6230     2976.00000
    44.6362     2850.00000
    44.6493     2889.00000
    44.6624     2737.00000
    44.6755     2673.00000
    44.6887     2788.00000
    44.7018     2642.00000
    44.7149     2686.00000
    44.7281     2669.00000
    44.7412     2736.00000
    44.7543     2655.00000
    44.7675     2723.00000
    44.7806     2788.00000
    44.7937     2732.00000
    44.8068     2831.00000
    44.8200     2737.00000
    44.8331     2700.00000
    44.8462     2655.00000
    44.8594     2740.00000
    44.8725     2715.00000
    44.8856     2685.00000
    44.8988     2704.00000
    44.9119     2667.00000
    44.9250     2616.00000
    44.9381     2662.00000
    44.9513     2618.00000
    44.9644     2788.00000
    44.9775     2741.00000
    44.9907     2662.00000
    45.0038     2641.00000
    45.0169     2692.00000
    45.0301     2634.00000
    45.0432     2716.00000
    45.0563     2707.00000
    45.0695     2648.00000
    45.0826     2726.00000
    45.0957     2644.00000
    45.1088     2608.00000
    45.1220     2603.00000
    45.1351     2575.00000
    45.1482     2657.00000
    45.1614     2581.00000
    45.1745     2656.00000
    45.1876     2627.00000
    45.2008     2773.00000
    45.2139     2687.00000
    45.2270     2676.00000
    45.2401     2629.00000
    45.2533     2649.00000
    45.2664     2721.00000
    45.2795     2758.00000
    45.2927     2713.00000
    45.3058     2706.00000
    45.3189     2776.00000
    45.3321     2769.00000
    45.3452     2788.00000
    45.3583     2815.00000
    45.3714     2881.00000
    45.3846     2914.00000
    45.3977     2907.00000
    45.4108     2859.00000
    45.4240     3003.00000
    45.4371     2907.00000
    45.4502     3006.00000
    45.4634     3032.00000
    45.4765     3166.00000
    45.4896     3109.00000
    45.5028     3357.00000
    45.5159     3675.00000
    45.5290     4138.00000
    45.5421     4941.00000
    45.5553     6218.00000
    45.5684     8322.00000
    45.5815    10313.00000
    45.5947    11633.00000
    45.6078    11332.00000
    45.6209     9457.00000
    45.6341     7260.00000
    45.6472     5615.00000
    45.6603     4956.00000
    45.6734     5130.00000
    45.6866     5762.00000
    45.6997     6703.00000
    45.7128     7316.00000
    45.7260     7269.00000
    45.7391     6253.00000
    45.7522     5115.00000
    45.7654     4213.00000
    45.7785     3630.00000
    45.7916     3198.00000
    45.8047     3045.00000
    45.8179     3076.00000
    45.8310     2834.00000
    45.8441     2870.00000
    45.8573     2857.00000
    45.8704     2875.00000
    45.8835     2817.00000
    45.8967     2766.00000
    45.9098     2779.00000
    45.9229     2748.00000
    45.9361     2828.00000
    45.9492     2784.00000
    45.9623     2742.00000
    45.9754     2774.00000
    45.9886     2739.00000
    46.0017     2777.00000
    46.0148     2854.00000
    46.0280     2813.00000
    46.0411     2791.00000
    46.0542     2798.00000
    46.0674     2730.00000
    46.0805     2832.00000
    46.0936     2831.00000
    46.1067     2866.00000
    46.1199     2829.00000
    46.1330     2905.00000
    46.1461     2831.00000
    46.1593     2840.00000
    46.1724     2860.00000
    46.1855     2975.00000
    46.1987     2915.00000
    46.2118     3080.00000
    46.2249     3134.00000
    46.2380     3201.00000
    46.2512     3678.00000
    46.2643     4041.00000
    46.2774     4828.00000
    46.2906     6021.00000
    46.3037     6724.00000
    46.3168     7179.00000
    46.3300     6881.00000
    46.3431     5740.00000
    46.3562     4843.00000
    46.3694     4386.00000
    46.3825     3931.00000
    46.3956     3986.00000
    46.4087     4318.00000
    46.4219     4793.00000
    46.4350     5051.00000
    46.4481     4787.00000
    46.4613     4445.00000
    46.4744     3999.00000
    46.4875     3483.00000
    46.5007     3241.00000
    46.5138     3226.00000
    46.5269     3041.00000
    46.5400     2902.00000
    46.5532     2895.00000
    46.5663     2794.00000
    46.5794     2893.00000
    46.5926     2958.00000
    46.6057     2793.00000
    46.6188     2811.00000
    46.6320     2792.00000
    46.6451     2758.00000
    46.6582     2929.00000
    46.6713     2772.00000
    46.6845     2755.00000
    46.6976     2902.00000
    46.7107     2832.00000
    46.7239     2906.00000
    46.7370     2810.00000
    46.7501     2933.00000
    46.7633     2913.00000
    46.7764     2898.00000
    46.7895     2870.00000
    46.8027     2948.00000
    46.8158     2862.00000
    46.8289     2940.00000
    46.8420     3058.00000
    46.8552     2994.00000
    46.8683     3149.00000
    46.8814     3123.00000
    46.8946     3243.00000
    46.9077     3393.00000
    46.9208     3639.00000
    46.9340     3948.00000
    46.9471     4613.00000
    46.9602     5245.00000
    46.9733     6330.00000
    46.9865     7203.00000
    46.9996     8142.00000
    47.0127     8604.00000
    47.0259     8654.00000
    47.0390     8015.00000
    47.0521     6680.00000
    47.0653     5705.00000
    47.0784     5186.00000
    47.0915     5202.00000
    47.1046     5378.00000
    47.1178     5676.00000
    47.1309     5829.00000
    47.1440     5810.00000
    47.1572     5677.00000
    47.1703     5031.00000
    47.1834     4344.00000
    47.1966     3814.00000
    47.2097     3474.00000
    47.2228     3344.00000
    47.2359     3108.00000
    47.2491     3061.00000
    47.2622     3107.00000
    47.2753     3067.00000
    47.2885     3131.00000
    47.3016     3114.00000
    47.3147     3007.00000
    47.3279     2969.00000
    47.3410     3172.00000
    47.3541     3127.00000
    47.3673     3092.00000
    47.3804     3111.00000
    47.3935     3155.00000
    47.4066     3229.00000
    47.4198     3252.00000
    47.4329     3159.00000
    47.4460     3493.00000
    47.4592     3298.00000
    47.4723     3399.00000
    47.4854     3520.00000
    47.4986     3533.00000
    47.5117     3558.00000
    47.5248     3664.00000
    47.5379     3752.00000
    47.5511     4138.00000
    47.5642     4195.00000
    47.5773     4625.00000
    47.5905     5172.00000
    47.6036     6013.00000
    47.6167     7169.00000
    47.6299     9201.00000
    47.6430    11783.00000
    47.6561    15272.00000
    47.6692    18398.00000
    47.6824    20363.00000
    47.6955    20044.00000
    47.7086    17988.00000
    47.7218    14686.00000
    47.7349    12110.00000
    47.7480    10697.00000
    47.7612    10067.00000
    47.7743    10378.00000
    47.7874    11408.00000
    47.8005    11969.00000
    47.8137    12182.00000
    47.8268    11517.00000
    47.8399     9909.00000
    47.8531     8220.00000
    47.8662     6702.00000
    47.8793     5597.00000
    47.8925     4876.00000
    47.9056     4290.00000
    47.9187     4080.00000
    47.9319     3788.00000
    47.9450     3543.00000
    47.9581     3464.00000
    47.9712     3411.00000
    47.9844     3274.00000
    47.9975     3315.00000
    48.0106     3125.00000
    48.0238     3249.00000
    48.0369     3209.00000
    48.0500     3149.00000
    48.0632     3267.00000
    48.0763     3133.00000
    48.0894     3175.00000
    48.1025     3254.00000
    48.1157     3302.00000
    48.1288     3357.00000
    48.1419     3376.00000
    48.1551     3400.00000
    48.1682     3399.00000
    48.1813     3537.00000
    48.1945     3640.00000
    48.2076     3757.00000
    48.2207     4201.00000
    48.2338     4857.00000
    48.2470     6196.00000
    48.2601     7836.00000
    48.2732    10216.00000
    48.2864    11892.00000
    48.2995    12882.00000
    48.3126    12717.00000
    48.3258    13119.00000
    48.3389    13630.00000
    48.3520    12943.00000
    48.3652    12223.00000
    48.3783    11325.00000
    48.3914    10925.00000
    48.4045    10324.00000
    48.4177     9614.00000
    48.4308     8945.00000
    48.4439     8625.00000
    48.4571     8665.00000
    48.4702     8403.00000
    48.4833     7928.00000
    48.4965     7249.00000
    48.5096     6558.00000
    48.5227     5955.00000
    48.5358     5210.00000
    48.5490     4556.00000
    48.5621     4183.00000
    48.5752     4194.00000
    48.5884     4343.00000
    48.6015     4691.00000
    48.6146     5340.00000
    48.6278     6323.00000
    48.6409     7917.00000
    48.6540    10075.00000
    48.6671    12063.00000
    48.6803    13397.00000
    48.6934    12948.00000
    48.7065    11298.00000
    48.7197     9363.00000
    48.7328     7449.00000
    48.7459     6548.00000
    48.7591     6165.00000
    48.7722     6550.00000
    48.7853     7329.00000
    48.7985     7841.00000
    48.8116     8248.00000
    48.8247     7896.00000
    48.8378     6940.00000
    48.8510     5932.00000
    48.8641     4962.00000
    48.8772     4410.00000
    48.8904     3711.00000
    48.9035     3417.00000
    48.9166     3347.00000
    48.9298     3369.00000
    48.9429     3261.00000
    48.9560     3107.00000
    48.9691     3056.00000
    48.9823     3089.00000
    48.9954     3021.00000
    49.0085     3004.00000
    49.0217     2957.00000
    49.0348     2927.00000
    49.0479     2910.00000
    49.0611     2758.00000
    49.0742     2923.00000
    49.0873     2861.00000
    49.1004     2879.00000
    49.1136     2829.00000
    49.1267     2898.00000
    49.1398     2932.00000
    49.1530     2955.00000
    49.1661     2913.00000
    49.1792     3086.00000
    49.1924     2776.00000
    49.2055     2754.00000
    49.2186     2801.00000
    49.2318     2962.00000
    49.2449     3027.00000
    49.2580     2951.00000
    49.2711     3007.00000
    49.2843     3015.00000
    49.2974     3081.00000
    49.3105     3187.00000
    49.3237     3148.00000
    49.3368     3368.00000
    49.3499     3549.00000
    49.3631     3473.00000
    49.3762     3529.00000
    49.3893     3317.00000
    49.4024     3355.00000
    49.4156     3217.00000
    49.4287     3054.00000
    49.4418     3196.00000
    49.4550     3359.00000
    49.4681     3306.00000
    49.4812     3327.00000
    49.4944     3410.00000
    49.5075     3473.00000
    49.5206     3457.00000
    49.5337     3646.00000
    49.5469     3702.00000
    49.5600     3578.00000
    49.5731     3601.00000
    49.5863     3583.00000
    49.5994     3392.00000
    49.6125     3490.00000
    49.6257     3427.00000
    49.6388     3399.00000
    49.6519     3501.00000
    49.6651     3495.00000
    49.6782     3606.00000
    49.6913     3633.00000
    49.7044     3618.00000
    49.7176     3656.00000
    49.7307     3692.00000
    49.7438     3544.00000
    49.7570     3772.00000
    49.7701     3986.00000
    49.7832     4093.00000
    49.7964     4612.00000
    49.8095     5109.00000
    49.8226     5928.00000
    49.8357     7274.00000
    49.8489     9413.00000
    49.8620    12349.00000
    49.8751    15767.00000
    49.8883    18236.00000
    49.9014    19133.00000
    49.9145    17844.00000
    49.9277    15554.00000
    49.9408    12823.00000
    49.9539    10953.00000
    49.9670     9683.00000
    49.9802     9675.00000
    49.9933    10247.00000
    50.0064    10997.00000
    50.0196    11765.00000
    50.0327    11835.00000
    50.0458    11066.00000
    50.0590     9661.00000
    50.0721     8285.00000
    50.0852     7024.00000
    50.0984     6108.00000
    50.1115     5274.00000
    50.1246     4968.00000
    50.1377     4401.00000
    50.1509     4148.00000
    50.1640     3956.00000
    50.1771     3836.00000
    50.1903     3697.00000
    50.2034     3693.00000
    50.2165     3705.00000
    50.2297     3681.00000
    50.2428     3819.00000
    50.2559     3935.00000
    50.2690     4304.00000
    50.2822     4610.00000
    50.2953     5343.00000
    50.3084     6315.00000
    50.3216     7294.00000
    50.3347     8712.00000
    50.3478    10118.00000
    50.3610    11125.00000
    50.3741    11602.00000
    50.3872    11263.00000
    50.4003     9650.00000
    50.4135     8354.00000
    50.4266     7172.00000
    50.4397     6626.00000
    50.4529     6487.00000
    50.4660     6616.00000
    50.4791     6909.00000
    50.4923     7134.00000
    50.5054     7495.00000
    50.5185     7238.00000
    50.5317     6503.00000
    50.5448     5614.00000
    50.5579     4972.00000
    50.5710     4292.00000
    50.5842     3861.00000
    50.5973     3728.00000
    50.6104     3417.00000
    50.6236     3306.00000
    50.6367     3094.00000
    50.6498     3133.00000
    50.6630     3054.00000
    50.6761     2999.00000
    50.6892     3017.00000
    50.7023     3002.00000
    50.7155     3086.00000
    50.7286     3003.00000
    50.7417     2945.00000
    50.7549     2855.00000
    50.7680     2936.00000
    50.7811     2915.00000
    50.7943     2815.00000
    50.8074     2919.00000
    50.8205     2903.00000
    50.8336     2908.00000
    50.8468     2948.00000
    50.8599     2863.00000
    50.8730     2964.00000
    50.8862     2786.00000
    50.8993     2827.00000
    50.9124     2887.00000
    50.9256     2883.00000
    50.9387     2836.00000
    50.9518     2905.00000
    50.9649     2950.00000
    50.9781     2906.00000
    50.9912     2931.00000
    51.0043     2898.00000
    51.0175     3056.00000
    51.0306     2855.00000
    51.0437     3025.00000
    51.0569     3016.00000
    51.0700     2954.00000
    51.0831     2954.00000
    51.0963     3017.00000
    51.1094     3078.00000
    51.1225     3233.00000
    51.1356     3149.00000
    51.1488     3305.00000
    51.1619     3569.00000
    51.1750     3752.00000
    51.1882     4489.00000
    51.2013     5486.00000
    51.2144     6788.00000
    51.2276     8026.00000
    51.2407     8933.00000
    51.2538     8849.00000
    51.2669     7962.00000
    51.2801     6761.00000
    51.2932     5775.00000
    51.3063     4810.00000
    51.3195     4711.00000
    51.3326     4652.00000
    51.3457     5095.00000
    51.3589     5562.00000
    51.3720     5929.00000
    51.3851     6141.00000
    51.3982     5731.00000
    51.4114     5312.00000
    51.4245     4588.00000
    51.4376     4160.00000
    51.4508     4022.00000
    51.4639     3909.00000
    51.4770     3851.00000
    51.4902     3698.00000
    51.5033     3532.00000
    51.5164     3311.00000
    51.5296     3282.00000
    51.5427     3105.00000
    51.5558     3046.00000
    51.5689     3127.00000
    51.5821     3075.00000
    51.5952     3073.00000
    51.6083     3187.00000
    51.6215     3208.00000
    51.6346     3232.00000
    51.6477     3150.00000
    51.6609     2957.00000
    51.6740     2906.00000
    51.6871     2836.00000
    51.7002     2837.00000
    51.7134     2836.00000
    51.7265     2837.00000
    51.7396     2802.00000
    51.7528     2797.00000
    51.7659     2894.00000
    51.7790     2852.00000
    51.7922     2837.00000
    51.8053     2841.00000
    51.8184     2895.00000
    51.8315     2743.00000
    51.8447     2833.00000
    51.8578     2686.00000
    51.8709     2801.00000
    51.8841     2711.00000
    51.8972     2819.00000
    51.9103     2868.00000
    51.9235     2789.00000
    51.9366     2788.00000
    51.9497     2803.00000
    51.9628     2795.00000
    51.9760     2847.00000
    51.9891     2910.00000
    52.0022     2780.00000
    52.0154     2777.00000
    52.0285     2698.00000
    52.0416     2777.00000
    52.0548     2681.00000
    52.0679     2808.00000
    52.0810     2788.00000
    52.0942     2807.00000
    52.1073     2730.00000
    52.1204     2775.00000
    52.1335     2907.00000
    52.1467     2870.00000
    52.1598     2843.00000
    52.1729     2911.00000
    52.1861     2960.00000
    52.1992     2946.00000
    52.2123     2934.00000
    52.2255     3001.00000
    52.2386     3020.00000
    52.2517     3046.00000
    52.2648     2966.00000
    52.2780     2981.00000
    52.2911     3073.00000
    52.3042     3035.00000
    52.3174     3158.00000
    52.3305     3272.00000
    52.3436     3348.00000
    52.3568     3394.00000
    52.3699     3631.00000
    52.3830     4114.00000
    52.3961     4574.00000
    52.4093     5405.00000
    52.4224     6608.00000
    52.4355     7900.00000
    52.4487     9209.00000
    52.4618    10159.00000
    52.4749    10659.00000
    52.4881    10415.00000
    52.5012     9748.00000
    52.5143     8642.00000
    52.5275     7774.00000
    52.5406     6570.00000
    52.5537     6130.00000
    52.5668     5955.00000
    52.5800     6304.00000
    52.5931     6471.00000
    52.6062     6797.00000
    52.6194     6938.00000
    52.6325     6864.00000
    52.6456     6265.00000
    52.6588     5587.00000
    52.6719     4890.00000
    52.6850     4517.00000
    52.6981     3993.00000
    52.7113     3715.00000
    52.7244     3626.00000
    52.7375     3796.00000
    52.7507     4044.00000
    52.7638     4282.00000
    52.7769     4729.00000
    52.7901     5116.00000
    52.8032     5535.00000
    52.8163     5964.00000
    52.8294     6180.00000
    52.8426     6155.00000
    52.8557     6070.00000
    52.8688     6107.00000
    52.8820     5810.00000
    52.8951     5454.00000
    52.9082     4854.00000
    52.9214     4699.00000
    52.9345     4548.00000
    52.9476     4437.00000
    52.9608     4528.00000
    52.9739     4298.00000
    52.9870     4533.00000
    53.0001     4387.00000
    53.0133     4302.00000
    53.0264     4089.00000
    53.0395     3790.00000
    53.0527     3512.00000
    53.0658     3291.00000
    53.0789     3115.00000
    53.0921     2968.00000
    53.1052     2866.00000
    53.1183     2921.00000
    53.1314     2774.00000
    53.1446     2750.00000
    53.1577     2775.00000
    53.1708     2793.00000
    53.1840     2828.00000
    53.1971     2736.00000
    53.2102     2760.00000
    53.2234     2805.00000
    53.2365     2752.00000
    53.2496     2902.00000
    53.2627     2781.00000
    53.2759     2850.00000
    53.2890     2829.00000
    53.3021     2732.00000
    53.3153     2738.00000
    53.3284     2845.00000
    53.3415     2818.00000
    53.3547     2829.00000
    53.3678     2828.00000
    53.3809     2778.00000
    53.3941     2859.00000
    53.4072     2909.00000
    53.4203     2950.00000
    53.4334     3168.00000
    53.4466     3180.00000
    53.4597     3491.00000
    53.4728     3782.00000
    53.4860     4012.00000
    53.4991     4057.00000
    53.5122     4166.00000
    53.5254     4059.00000
    53.5385     3832.00000
    53.5516     3584.00000
    53.5647     3413.00000
    53.5779     3286.00000
    53.5910     3211.00000
    53.6041     3203.00000
    53.6173     3334.00000
    53.6304     3341.00000
    53.6435     3381.00000
    53.6567     3451.00000
    53.6698     3412.00000
    53.6829     3308.00000
    53.6960     3197.00000
    53.7092     2914.00000
    53.7223     2883.00000
    53.7354     2863.00000
    53.7486     2845.00000
    53.7617     2777.00000
    53.7748     2808.00000
    53.7880     2712.00000
    53.8011     2861.00000
    53.8142     2731.00000
    53.8274     2753.00000
    53.8405     2694.00000
    53.8536     2770.00000
    53.8667     2758.00000
    53.8799     2868.00000
    53.8930     2806.00000
    53.9061     2743.00000
    53.9193     2788.00000
    53.9324     2809.00000
    53.9455     2836.00000
    53.9587     2795.00000
    53.9718     2686.00000
    53.9849     2719.00000
    53.9980     2729.00000
    54.0112     2777.00000
    54.0243     2724.00000
    54.0374     2726.00000
    54.0506     2655.00000
    54.0637     2672.00000
    54.0768     2727.00000
    54.0900     2737.00000
    54.1031     2761.00000
    54.1162     2806.00000
    54.1293     2841.00000
    54.1425     2815.00000
    54.1556     2992.00000
    54.1687     2925.00000
    54.1819     3116.00000
    54.1950     3024.00000
    54.2081     2996.00000
    54.2213     3011.00000
    54.2344     3153.00000
    54.2475     3179.00000
    54.2607     3045.00000
    54.2738     2990.00000
    54.2869     2965.00000
    54.3000     2956.00000
    54.3132     3075.00000
    54.3263     2880.00000
    54.3394     2916.00000
    54.3526     2848.00000
    54.3657     2958.00000
    54.3788     2870.00000
    54.3920     2915.00000
    54.4051     2814.00000
    54.4182     2884.00000
    54.4313     2875.00000
    54.4445     2834.00000
    54.4576     2759.00000
    54.4707     2812.00000
    54.4839     2774.00000
    54.4970     2714.00000
    54.5101     2768.00000
    54.5233     2681.00000
    54.5364     2642.00000
    54.5495     2687.00000
    54.5626     2681.00000
    54.5758     2736.00000
    54.5889     2804.00000
    54.6020     2630.00000
    54.6152     2658.00000
    54.6283     2656.00000
    54.6414     2712.00000
    54.6546     2744.00000
    54.6677     2671.00000
    54.6808     2668.00000
    54.6940     2756.00000
    54.7071     2828.00000
    54.7202     2756.00000
    54.7333     2813.00000
    54.7465     2764.00000
    54.7596     2775.00000
    54.7727     2687.00000
    54.7859     2574.00000
    54.7990     2817.00000
    54.8121     2719.00000
    54.8253     2700.00000
    54.8384     2752.00000
    54.8515     2642.00000
    54.8646     2717.00000
    54.8778     2698.00000
    54.8909     2734.00000
    54.9040     2825.00000
    54.9172     2860.00000
    54.9303     2884.00000
    54.9434     2803.00000
    54.9566     2849.00000
    54.9697     2837.00000
    54.9828     2853.00000
    54.9959     2944.00000
    55.0091     2990.00000
    55.0222     2962.00000
    55.0353     2916.00000
    55.0485     2933.00000
    55.0616     2967.00000
    55.0747     3090.00000
    55.0879     3065.00000
    55.1010     3194.00000
    55.1141     3246.00000
    55.1272     3270.00000
    55.1404     3449.00000
    55.1535     3520.00000
    55.1666     3787.00000
    55.1798     4069.00000
    55.1929     4447.00000
    55.2060     5050.00000
    55.2192     6153.00000
    55.2323     7633.00000
    55.2454     9334.00000
    55.2586    10814.00000
    55.2717    11480.00000
    55.2848    11292.00000
    55.2979    10146.00000
    55.3111     8368.00000
    55.3242     7155.00000
    55.3373     6156.00000
    55.3505     5744.00000
    55.3636     5679.00000
    55.3767     5885.00000
    55.3899     6531.00000
    55.4030     7077.00000
    55.4161     7621.00000
    55.4292     7579.00000
    55.4424     7034.00000
    55.4555     6178.00000
    55.4686     5452.00000
    55.4818     4692.00000
    55.4949     4257.00000
    55.5080     3923.00000
    55.5212     3768.00000
    55.5343     3529.00000
    55.5474     3593.00000
    55.5605     3490.00000
    55.5737     3662.00000
    55.5868     3549.00000
    55.5999     3538.00000
    55.6131     3374.00000
    55.6262     3275.00000
    55.6393     3226.00000
    55.6525     3089.00000
    55.6656     3073.00000
    55.6787     2956.00000
    55.6918     3031.00000
    55.7050     3003.00000
    55.7181     3073.00000
    55.7312     3098.00000
    55.7444     2986.00000
    55.7575     3105.00000
    55.7706     2940.00000
    55.7838     3030.00000
    55.7969     2931.00000
    55.8100     2893.00000
    55.8232     2980.00000
    55.8363     2944.00000
    55.8494     2988.00000
    55.8625     3016.00000
    55.8757     2929.00000
    55.8888     2807.00000
    55.9019     2854.00000
    55.9151     2851.00000
    55.9282     2901.00000
    55.9413     2863.00000
    55.9545     2966.00000
    55.9676     2991.00000
    55.9807     3070.00000
    55.9938     3076.00000
    56.0070     3113.00000
    56.0201     3184.00000
    56.0332     3162.00000
    56.0464     3202.00000
    56.0595     3297.00000
    56.0726     3408.00000
    56.0858     3555.00000
    56.0989     3745.00000
    56.1120     4357.00000
    56.1251     4890.00000
    56.1383     5608.00000
    56.1514     6158.00000
    56.1645     6677.00000
    56.1777     6995.00000
    56.1908     6998.00000
    56.2039     7636.00000
    56.2171     8786.00000
    56.2302     9936.00000
    56.2433    11371.00000
    56.2565    12548.00000
    56.2696    13273.00000
    56.2827    13074.00000
    56.2958    12302.00000
    56.3090    11027.00000
    56.3221     9582.00000
    56.3352     8015.00000
    56.3484     7286.00000
    56.3615     6789.00000
    56.3746     6878.00000
    56.3878     7285.00000
    56.4009     7834.00000
    56.4140     7931.00000
    56.4271     7987.00000
    56.4403     7733.00000
    56.4534     6822.00000
    56.4665     6032.00000
    56.4797     5158.00000
    56.4928     4648.00000
    56.5059     4084.00000
    56.5191     3740.00000
    56.5322     3550.00000
    56.5453     3170.00000
    56.5584     3177.00000
    56.5716     3195.00000
    56.5847     3152.00000
    56.5978     3158.00000
    56.6110     3040.00000
    56.6241     3053.00000
    56.6372     3154.00000
    56.6504     3101.00000
    56.6635     2971.00000
    56.6766     3213.00000
    56.6898     3055.00000
    56.7029     3069.00000
    56.7160     3072.00000
    56.7291     3191.00000
    56.7423     3227.00000
    56.7554     3044.00000
    56.7685     3132.00000
    56.7817     3244.00000
    56.7948     3343.00000
    56.8079     3491.00000
    56.8211     3690.00000
    56.8342     3837.00000
    56.8473     4145.00000
    56.8604     4651.00000
    56.8736     5312.00000
    56.8867     6205.00000
    56.8998     6860.00000
    56.9130     7579.00000
    56.9261     8129.00000
    56.9392     8894.00000
    56.9524     9199.00000
    56.9655     9266.00000
    56.9786     9658.00000
    56.9917     9863.00000
    57.0049     9473.00000
    57.0180     8686.00000
    57.0311     8021.00000
    57.0443     7448.00000
    57.0574     6858.00000
    57.0705     6720.00000
    57.0837     6732.00000
    57.0968     6854.00000
    57.1099     7059.00000
    57.1231     7448.00000
    57.1362     7762.00000
    57.1493     8332.00000
    57.1624     8591.00000
    57.1756     8844.00000
    57.1887     8538.00000
    57.2018     8191.00000
    57.2150     7109.00000
    57.2281     6284.00000
    57.2412     5707.00000
    57.2544     4778.00000
    57.2675     4524.00000
    57.2806     4381.00000
    57.2937     4273.00000
    57.3069     4459.00000
    57.3200     4670.00000
    57.3331     4908.00000
    57.3463     4947.00000
    57.3594     4914.00000
    57.3725     4713.00000
    57.3857     4235.00000
    57.3988     4011.00000
    57.4119     3680.00000
    57.4250     3505.00000
    57.4382     3306.00000
    57.4513     3205.00000
    57.4644     3225.00000
    57.4776     3094.00000
    57.4907     3098.00000
    57.5038     2969.00000
    57.5170     2929.00000
    57.5301     2986.00000
    57.5432     2987.00000
    57.5564     2930.00000
    57.5695     2996.00000
    57.5826     3039.00000
    57.5957     3081.00000
    57.6089     3015.00000
    57.6220     3170.00000
    57.6351     3177.00000
    57.6483     3188.00000
    57.6614     3303.00000
    57.6745     3312.00000
    57.6877     3487.00000
    57.7008     3619.00000
    57.7139     3873.00000
    57.7270     4129.00000
    57.7402     4644.00000
    57.7533     5414.00000
    57.7664     6325.00000
    57.7796     7687.00000
    57.7927     8592.00000
    57.8058     9207.00000
    57.8190     8791.00000
    57.8321     7719.00000
    57.8452     6655.00000
    57.8583     5782.00000
    57.8715     5458.00000
    57.8846     5038.00000
    57.8977     5090.00000
    57.9109     5560.00000
    57.9240     6119.00000
    57.9371     6749.00000
    57.9503     7266.00000
    57.9634     7342.00000
    57.9765     6957.00000
    57.9897     6207.00000
    58.0028     5401.00000
    58.0159     4875.00000
    58.0290     4424.00000
    58.0422     4058.00000
    58.0553     3854.00000
    58.0684     3898.00000
    58.0816     3810.00000
    58.0947     3814.00000
    58.1078     3941.00000
    58.1210     3799.00000
    58.1341     3681.00000
    58.1472     3646.00000
    58.1603     3461.00000
    58.1735     3435.00000
    58.1866     3316.00000
    58.1997     3383.00000
    58.2129     3254.00000
    58.2260     3260.00000
    58.2391     3356.00000
    58.2523     3443.00000
    58.2654     3627.00000
    58.2785     3696.00000
    58.2916     3758.00000
    58.3048     4116.00000
    58.3179     4506.00000
    58.3310     5027.00000
    58.3442     5626.00000
    58.3573     6369.00000
    58.3704     7190.00000
    58.3836     7941.00000
    58.3967     8518.00000
    58.4098     8688.00000
    58.4230     8358.00000
    58.4361     7640.00000
    58.4492     6602.00000
    58.4623     5917.00000
    58.4755     5552.00000
    58.4886     5411.00000
    58.5017     5324.00000
    58.5149     5592.00000
    58.5280     5949.00000
    58.5411     6490.00000
    58.5543     6997.00000
    58.5674     7574.00000
    58.5805     8183.00000
    58.5936     8892.00000
    58.6068     9355.00000
    58.6199     9620.00000
    58.6330     9610.00000
    58.6462     9489.00000
    58.6593     7998.00000
    58.6724     6766.00000
    58.6856     5654.00000
    58.6987     5063.00000
    58.7118     4915.00000
    58.7249     4817.00000
    58.7381     5085.00000
    58.7512     5580.00000
    58.7643     5886.00000
    58.7775     6723.00000
    58.7906     6886.00000
    58.8037     7447.00000
    58.8169     7430.00000
    58.8300     7544.00000
    58.8431     7957.00000
    58.8562     8782.00000
    58.8694     9312.00000
    58.8825     9574.00000
    58.8956     9487.00000
    58.9088     8676.00000
    58.9219     7536.00000
    58.9350     6345.00000
    58.9482     5382.00000
    58.9613     5286.00000
    58.9744     5013.00000
    58.9876     4996.00000
    59.0007     5209.00000
    59.0138     5464.00000
    59.0269     5982.00000
    59.0401     6165.00000
    59.0532     6193.00000
    59.0663     5825.00000
    59.0795     5279.00000
    59.0926     4775.00000
    59.1057     4231.00000
    59.1189     3848.00000
    59.1320     3639.00000
    59.1451     3481.00000
    59.1582     3182.00000
    59.1714     3209.00000
    59.1845     3146.00000
    59.1976     3159.00000
    59.2108     3042.00000
    59.2239     3102.00000
    59.2370     3148.00000
    59.2502     2971.00000
    59.2633     3073.00000
    59.2764     2974.00000
    59.2895     3031.00000
    59.3027     2963.00000
    59.3158     3091.00000
    59.3289     3047.00000
    59.3421     2974.00000
    59.3552     3039.00000
    59.3683     3037.00000
    59.3815     3136.00000
    59.3946     3255.00000
    59.4077     3286.00000
    59.4208     3409.00000
    59.4340     3498.00000
    59.4471     3872.00000
    59.4602     4325.00000
    59.4734     4920.00000
    59.4865     5374.00000
    59.4996     6104.00000
    59.5128     6802.00000
    59.5259     7609.00000
    59.5390     8028.00000
    59.5522     8330.00000
    59.5653     8226.00000
    59.5784     7660.00000
    59.5915     7064.00000
    59.6047     6280.00000
    59.6178     5571.00000
    59.6309     5156.00000
    59.6441     5106.00000
    59.6572     5150.00000
    59.6703     5469.00000
    59.6835     5852.00000
    59.6966     6334.00000
    59.7097     6918.00000
    59.7228     6961.00000
    59.7360     7340.00000
    59.7491     7679.00000
    59.7622     7677.00000
    59.7754     7727.00000
    59.7885     8123.00000
    59.8016     8744.00000
    59.8148     9570.00000
    59.8279    10718.00000
    59.8410    11293.00000
    59.8541    11314.00000
    59.8673    10299.00000
    59.8804     8675.00000
    59.8935     7330.00000
    59.9067     6418.00000
    59.9198     6028.00000
    59.9329     5748.00000
    59.9461     5716.00000
    59.9592     5800.00000
    59.9723     6071.00000
    59.9855     6664.00000
    59.9986     7048.00000
    60.0117     7044.00000
    60.0248     6618.00000
    60.0380     5948.00000
    60.0511     5240.00000
    60.0642     4551.00000
    60.0774     3986.00000
    60.0905     3675.00000
    60.1036     3495.00000
    60.1168     3320.00000
    60.1299     3168.00000
    60.1430     3146.00000
    60.1561     3052.00000
    60.1693     3044.00000
    60.1824     3050.00000
    60.1955     3002.00000
    60.2087     3016.00000
    60.2218     2948.00000
    60.2349     3064.00000
    60.2481     3044.00000
    60.2612     3032.00000
    60.2743     3144.00000
    60.2874     3085.00000
    60.3006     3184.00000
    60.3137     3042.00000
    60.3268     3139.00000
    60.3400     3116.00000
    60.3531     3262.00000
    60.3662     3258.00000
    60.3794     3216.00000
    60.3925     3309.00000
    60.4056     3346.00000
    60.4188     3460.00000
    60.4319     3514.00000
    60.4450     3713.00000
    60.4581     3829.00000
    60.4713     4162.00000
    60.4844     4762.00000
    60.4975     5294.00000
    60.5107     6085.00000
    60.5238     7485.00000
    60.5369     9173.00000
    60.5501    11033.00000
    60.5632    12876.00000
    60.5763    14312.00000
    60.5894    14515.00000
    60.6026    13511.00000
    60.6157    12152.00000
    60.6288    10388.00000
    60.6420     8954.00000
    60.6551     7785.00000
    60.6682     7299.00000
    60.6814     7072.00000
    60.6945     7541.00000
    60.7076     8002.00000
    60.7207     8964.00000
    60.7339     9891.00000
    60.7470    10319.00000
    60.7601    10274.00000
    60.7733     9691.00000
    60.7864     8899.00000
    60.7995     7889.00000
    60.8127     6964.00000
    60.8258     6296.00000
    60.8389     5644.00000
    60.8521     5110.00000
    60.8652     5008.00000
    60.8783     4872.00000
    60.8914     4900.00000
    60.9046     5140.00000
    60.9177     5309.00000
    60.9308     5395.00000
    60.9440     5484.00000
    60.9571     5403.00000
    60.9702     5563.00000
    60.9834     5316.00000
    60.9965     5102.00000
    61.0096     4724.00000
    61.0227     4442.00000
    61.0359     4047.00000
    61.0490     3749.00000
    61.0621     3763.00000
    61.0753     3663.00000
    61.0884     3551.00000
    61.1015     3746.00000
    61.1147     3699.00000
    61.1278     3658.00000
    61.1409     3583.00000
    61.1540     3631.00000
    61.1672     3547.00000
    61.1803     3419.00000
    61.1934     3241.00000
    61.2066     3077.00000
    61.2197     2801.00000
    61.2328     2815.00000
    61.2460     2791.00000
    61.2591     2811.00000
    61.2722     2776.00000
    61.2854     2689.00000
    61.2985     2709.00000
    61.3116     2670.00000
    61.3247     2611.00000
    61.3379     2730.00000
    61.3510     2609.00000
    61.3641     2644.00000
    61.3773     2692.00000
    61.3904     2618.00000
    61.4035     2610.00000
    61.4167     2607.00000
    61.4298     2649.00000
    61.4429     2662.00000
    61.4560     2678.00000
    61.4692     2581.00000
    61.4823     2610.00000
    61.4954     2551.00000
    61.5086     2611.00000
    61.5217     2565.00000
    61.5348     2631.00000
    61.5480     2680.00000
    61.5611     2643.00000
    61.5742     2665.00000
    61.5873     2616.00000
    61.6005     2556.00000
    61.6136     2601.00000
    61.6267     2559.00000
    61.6399     2681.00000
    61.6530     2583.00000
    61.6661     2522.00000
    61.6793     2665.00000
    61.6924     2593.00000
    61.7055     2541.00000
    61.7187     2728.00000
    61.7318     2631.00000
    61.7449     2674.00000
    61.7580     2641.00000
    61.7712     2565.00000
    61.7843     2643.00000
    61.7974     2553.00000
    61.8106     2525.00000
    61.8237     2585.00000
    61.8368     2456.00000
    61.8500     2529.00000
    61.8631     2551.00000
    61.8762     2604.00000
    61.8893     2590.00000
    61.9025     2586.00000
    61.9156     2624.00000
    61.9287     2573.00000
    61.9419     2579.00000
    61.9550     2647.00000
    61.9681     2582.00000
    61.9813     2576.00000
    61.9944     2609.00000
    62.0075     2570.00000
    62.0206     2429.00000
    62.0338     2479.00000
    62.0469     2465.00000
    62.0600     2565.00000
    62.0732     2489.00000
    62.0863     2538.00000
    62.0994     2554.00000
    62.1126     2541.00000
    62.1257     2447.00000
    62.1388     2500.00000
    62.1520     2474.00000
    62.1651     2551.00000
    62.1782     2533.00000
    62.1913     2548.00000
    62.2045     2476.00000
    62.2176     2601.00000
    62.2307     2626.00000
    62.2439     2573.00000
    62.2570     2497.00000
    62.2701     2522.00000
    62.2833     2484.00000
    62.2964     2481.00000
    62.3095     2538.00000
    62.3226     2509.00000
    62.3358     2616.00000
    62.3489     2539.00000
    62.3620     2575.00000
    62.3752     2604.00000
    62.3883     2524.00000
    62.4014     2557.00000
    62.4146     2538.00000
    62.4277     2542.00000
    62.4408     2574.00000
    62.4539     2521.00000
    62.4671     2576.00000
    62.4802     2445.00000
    62.4933     2579.00000
    62.5065     2621.00000
    62.5196     2526.00000
    62.5327     2496.00000
    62.5459     2521.00000
    62.5590     2457.00000
    62.5721     2511.00000
    62.5852     2580.00000
    62.5984     2501.00000
    62.6115     2566.00000
    62.6246     2613.00000
    62.6378     2543.00000
    62.6509     2494.00000
    62.6640     2372.00000
    62.6772     2433.00000
    62.6903     2475.00000
    62.7034     2465.00000
    62.7166     2521.00000
    62.7297     2615.00000
    62.7428     2592.00000
    62.7559     2490.00000
    62.7691     2595.00000
    62.7822     2442.00000
    62.7953     2565.00000
    62.8085     2537.00000
    62.8216     2600.00000
    62.8347     2557.00000
    62.8479     2599.00000
    62.8610     2540.00000
    62.8741     2549.00000
    62.8872     2548.00000
    62.9004     2437.00000
    62.9135     2468.00000
    62.9266     2445.00000
    62.9398     2448.00000
    62.9529     2527.00000
    62.9660     2518.00000
    62.9792     2473.00000
    62.9923     2587.00000
    63.0054     2422.00000
    63.0185     2427.00000
    63.0317     2649.00000
    63.0448     2597.00000
    63.0579     2532.00000
    63.0711     2479.00000
    63.0842     2559.00000
    63.0973     2511.00000
    63.1105     2554.00000
    63.1236     2512.00000
    63.1367     2561.00000
    63.1499     2449.00000
    63.1630     2576.00000
    63.1761     2594.00000
    63.1892     2599.00000
    63.2024     2588.00000
    63.2155     2641.00000
    63.2286     2521.00000
    63.2418     2564.00000
    63.2549     2728.00000
    63.2680     2664.00000
    63.2812     2699.00000
    63.2943     2841.00000
    63.3074     2748.00000
    63.3205     2812.00000
    63.3337     2843.00000
    63.3468     2886.00000
    63.3599     2998.00000
    63.3731     3010.00000
    63.3862     3108.00000
    63.3993     3193.00000
    63.4125     3320.00000
    63.4256     3468.00000
    63.4387     3813.00000
    63.4518     3994.00000
    63.4650     4083.00000
    63.4781     4077.00000
    63.4912     3845.00000
    63.5044     3648.00000
    63.5175     3330.00000
    63.5306     3127.00000
    63.5438     3066.00000
    63.5569     3090.00000
    63.5700     2951.00000
    63.5831     3097.00000
    63.5963     3089.00000
    63.6094     3135.00000
    63.6225     3305.00000
    63.6357     3313.00000
    63.6488     3320.00000
    63.6619     3247.00000
    63.6751     3002.00000
    63.6882     2976.00000
    63.7013     2943.00000
    63.7145     2915.00000
    63.7276     2875.00000
    63.7407     2856.00000
    63.7538     2909.00000
    63.7670     2844.00000
    63.7801     3005.00000
    63.7932     3186.00000
    63.8064     3287.00000
    63.8195     3652.00000
    63.8326     3709.00000
    63.8458     4020.00000
    63.8589     4212.00000
    63.8720     4263.00000
    63.8851     4024.00000
    63.8983     3971.00000
    63.9114     3712.00000
    63.9245     3301.00000
    63.9377     3332.00000
    63.9508     3087.00000
    63.9639     3074.00000
    63.9771     3158.00000
    63.9902     3357.00000
    64.0033     3431.00000
    64.0164     3531.00000
    64.0296     3899.00000
    64.0427     3856.00000
    64.0558     4142.00000
    64.0690     4247.00000
    64.0821     4258.00000
    64.0952     4082.00000
    64.1084     4143.00000
    64.1215     4020.00000
    64.1346     3669.00000
    64.1478     3527.00000
    64.1609     3276.00000
    64.1740     3073.00000
    64.1871     3023.00000
    64.2003     2894.00000
    64.2134     2776.00000
    64.2265     3003.00000
    64.2397     2994.00000
    64.2528     3112.00000
    64.2659     3042.00000
    64.2791     3161.00000
    64.2922     3181.00000
    64.3053     3123.00000
    64.3184     2998.00000
    64.3316     2876.00000
    64.3447     2756.00000
    64.3578     2705.00000
    64.3710     2740.00000
    64.3841     2573.00000
    64.3972     2501.00000
    64.4104     2508.00000
    64.4235     2450.00000
    64.4366     2492.00000
    64.4498     2461.00000
    64.4629     2502.00000
    64.4760     2380.00000
    64.4891     2523.00000
    64.5023     2487.00000
    64.5154     2460.00000
    64.5285     2505.00000
    64.5417     2567.00000
    64.5548     2454.00000
    64.5679     2500.00000
    64.5811     2500.00000
    64.5942     2550.00000
    64.6073     2577.00000
    64.6204     2532.00000
    64.6336     2492.00000
    64.6467     2509.00000
    64.6598     2659.00000
    64.6730     2678.00000
    64.6861     2670.00000
    64.6992     2706.00000
    64.7124     2673.00000
    64.7255     2784.00000
    64.7386     2800.00000
    64.7517     2731.00000
    64.7649     2831.00000
    64.7780     2850.00000
    64.7911     2627.00000
    64.8043     2653.00000
    64.8174     2661.00000
    64.8305     2807.00000
    64.8437     2763.00000
    64.8568     2767.00000
    64.8699     2638.00000
    64.8830     2707.00000
    64.8962     2713.00000
    64.9093     2801.00000
    64.9224     2654.00000
    64.9356     2654.00000
    64.9487     2659.00000
    64.9618     2724.00000
    64.9750     2616.00000
    64.9881     2709.00000
    65.0012     2468.00000
    65.0144     2650.00000
    65.0275     2602.00000
    65.0406     2538.00000
    65.0537     2609.00000
    65.0669     2578.00000
    65.0800     2513.00000
    65.0931     2503.00000
    65.1063     2454.00000
    65.1194     2504.00000
    65.1325     2501.00000
    65.1457     2445.00000
    65.1588     2530.00000
    65.1719     2471.00000
    65.1850     2589.00000
    65.1982     2425.00000
    65.2113     2357.00000
    65.2244     2447.00000
    65.2376     2529.00000
    65.2507     2340.00000
    65.2638     2488.00000
    65.2770     2462.00000
    65.2901     2379.00000
    65.3032     2354.00000
    65.3163     2413.00000
    65.3295     2320.00000
    65.3426     2405.00000
    65.3557     2329.00000
    65.3689     2459.00000
    65.3820     2470.00000
    65.3951     2438.00000
    65.4083     2424.00000
    65.4214     2420.00000
    65.4345     2432.00000
    65.4476     2432.00000
    65.4608     2454.00000
    65.4739     2403.00000
    65.4870     2410.00000
    65.5002     2543.00000
    65.5133     2440.00000
    65.5264     2414.00000
    65.5396     2307.00000
    65.5527     2442.00000
    65.5658     2392.00000
    65.5790     2504.00000
    65.5921     2368.00000
    65.6052     2473.00000
    65.6183     2422.00000
    65.6315     2491.00000
    65.6446     2505.00000
    65.6577     2459.00000
    65.6709     2462.00000
    65.6840     2405.00000
    65.6971     2488.00000
    65.7103     2412.00000
    65.7234     2478.00000
    65.7365     2470.00000
    65.7496     2510.00000
    65.7628     2385.00000
    65.7759     2427.00000
    65.7890     2399.00000
    65.8022     2363.00000
    65.8153     2475.00000
    65.8284     2468.00000
    65.8416     2360.00000
    65.8547     2367.00000
    65.8678     2407.00000
    65.8810     2400.00000
    65.8941     2379.00000
    65.9072     2390.00000
    65.9203     2357.00000
    65.9335     2442.00000
    65.9466     2432.00000
    65.9597     2349.00000
    65.9729     2399.00000
    65.9860     2376.00000
    65.9991     2445.00000
    66.0123     2463.00000
    66.0254     2425.00000
    66.0385     2397.00000
    66.0516     2397.00000
    66.0648     2442.00000
    66.0779     2458.00000
    66.0910     2455.00000
    66.1042     2412.00000
    66.1173     2394.00000
    66.1304     2363.00000
    66.1436     2464.00000
    66.1567     2373.00000
    66.1698     2422.00000
    66.1829     2329.00000
    66.1961     2459.00000
    66.2092     2416.00000
    66.2223     2400.00000
    66.2355     2374.00000
    66.2486     2475.00000
    66.2617     2428.00000
    66.2749     2526.00000
    66.2880     2601.00000
    66.3011     2489.00000
    66.3142     2475.00000
    66.3274     2489.00000
    66.3405     2511.00000
    66.3536     2467.00000
    66.3668     2454.00000
    66.3799     2485.00000
    66.3930     2437.00000
    66.4062     2459.00000
    66.4193     2395.00000
    66.4324     2522.00000
    66.4455     2359.00000
    66.4587     2386.00000
    66.4718     2486.00000
    66.4849     2495.00000
    66.4981     2412.00000
    66.5112     2421.00000
    66.5243     2464.00000
    66.5375     2476.00000
    66.5506     2379.00000
    66.5637     2361.00000
    66.5769     2404.00000
    66.5900     2537.00000
    66.6031     2587.00000
    66.6162     2585.00000
    66.6294     2554.00000
    66.6425     2530.00000
    66.6556     2476.00000
    66.6688     2592.00000
    66.6819     2512.00000
    66.6950     2547.00000
    66.7082     2552.00000
    66.7213     2463.00000
    66.7344     2455.00000
    66.7476     2396.00000
    66.7607     2492.00000
    66.7738     2556.00000
    66.7869     2484.00000
    66.8001     2447.00000
    66.8132     2532.00000
    66.8263     2463.00000
    66.8395     2478.00000
    66.8526     2479.00000
    66.8657     2470.00000
    66.8789     2403.00000
    66.8920     2499.00000
    66.9051     2459.00000
    66.9182     2354.00000
    66.9314     2464.00000
    66.9445     2372.00000
    66.9576     2483.00000
    66.9708     2347.00000
    66.9839     2406.00000
    66.9970     2406.00000
    67.0102     2387.00000
    67.0233     2324.00000
    67.0364     2318.00000
    67.0495     2425.00000
    67.0627     2462.00000
    67.0758     2457.00000
    67.0889     2485.00000
    67.1021     2396.00000
    67.1152     2425.00000
    67.1283     2361.00000
    67.1415     2409.00000
    67.1546     2412.00000
    67.1677     2472.00000
    67.1808     2386.00000
    67.1940     2465.00000
    67.2071     2314.00000
    67.2202     2453.00000
    67.2334     2418.00000
    67.2465     2499.00000
    67.2596     2384.00000
    67.2728     2411.00000
    67.2859     2448.00000
    67.2990     2351.00000
    67.3121     2399.00000
    67.3253     2410.00000
    67.3384     2426.00000
    67.3515     2308.00000
    67.3647     2375.00000
    67.3778     2394.00000
    67.3909     2446.00000
    67.4041     2460.00000
    67.4172     2416.00000
    67.4303     2507.00000
    67.4435     2513.00000
    67.4566     2354.00000
    67.4697     2473.00000
    67.4828     2514.00000
    67.4960     2458.00000
    67.5091     2472.00000
    67.5222     2433.00000
    67.5354     2479.00000
    67.5485     2442.00000
    67.5616     2402.00000
    67.5748     2405.00000
    67.5879     2486.00000
    67.6010     2450.00000
    67.6142     2418.00000
    67.6273     2447.00000
    67.6404     2518.00000
    67.6535     2394.00000
    67.6667     2447.00000
    67.6798     2471.00000
    67.6929     2477.00000
    67.7061     2461.00000
    67.7192     2410.00000
    67.7323     2420.00000
    67.7455     2410.00000
    67.7586     2487.00000
    67.7717     2427.00000
    67.7848     2540.00000
    67.7980     2563.00000
    67.8111     2483.00000
    67.8242     2571.00000
    67.8374     2497.00000
    67.8505     2551.00000
    67.8636     2563.00000
    67.8768     2637.00000
    67.8899     2618.00000
    67.9030     2719.00000
    67.9161     2648.00000
    67.9293     2866.00000
    67.9424     2853.00000
    67.9555     3079.00000
    67.9687     3249.00000
    67.9818     3469.00000
    67.9949     3713.00000
    68.0081     3657.00000
    68.0212     3836.00000
    68.0343     3654.00000
    68.0474     3400.00000
    68.0606     3220.00000
    68.0737     3253.00000
    68.0868     3269.00000
    68.1000     3253.00000
    68.1131     3166.00000
    68.1262     3247.00000
    68.1394     3318.00000
    68.1525     3193.00000
    68.1656     3216.00000
    68.1787     3287.00000
    68.1919     3332.00000
    68.2050     3361.00000
    68.2181     3400.00000
    68.2313     3212.00000
    68.2444     3180.00000
    68.2575     3080.00000
    68.2707     3088.00000
    68.2838     3195.00000
    68.2969     3232.00000
    68.3101     3560.00000
    68.3232     3729.00000
    68.3363     4017.00000
    68.3494     4512.00000
    68.3626     4964.00000
    68.3757     5132.00000
    68.3888     5105.00000
    68.4020     4863.00000
    68.4151     4483.00000
    68.4282     3818.00000
    68.4414     3598.00000
    68.4545     3204.00000
    68.4676     2961.00000
    68.4807     2895.00000
    68.4939     2933.00000
    68.5070     2999.00000
    68.5201     3055.00000
    68.5333     3262.00000
    68.5464     3476.00000
    68.5595     3767.00000
    68.5727     3797.00000
    68.5858     3727.00000
    68.5989     3482.00000
    68.6120     3434.00000
    68.6252     3078.00000
    68.6383     2977.00000
    68.6514     2786.00000
    68.6646     2720.00000
    68.6777     2716.00000
    68.6908     2669.00000
    68.7040     2531.00000
    68.7171     2531.00000
    68.7302     2514.00000
    68.7434     2505.00000
    68.7565     2660.00000
    68.7696     2512.00000
    68.7827     2531.00000
    68.7959     2547.00000
    68.8090     2491.00000
    68.8221     2556.00000
    68.8353     2483.00000
    68.8484     2535.00000
    68.8615     2490.00000
    68.8747     2486.00000
    68.8878     2586.00000
    68.9009     2461.00000
    68.9140     2643.00000
    68.9272     2622.00000
    68.9403     2501.00000
    68.9534     2456.00000
    68.9666     2535.00000
    68.9797     2561.00000
    68.9928     2580.00000
    69.0060     2688.00000
    69.0191     2600.00000
    69.0322     2599.00000
    69.0453     2669.00000
    69.0585     2725.00000
    69.0716     2784.00000
    69.0847     2760.00000
    69.0979     2925.00000
    69.1110     2986.00000
    69.1241     3148.00000
    69.1373     3370.00000
    69.1504     3619.00000
    69.1635     4004.00000
    69.1767     4448.00000
    69.1898     4529.00000
    69.2029     4555.00000
    69.2160     4450.00000
    69.2292     4200.00000
    69.2423     4114.00000
    69.2554     3869.00000
    69.2686     3867.00000
    69.2817     3929.00000
    69.2948     3653.00000
    69.3080     3454.00000
    69.3211     3386.00000
    69.3342     3370.00000
    69.3473     3506.00000
    69.3605     3614.00000
    69.3736     3758.00000
    69.3867     3694.00000
    69.3999     3809.00000
    69.4130     3638.00000
    69.4261     3566.00000
    69.4393     3502.00000
    69.4524     3496.00000
    69.4655     3443.00000
    69.4786     3489.00000
    69.4918     3578.00000
    69.5049     3529.00000
    69.5180     3522.00000
    69.5312     3587.00000
    69.5443     3444.00000
    69.5574     3304.00000
    69.5706     3352.00000
    69.5837     3239.00000
    69.5968     3090.00000
    69.6099     3013.00000
    69.6231     3088.00000
    69.6362     3085.00000
    69.6493     3187.00000
    69.6625     3248.00000
    69.6756     3440.00000
    69.6887     3773.00000
    69.7019     4084.00000
    69.7150     4373.00000
    69.7281     4956.00000
    69.7413     5424.00000
    69.7544     6052.00000
    69.7675     6625.00000
    69.7806     7155.00000
    69.7938     7366.00000
    69.8069     7343.00000
    69.8200     7063.00000
    69.8332     6569.00000
    69.8463     6151.00000
    69.8594     5520.00000
    69.8726     5187.00000
    69.8857     4758.00000
    69.8988     4536.00000
    69.9119     4533.00000
    69.9251     4346.00000
    69.9382     4527.00000
    69.9513     4588.00000
    69.9645     5037.00000
    69.9776     5247.00000
    69.9907     5346.00000
    70.0039     5377.00000
    70.0170     5475.00000
    70.0301     5305.00000
    70.0433     4946.00000
    70.0564     4585.00000
    70.0695     4164.00000
    70.0826     3859.00000
    70.0958     3633.00000
    70.1089     3369.00000
    70.1220     3325.00000
    70.1352     3138.00000
    70.1483     3085.00000
    70.1614     3011.00000
    70.1746     2949.00000
    70.1877     2997.00000
    70.2008     3024.00000
    70.2139     2997.00000
    70.2271     3073.00000
    70.2402     2968.00000
    70.2533     2945.00000
    70.2665     3042.00000
    70.2796     3019.00000
    70.2927     2988.00000
    70.3059     3061.00000
    70.3190     3305.00000
    70.3321     3200.00000
    70.3452     3525.00000
    70.3584     3841.00000
    70.3715     4087.00000
    70.3846     4515.00000
    70.3978     4798.00000
    70.4109     5207.00000
    70.4240     5323.00000
    70.4372     5189.00000
    70.4503     4790.00000
    70.4634     4342.00000
    70.4765     4054.00000
    70.4897     3701.00000
    70.5028     3534.00000
    70.5159     3396.00000
    70.5291     3448.00000
    70.5422     3421.00000
    70.5553     3568.00000
    70.5685     3813.00000
    70.5816     3942.00000
    70.5947     4298.00000
    70.6078     4464.00000
    70.6210     4807.00000
    70.6341     5037.00000
    70.6472     5016.00000
    70.6604     4978.00000
    70.6735     4977.00000
    70.6866     4905.00000
    70.6998     4833.00000
    70.7129     4770.00000
    70.7260     4545.00000
    70.7392     4553.00000
    70.7523     4340.00000
    70.7654     4231.00000
    70.7785     3963.00000
    70.7917     3981.00000
    70.8048     3732.00000
    70.8179     3707.00000
    70.8311     3596.00000
    70.8442     3532.00000
    70.8573     3698.00000
    70.8705     3612.00000
    70.8836     3759.00000
    70.8967     3689.00000
    70.9099     3693.00000
    70.9230     3661.00000
    70.9361     3761.00000
    70.9492     3626.00000
    70.9624     3511.00000
    70.9755     3554.00000
    70.9886     3366.00000
    71.0018     3402.00000
    71.0149     3650.00000
    71.0280     3943.00000
    71.0412     4375.00000
    71.0543     4715.00000
    71.0674     5119.00000
    71.0805     5201.00000
    71.0937     4792.00000
    71.1068     4259.00000
    71.1199     3811.00000
    71.1331     3388.00000
    71.1462     3319.00000
    71.1593     3070.00000
    71.1725     3062.00000
    71.1856     3098.00000
    71.1987     3132.00000
    71.2118     3135.00000
    71.2250     3141.00000
    71.2381     3339.00000
    71.2512     3495.00000
    71.2644     3651.00000
    71.2775     3838.00000
    71.2906     3764.00000
    71.3038     3685.00000
    71.3169     3440.00000
    71.3300     3128.00000
    71.3431     3000.00000
    71.3563     2925.00000
    71.3694     2955.00000
    71.3825     2854.00000
    71.3957     2793.00000
    71.4088     2871.00000
    71.4219     2803.00000
    71.4351     2867.00000
    71.4482     2779.00000
    71.4613     2859.00000
    71.4744     2839.00000
    71.4876     2937.00000
    71.5007     3040.00000
    71.5138     3246.00000
    71.5270     3420.00000
    71.5401     3565.00000
    71.5532     4021.00000
    71.5664     4370.00000
    71.5795     4509.00000
    71.5926     4859.00000
    71.6058     4884.00000
    71.6189     4595.00000
    71.6320     4578.00000
    71.6451     4358.00000
    71.6583     3995.00000
    71.6714     3969.00000
    71.6845     3844.00000
    71.6977     3775.00000
    71.7108     3652.00000
    71.7239     3501.00000
    71.7371     3410.00000
    71.7502     3553.00000
    71.7633     3574.00000
    71.7764     3712.00000
    71.7896     3733.00000
    71.8027     3819.00000
    71.8158     3720.00000
    71.8290     3444.00000
    71.8421     3460.00000
    71.8552     3366.00000
    71.8684     3208.00000
    71.8815     3185.00000
    71.8946     3029.00000
    71.9078     3048.00000
    71.9209     2991.00000
    71.9340     2702.00000
    71.9471     2681.00000
    71.9603     2796.00000
    71.9734     2664.00000
    71.9865     2625.00000
    71.9997     2619.00000
    72.0128     2663.00000
    72.0259     2634.00000
    72.0391     2693.00000
    72.0522     2582.00000
    72.0653     2693.00000
    72.0784     2664.00000
    72.0916     2545.00000
    72.1047     2507.00000
    72.1178     2628.00000
    72.1310     2578.00000
    72.1441     2560.00000
    72.1572     2607.00000
    72.1704     2626.00000
    72.1835     2538.00000
    72.1966     2537.00000
    72.2097     2572.00000
    72.2229     2583.00000
    72.2360     2573.00000
    72.2491     2593.00000
    72.2623     2634.00000
    72.2754     2656.00000
    72.2885     2683.00000
    72.3017     2771.00000
    72.3148     2858.00000
    72.3279     2955.00000
    72.3410     3004.00000
    72.3542     3158.00000
    72.3673     3360.00000
    72.3804     3640.00000
    72.3936     3942.00000
    72.4067     4101.00000
    72.4198     4045.00000
    72.4330     4139.00000
    72.4461     3997.00000
    72.4592     3637.00000
    72.4724     3519.00000
    72.4855     3222.00000
    72.4986     3079.00000
    72.5117     3014.00000
    72.5249     2847.00000
    72.5380     2835.00000
    72.5511     2931.00000
    72.5643     2961.00000
    72.5774     3008.00000
    72.5905     3135.00000
    72.6037     3265.00000
    72.6168     3423.00000
    72.6299     3338.00000
    72.6430     3445.00000
    72.6562     3255.00000
    72.6693     3168.00000
    72.6824     3075.00000
    72.6956     2852.00000
    72.7087     2756.00000
    72.7218     2744.00000
    72.7350     2634.00000
    72.7481     2688.00000
    72.7612     2606.00000
    72.7743     2702.00000
    72.7875     2739.00000
    72.8006     2639.00000
    72.8137     2722.00000
    72.8269     2832.00000
    72.8400     2834.00000
    72.8531     2955.00000
    72.8663     3149.00000
    72.8794     3303.00000
    72.8925     3547.00000
    72.9057     3858.00000
    72.9188     4003.00000
    72.9319     4337.00000
    72.9450     4460.00000
    72.9582     4395.00000
    72.9713     4237.00000
    72.9844     4085.00000
    72.9976     3837.00000
    73.0107     3441.00000
    73.0238     3354.00000
    73.0370     3130.00000
    73.0501     3125.00000
    73.0632     3031.00000
    73.0763     3199.00000
    73.0895     3089.00000
    73.1026     3210.00000
    73.1157     3367.00000
    73.1289     3577.00000
    73.1420     3630.00000
    73.1551     3697.00000
    73.1683     3973.00000
    73.1814     3989.00000
    73.1945     4011.00000
    73.2076     4060.00000
    73.2208     4080.00000
    73.2339     3989.00000
    73.2470     3962.00000
    73.2602     3937.00000
    73.2733     3782.00000
    73.2864     3647.00000
    73.2996     3655.00000
    73.3127     3403.00000
    73.3258     3263.00000
    73.3390     3241.00000
    73.3521     3145.00000
    73.3652     3072.00000
    73.3783     3147.00000
    73.3915     3176.00000
    73.4046     3340.00000
    73.4177     3520.00000
    73.4309     3764.00000
    73.4440     3709.00000
    73.4571     3778.00000
    73.4703     3743.00000
    73.4834     3693.00000
    73.4965     3606.00000
    73.5096     3340.00000
    73.5228     3211.00000
    73.5359     3212.00000
    73.5490     3083.00000
    73.5622     3077.00000
    73.5753     2910.00000
    73.5884     3012.00000
    73.6016     3199.00000
    73.6147     3312.00000
    73.6278     3425.00000
    73.6409     3730.00000
    73.6541     3865.00000
    73.6672     4471.00000
    73.6803     4854.00000
    73.6935     5189.00000
    73.7066     5561.00000
    73.7197     5582.00000
    73.7329     5849.00000
    73.7460     5683.00000
    73.7591     5551.00000
    73.7722     5707.00000
    73.7854     5442.00000
    73.7985     5251.00000
    73.8116     5064.00000
    73.8248     4593.00000
    73.8379     4142.00000
    73.8510     3793.00000
    73.8642     3575.00000
    73.8773     3604.00000
    73.8904     3859.00000
    73.9035     4031.00000
    73.9167     4026.00000
    73.9298     4129.00000
    73.9429     4133.00000
    73.9561     4082.00000
    73.9692     4072.00000
    73.9823     3992.00000
    73.9955     3935.00000
    74.0086     4003.00000
    74.0217     3667.00000
    74.0349     3463.00000
    74.0480     3298.00000
    74.0611     3118.00000
    74.0742     2944.00000
    74.0874     2872.00000
    74.1005     2745.00000
    74.1136     2666.00000
    74.1268     2572.00000
    74.1399     2667.00000
    74.1530     2538.00000
    74.1662     2553.00000
    74.1793     2529.00000
    74.1924     2553.00000
    74.2056     2499.00000
    74.2187     2483.00000
    74.2318     2555.00000
    74.2449     2457.00000
    74.2581     2540.00000
    74.2712     2552.00000
    74.2843     2477.00000
    74.2975     2506.00000
    74.3106     2523.00000
    74.3237     2491.00000
    74.3369     2467.00000
    74.3500     2436.00000
    74.3631     2389.00000
    74.3762     2420.00000
    74.3894     2460.00000
    74.4025     2419.00000
    74.4156     2393.00000
    74.4288     2477.00000
    74.4419     2468.00000
    74.4550     2316.00000
    74.4682     2434.00000
    74.4813     2460.00000
    74.4944     2397.00000
    74.5075     2447.00000
    74.5207     2416.00000
    74.5338     2445.00000
    74.5469     2523.00000
    74.5601     2463.00000
    74.5732     2419.00000
    74.5863     2379.00000
    74.5995     2417.00000
    74.6126     2456.00000
    74.6257     2435.00000
    74.6388     2428.00000
    74.6520     2379.00000
    74.6651     2475.00000
    74.6782     2436.00000
    74.6914     2452.00000
    74.7045     2447.00000
    74.7176     2352.00000
    74.7308     2441.00000
    74.7439     2446.00000
    74.7570     2514.00000
    74.7701     2463.00000
    74.7833     2348.00000
    74.7964     2394.00000
    74.8095     2510.00000
    74.8227     2406.00000
    74.8358     2341.00000
    74.8489     2408.00000
    74.8621     2386.00000
    74.8752     2385.00000
    74.8883     2505.00000
    74.9015     2488.00000
    74.9146     2401.00000
    74.9277     2429.00000
    74.9408     2441.00000
    74.9540     2442.00000
    74.9671     2413.00000
    74.9802     2453.00000
    74.9934     2426.00000
    75.0065     2434.00000
    75.0196     2359.00000
    75.0328     2401.00000
    75.0459     2467.00000
    75.0590     2413.00000
    75.0722     2443.00000
    75.0853     2424.00000
    75.0984     2413.00000
    75.1115     2413.00000
    75.1247     2482.00000
    75.1378     2406.00000
    75.1509     2470.00000
    75.1641     2359.00000
    75.1772     2463.00000
    75.1903     2436.00000
    75.2035     2412.00000
    75.2166     2489.00000
    75.2297     2486.00000
    75.2428     2407.00000
    75.2560     2562.00000
    75.2691     2534.00000
    75.2822     2572.00000
    75.2954     2587.00000
    75.3085     2515.00000
    75.3216     2511.00000
    75.3348     2488.00000
    75.3479     2506.00000
    75.3610     2449.00000
    75.3741     2594.00000
    75.3873     2492.00000
    75.4004     2470.00000
    75.4135     2558.00000
    75.4267     2454.00000
    75.4398     2506.00000
    75.4529     2495.00000
    75.4661     2493.00000
    75.4792     2532.00000
    75.4923     2520.00000
    75.5054     2511.00000
    75.5186     2523.00000
    75.5317     2481.00000
    75.5448     2633.00000
    75.5580     2502.00000
    75.5711     2470.00000
    75.5842     2585.00000
    75.5974     2574.00000
    75.6105     2553.00000
    75.6236     2475.00000
    75.6367     2458.00000
    75.6499     2475.00000
    75.6630     2490.00000
    75.6761     2529.00000
    75.6893     2552.00000
    75.7024     2497.00000
    75.7155     2457.00000
    75.7287     2484.00000
    75.7418     2528.00000
    75.7549     2608.00000
    75.7681     2519.00000
    75.7812     2547.00000
    75.7943     2661.00000
    75.8074     2647.00000
    75.8206     2702.00000
    75.8337     2676.00000
    75.8468     2677.00000
    75.8600     2757.00000
    75.8731     2786.00000
    75.8862     2852.00000
    75.8994     2804.00000
    75.9125     2895.00000
    75.9256     2872.00000
    75.9387     3025.00000
    75.9519     2992.00000
    75.9650     3046.00000
    75.9781     3034.00000
    75.9913     3175.00000
    76.0044     3184.00000
    76.0175     3288.00000
    76.0307     3256.00000
    76.0438     3343.00000
    76.0569     3459.00000
    76.0701     3705.00000
    76.0832     3909.00000
    76.0963     4198.00000
    76.1094     4402.00000
    76.1226     4542.00000
    76.1357     4843.00000
    76.1488     4882.00000
    76.1620     4807.00000
    76.1751     4686.00000
    76.1882     4599.00000
    76.2014     4226.00000
    76.2145     4115.00000
    76.2276     3973.00000
    76.2407     3679.00000
    76.2539     3471.00000
    76.2670     3488.00000
    76.2801     3302.00000
    76.2933     3284.00000
    76.3064     3396.00000
    76.3195     3446.00000
    76.3327     3416.00000
    76.3458     3571.00000
    76.3589     3721.00000
    76.3720     3721.00000
    76.3852     3639.00000
    76.3983     3561.00000
    76.4114     3370.00000
    76.4246     3319.00000
    76.4377     3227.00000
    76.4508     3176.00000
    76.4640     3055.00000
    76.4771     2950.00000
    76.4902     2822.00000
    76.5033     2716.00000
    76.5165     2890.00000
    76.5296     2774.00000
    76.5427     2844.00000
    76.5559     2721.00000
    76.5690     2841.00000
    76.5821     2795.00000
    76.5953     2854.00000
    76.6084     2898.00000
    76.6215     3086.00000
    76.6347     3195.00000
    76.6478     3259.00000
    76.6609     3557.00000
    76.6740     3727.00000
    76.6872     3951.00000
    76.7003     4091.00000
    76.7134     4242.00000
    76.7266     4325.00000
    76.7397     4556.00000
    76.7528     4491.00000
    76.7660     4387.00000
    76.7791     4474.00000
    76.7922     4050.00000
    76.8053     3921.00000
    76.8185     3648.00000
    76.8316     3476.00000
    76.8447     3287.00000
    76.8579     3289.00000
    76.8710     3213.00000
    76.8841     3229.00000
    76.8973     3154.00000
    76.9104     3355.00000
    76.9235     3282.00000
    76.9366     3321.00000
    76.9498     3466.00000
    76.9629     3518.00000
    76.9760     3440.00000
    76.9892     3504.00000
    77.0023     3354.00000
    77.0154     3307.00000
    77.0286     3119.00000
    77.0417     3094.00000
    77.0548     2883.00000
    77.0679     2800.00000
    77.0811     2715.00000
    77.0942     2660.00000
    77.1073     2607.00000
    77.1205     2516.00000
    77.1336     2624.00000
    77.1467     2482.00000
    77.1599     2576.00000
    77.1730     2495.00000
    77.1861     2538.00000
    77.1993     2520.00000
    77.2124     2585.00000
    77.2255     2459.00000
    77.2386     2569.00000
    77.2518     2594.00000
    77.2649     2499.00000
    77.2780     2501.00000
    77.2912     2485.00000
    77.3043     2588.00000
    77.3174     2649.00000
    77.3306     2462.00000
    77.3437     2673.00000
    77.3568     2542.00000
    77.3699     2640.00000
    77.3831     2583.00000
    77.3962     2645.00000
    77.4093     2707.00000
    77.4225     2744.00000
    77.4356     2904.00000
    77.4487     3032.00000
    77.4619     3055.00000
    77.4750     3156.00000
    77.4881     3195.00000
    77.5013     3202.00000
    77.5144     3210.00000
    77.5275     3045.00000
    77.5406     2961.00000
    77.5538     2805.00000
    77.5669     2700.00000
    77.5800     2736.00000
    77.5932     2708.00000
    77.6063     2609.00000
    77.6194     2608.00000
    77.6326     2573.00000
    77.6457     2793.00000
    77.6588     2658.00000
    77.6719     2750.00000
    77.6851     2859.00000
    77.6982     2884.00000
    77.7113     2842.00000
    77.7245     2788.00000
    77.7376     2826.00000
    77.7507     2852.00000
    77.7639     2823.00000
    77.7770     2758.00000
    77.7901     2669.00000
    77.8032     2633.00000
    77.8164     2636.00000
    77.8295     2575.00000
    77.8426     2568.00000
    77.8558     2665.00000
    77.8689     2576.00000
    77.8820     2631.00000
    77.8952     2538.00000
    77.9083     2675.00000
    77.9214     2541.00000
    77.9345     2710.00000
    77.9477     2790.00000
    77.9608     2914.00000
    77.9739     2877.00000
    77.9871     2864.00000
    78.0002     2879.00000
    78.0133     2963.00000
    78.0265     2892.00000
    78.0396     2767.00000
    78.0527     2813.00000
    78.0658     2731.00000
    78.0790     2704.00000
    78.0921     2738.00000
    78.1052     2824.00000
    78.1184     2718.00000
    78.1315     2748.00000
    78.1446     2811.00000
    78.1578     3003.00000
    78.1709     3195.00000
    78.1840     3310.00000
    78.1972     3387.00000
    78.2103     3579.00000
    78.2234     3509.00000
    78.2365     3582.00000
    78.2497     3608.00000
    78.2628     3416.00000
    78.2759     3573.00000
    78.2891     3689.00000
    78.3022     3525.00000
    78.3153     3275.00000
    78.3285     3276.00000
    78.3416     3372.00000
    78.3547     3330.00000
    78.3679     3221.00000
    78.3810     3271.00000
    78.3941     3265.00000
    78.4072     3238.00000
    78.4204     3422.00000
    78.4335     3606.00000
    78.4466     3911.00000
    78.4598     3923.00000
    78.4729     4042.00000
    78.4860     4330.00000
    78.4992     4378.00000
    78.5123     4483.00000
    78.5254     4307.00000
    78.5385     4395.00000
    78.5517     4314.00000
    78.5648     4293.00000
    78.5779     4169.00000
    78.5911     4109.00000
    78.6042     4152.00000
    78.6173     4250.00000
    78.6305     4154.00000
    78.6436     4177.00000
    78.6567     4244.00000
    78.6698     4307.00000
    78.6830     4065.00000
    78.6961     4138.00000
    78.7092     4029.00000
    78.7224     4211.00000
    78.7355     3979.00000
    78.7486     3940.00000
    78.7618     3929.00000
    78.7749     3601.00000
    78.7880     3416.00000
    78.8011     3412.00000
    78.8143     3443.00000
    78.8274     3398.00000
    78.8405     3378.00000
    78.8537     3390.00000
    78.8668     3342.00000
    78.8799     3374.00000
    78.8931     3281.00000
    78.9062     3241.00000
    78.9193     3253.00000
    78.9324     3176.00000
    78.9456     3098.00000
    78.9587     3007.00000
    78.9718     2966.00000
    78.9850     2915.00000
    78.9981     2876.00000
    79.0112     2863.00000
    79.0244     2823.00000
    79.0375     2798.00000
    79.0506     2758.00000
    79.0638     2720.00000
    79.0769     2733.00000
    79.0900     2802.00000
    79.1031     2658.00000
    79.1163     2736.00000
    79.1294     2865.00000
    79.1425     2982.00000
    79.1557     3099.00000
    79.1688     3001.00000
    79.1819     3150.00000
    79.1951     3390.00000
    79.2082     3416.00000
    79.2213     3729.00000
    79.2345     3804.00000
    79.2476     4047.00000
    79.2607     3999.00000
    79.2738     3871.00000
    79.2870     3740.00000
    79.3001     3668.00000
    79.3132     3401.00000
    79.3264     3260.00000
    79.3395     3202.00000
    79.3526     3163.00000
    79.3658     3242.00000
    79.3789     3019.00000
    79.3920     3268.00000
    79.4051     3333.00000
    79.4183     3399.00000
    79.4314     3324.00000
    79.4445     3439.00000
    79.4577     3470.00000
    79.4708     3513.00000
    79.4839     3541.00000
    79.4971     3563.00000
    79.5102     3344.00000
    79.5233     3267.00000
    79.5364     3230.00000
    79.5496     3062.00000
    79.5627     2939.00000
    79.5758     2934.00000
    79.5890     3008.00000
    79.6021     2817.00000
    79.6152     2893.00000
    79.6284     2926.00000
    79.6415     2797.00000
    79.6546     2941.00000
    79.6677     2886.00000
    79.6809     3021.00000
    79.6940     2970.00000
    79.7071     3052.00000
    79.7203     2882.00000
    79.7334     2909.00000
    79.7465     3018.00000
    79.7597     3067.00000
    79.7728     3143.00000
    79.7859     3222.00000
    79.7990     3366.00000
    79.8122     3424.00000
    79.8253     3692.00000
    79.8384     3916.00000
    79.8516     4202.00000
    79.8647     4380.00000
    79.8778     4557.00000
    79.8910     4862.00000
    79.9041     4999.00000
    79.9172     5016.00000
    79.9304     4706.00000
    79.9435     4451.00000
    79.9566     4189.00000
    79.9697     3887.00000
    79.9829     3814.00000
    79.9960     3679.00000
    80.0091     3532.00000
    80.0223     3555.00000
    80.0354     3616.00000
    80.0485     3538.00000
    80.0617     3600.00000
    80.0748     3833.00000
    80.0879     3948.00000
    80.1010     4292.00000
    80.1142     4692.00000
    80.1273     4765.00000
    80.1404     5214.00000
    80.1536     5424.00000
    80.1667     5659.00000
    80.1798     5909.00000
    80.1930     5761.00000
    80.2061     5811.00000
    80.2192     5721.00000
    80.2323     5591.00000
    80.2455     5592.00000
    80.2586     5730.00000
    80.2717     5700.00000
    80.2849     5841.00000
    80.2980     5833.00000
    80.3111     5454.00000
    80.3243     5374.00000
    80.3374     5037.00000
    80.3505     4660.00000
    80.3637     4658.00000
    80.3768     4665.00000
    80.3899     5114.00000
    80.4030     5242.00000
    80.4162     5432.00000
    80.4293     5397.00000
    80.4424     5310.00000
    80.4556     5283.00000
    80.4687     5097.00000
    80.4818     4983.00000
    80.4950     4842.00000
    80.5081     4988.00000
    80.5212     5010.00000
    80.5343     4908.00000
    80.5475     4985.00000
    80.5606     4844.00000
    80.5737     4446.00000
    80.5869     4376.00000
    80.6000     4071.00000
    80.6131     3946.00000
    80.6263     3836.00000
    80.6394     3789.00000
    80.6525     3765.00000
    80.6656     3606.00000
    80.6788     3602.00000
    80.6919     3447.00000
    80.7050     3487.00000
    80.7182     3385.00000
    80.7313     3505.00000
    80.7444     3387.00000
    80.7576     3417.00000
    80.7707     3449.00000
    80.7838     3600.00000
    80.7970     3671.00000
    80.8101     3671.00000
    80.8232     3678.00000
    80.8363     3591.00000
    80.8495     3710.00000
    80.8626     3562.00000
    80.8757     3449.00000
    80.8889     3450.00000
    80.9020     3501.00000
    80.9151     3430.00000
    80.9283     3447.00000
    80.9414     3400.00000
    80.9545     3429.00000
    80.9676     3419.00000
    80.9808     3431.00000
    80.9939     3227.00000
    81.0070     3153.00000
    81.0202     3094.00000
    81.0333     3024.00000
    81.0464     3018.00000
    81.0596     2991.00000
    81.0727     2957.00000
    81.0858     3012.00000
    81.0989     3000.00000
    81.1121     2824.00000
    81.1252     2915.00000
    81.1383     2819.00000
    81.1515     2894.00000
    81.1646     2972.00000
    81.1777     2932.00000
    81.1909     2846.00000
    81.2040     2872.00000
    81.2171     2951.00000
    81.2302     2859.00000
    81.2434     2734.00000
    81.2565     2692.00000
    81.2696     2643.00000
    81.2828     2648.00000
    81.2959     2649.00000
    81.3090     2625.00000
    81.3222     2544.00000
    81.3353     2579.00000
    81.3484     2520.00000
    81.3616     2645.00000
    81.3747     2563.00000
    81.3878     2562.00000
    81.4009     2572.00000
    81.4141     2561.00000
    81.4272     2578.00000
    81.4403     2583.00000
    81.4535     2614.00000
    81.4666     2560.00000
    81.4797     2570.00000
    81.4929     2647.00000
    81.5060     2548.00000
    81.5191     2613.00000
    81.5322     2539.00000
    81.5454     2579.00000
    81.5585     2651.00000
    81.5716     2554.00000
    81.5848     2678.00000
    81.5979     2712.00000
    81.6110     2744.00000
    81.6242     2826.00000
    81.6373     2991.00000
    81.6504     2893.00000
    81.6636     3046.00000
    81.6767     3216.00000
    81.6898     3403.00000
    81.7029     3377.00000
    81.7161     3440.00000
    81.7292     3624.00000
    81.7423     3776.00000
    81.7555     3723.00000
    81.7686     3675.00000
    81.7817     3767.00000
    81.7949     3746.00000
    81.8080     3575.00000
    81.8211     3351.00000
    81.8342     3228.00000
    81.8474     3135.00000
    81.8605     3080.00000
    81.8736     2988.00000
    81.8868     2948.00000
    81.8999     2934.00000
    81.9130     2914.00000
    81.9262     3090.00000
    81.9393     3077.00000
    81.9524     3229.00000
    81.9655     3229.00000
    81.9787     3258.00000
    81.9918     3440.00000
    82.0049     3414.00000
    82.0181     3416.00000
    82.0312     3440.00000
    82.0443     3334.00000
    82.0575     3517.00000
    82.0706     3376.00000
    82.0837     3266.00000
    82.0968     3175.00000
    82.1100     3119.00000
    82.1231     3112.00000
    82.1362     2988.00000
    82.1494     2853.00000
    82.1625     2852.00000
    82.1756     2811.00000
    82.1888     2738.00000
    82.2019     2746.00000
    82.2150     2714.00000
    82.2281     2587.00000
    82.2413     2813.00000
    82.2544     2749.00000
    82.2675     2809.00000
    82.2807     2731.00000
    82.2938     2911.00000
    82.3069     2916.00000
    82.3201     2870.00000
    82.3332     2885.00000
    82.3463     2973.00000
    82.3595     2972.00000
    82.3726     3091.00000
    82.3857     3033.00000
    82.3988     3097.00000
    82.4120     3374.00000
    82.4251     3515.00000
    82.4382     3719.00000
    82.4514     3682.00000
    82.4645     3733.00000
    82.4776     3647.00000
    82.4908     3381.00000
    82.5039     3099.00000
    82.5170     2999.00000
    82.5302     2814.00000
    82.5433     2897.00000
    82.5564     2729.00000
    82.5695     2726.00000
    82.5827     2657.00000
    82.5958     2758.00000
    82.6089     2743.00000
    82.6221     2646.00000
    82.6352     2788.00000
    82.6483     2812.00000
    82.6615     2892.00000
    82.6746     2904.00000
    82.6877     3020.00000
    82.7008     3062.00000
    82.7140     3149.00000
    82.7271     3047.00000
    82.7402     2983.00000
    82.7534     2783.00000
    82.7665     2820.00000
    82.7796     2675.00000
    82.7928     2614.00000
    82.8059     2561.00000
    82.8190     2634.00000
    82.8321     2637.00000
    82.8453     2476.00000
    82.8584     2523.00000
    82.8715     2504.00000
    82.8847     2536.00000
    82.8978     2512.00000
    82.9109     2551.00000
    82.9241     2522.00000
    82.9372     2529.00000
    82.9503     2485.00000
    82.9634     2564.00000
    82.9766     2563.00000
    82.9897     2528.00000
    83.0028     2552.00000
    83.0160     2639.00000
    83.0291     2597.00000
    83.0422     2728.00000
    83.0554     2754.00000
    83.0685     2803.00000
    83.0816     2641.00000
    83.0947     2823.00000
    83.1079     2703.00000
    83.1210     2718.00000
    83.1341     2788.00000
    83.1473     2748.00000
    83.1604     2741.00000
    83.1735     2726.00000
    83.1867     2753.00000
    83.1998     2802.00000
    83.2129     2761.00000
    83.2261     2717.00000
    83.2392     2754.00000
    83.2523     2748.00000
    83.2654     2745.00000
    83.2786     2750.00000
    83.2917     2849.00000
    83.3048     2825.00000
    83.3180     2896.00000
    83.3311     2915.00000
    83.3442     2981.00000
    83.3574     3214.00000
    83.3705     3329.00000
    83.3836     3387.00000
    83.3967     3446.00000
    83.4099     3540.00000
    83.4230     3333.00000
    83.4361     3325.00000
    83.4493     3057.00000
    83.4624     2936.00000
    83.4755     2853.00000
    83.4887     2778.00000
    83.5018     2751.00000
    83.5149     2794.00000
    83.5281     2589.00000
    83.5412     2604.00000
    83.5543     2637.00000
    83.5674     2720.00000
    83.5806     2712.00000
    83.5937     2841.00000
    83.6068     2781.00000
    83.6200     2669.00000
    83.6331     2895.00000
    83.6462     2786.00000
    83.6594     2839.00000
    83.6725     2912.00000
    83.6856     2782.00000
    83.6987     2824.00000
    83.7119     2647.00000
    83.7250     2629.00000
    83.7381     2518.00000
    83.7513     2510.00000
    83.7644     2540.00000
    83.7775     2600.00000
    83.7907     2427.00000
    83.8038     2437.00000
    83.8169     2523.00000
    83.8300     2467.00000
    83.8432     2505.00000
    83.8563     2539.00000
    83.8694     2466.00000
    83.8826     2430.00000
    83.8957     2460.00000
    83.9088     2463.00000
    83.9220     2538.00000
    83.9351     2448.00000
    83.9482     2409.00000
    83.9613     2474.00000
    83.9745     2357.00000
    83.9876     2482.00000
    84.0007     2367.00000
    84.0139     2498.00000
    84.0270     2424.00000
    84.0401     2336.00000
    84.0533     2525.00000
    84.0664     2396.00000
    84.0795     2511.00000
    84.0927     2514.00000
    84.1058     2358.00000
    84.1189     2418.00000
    84.1320     2398.00000
    84.1452     2344.00000
    84.1583     2408.00000
    84.1714     2404.00000
    84.1846     2409.00000
    84.1977     2420.00000
    84.2108     2363.00000
    84.2240     2455.00000
    84.2371     2485.00000
    84.2502     2468.00000
    84.2633     2552.00000
    84.2765     2514.00000
    84.2896     2575.00000
    84.3027     2562.00000
    84.3159     2658.00000
    84.3290     2624.00000
    84.3421     2595.00000
    84.3553     2630.00000
    84.3684     2657.00000
    84.3815     2638.00000
    84.3946     2602.00000
    84.4078     2572.00000
    84.4209     2514.00000
    84.4340     2591.00000
    84.4472     2530.00000
    84.4603     2435.00000
    84.4734     2507.00000
    84.4866     2524.00000
    84.4997     2458.00000
    84.5128     2502.00000
    84.5260     2467.00000
    84.5391     2465.00000
    84.5522     2548.00000
    84.5653     2557.00000
    84.5785     2435.00000
    84.5916     2506.00000
    84.6047     2439.00000
    84.6179     2492.00000
    84.6310     2516.00000
    84.6441     2539.00000
    84.6573     2505.00000
    84.6704     2565.00000
    84.6835     2455.00000
    84.6966     2482.00000
    84.7098     2463.00000
    84.7229     2473.00000
    84.7360     2564.00000
    84.7492     2457.00000
    84.7623     2509.00000
    84.7754     2551.00000
    84.7886     2540.00000
    84.8017     2440.00000
    84.8148     2467.00000
    84.8279     2427.00000
    84.8411     2555.00000
    84.8542     2437.00000
    84.8673     2526.00000
    84.8805     2458.00000
    84.8936     2418.00000
    84.9067     2605.00000
    84.9199     2469.00000
    84.9330     2540.00000
    84.9461     2491.00000
    84.9593     2595.00000
    84.9724     2769.00000
    84.9855     2680.00000
    84.9986     2726.00000
    85.0118     2677.00000
    85.0249     2722.00000
    85.0380     2883.00000
    85.0512     2964.00000
    85.0643     2983.00000
    85.0774     2957.00000
    85.0906     2969.00000
    85.1037     2997.00000
    85.1168     2942.00000
    85.1299     3060.00000
    85.1431     3088.00000
    85.1562     3088.00000
    85.1693     3229.00000
    85.1825     3303.00000
    85.1956     3285.00000
    85.2087     3379.00000
    85.2219     3332.00000
    85.2350     3230.00000
    85.2481     3291.00000
    85.2612     3287.00000
    85.2744     3466.00000
    85.2875     3513.00000
    85.3006     3727.00000
    85.3138     3824.00000
    85.3269     3862.00000
    85.3400     3914.00000
    85.3532     4189.00000
    85.3663     4379.00000
    85.3794     4346.00000
    85.3925     4313.00000
    85.4057     4369.00000
    85.4188     4447.00000
    85.4319     4015.00000
    85.4451     3945.00000
    85.4582     3712.00000
    85.4713     3584.00000
    85.4845     3593.00000
    85.4976     3365.00000
    85.5107     3304.00000
    85.5238     3301.00000
    85.5370     3363.00000
    85.5501     3341.00000
    85.5632     3333.00000
    85.5764     3228.00000
    85.5895     3178.00000
    85.6026     3278.00000
    85.6158     3308.00000
    85.6289     3258.00000
    85.6420     3378.00000
    85.6552     3255.00000
    85.6683     3304.00000
    85.6814     3325.00000
    85.6945     3165.00000
    85.7077     2958.00000
    85.7208     3002.00000
    85.7339     2797.00000
    85.7471     2804.00000
    85.7602     2748.00000
    85.7733     2844.00000
    85.7865     2739.00000
    85.7996     2712.00000
    85.8127     2653.00000
    85.8259     2585.00000
    85.8390     2596.00000
    85.8521     2495.00000
    85.8652     2460.00000
    85.8784     2594.00000
    85.8915     2523.00000
    85.9046     2497.00000
    85.9178     2520.00000
    85.9309     2575.00000
    85.9440     2527.00000
    85.9572     2673.00000
    85.9703     2663.00000
    85.9834     2637.00000
    85.9965     2640.00000
    86.0097     2632.00000
    86.0228     2739.00000
    86.0359     2890.00000
    86.0491     2931.00000
    86.0622     3011.00000
    86.0753     3042.00000
    86.0885     3136.00000
    86.1016     3097.00000
    86.1147     3103.00000
    86.1278     2959.00000
    86.1410     2921.00000
    86.1541     2896.00000
    86.1672     2817.00000
    86.1804     2775.00000
    86.1935     2565.00000
    86.2066     2633.00000
    86.2198     2578.00000
    86.2329     2612.00000
    86.2460     2627.00000
    86.2591     2619.00000
    86.2723     2572.00000
    86.2854     2707.00000
    86.2985     2652.00000
    86.3117     2720.00000
    86.3248     2650.00000
    86.3379     2696.00000
    86.3511     2712.00000
    86.3642     2797.00000
    86.3773     2977.00000
    86.3904     2758.00000
    86.4036     2854.00000
    86.4167     2727.00000
    86.4298     2732.00000
    86.4430     2773.00000
    86.4561     2575.00000
    86.4692     2719.00000
    86.4824     2668.00000
    86.4955     2764.00000
    86.5086     2704.00000
    86.5218     2830.00000
    86.5349     2711.00000
    86.5480     2940.00000
    86.5611     2930.00000
    86.5743     3061.00000
    86.5874     3213.00000
    86.6005     3258.00000
    86.6137     3313.00000
    86.6268     3315.00000
    86.6399     3218.00000
    86.6531     3126.00000
    86.6662     3090.00000
    86.6793     2982.00000
    86.6925     2880.00000
    86.7056     2796.00000
    86.7187     2793.00000
    86.7318     2741.00000
    86.7450     2705.00000
    86.7581     2661.00000
    86.7712     2697.00000
    86.7844     2683.00000
    86.7975     2710.00000
    86.8106     2722.00000
    86.8238     2723.00000
    86.8369     2732.00000
    86.8500     2890.00000
    86.8631     2962.00000
    86.8763     2926.00000
    86.8894     2935.00000
    86.9025     2973.00000
    86.9157     2915.00000
    86.9288     2849.00000
    86.9419     2865.00000
    86.9551     2726.00000
    86.9682     2811.00000
    86.9813     2755.00000
    86.9944     2804.00000
    87.0076     2763.00000
    87.0207     2856.00000
    87.0338     2963.00000
    87.0470     3031.00000
    87.0601     3197.00000
    87.0732     3216.00000
    87.0864     3285.00000
    87.0995     3341.00000
    87.1126     3526.00000
    87.1257     3552.00000
    87.1389     3560.00000
    87.1520     3521.00000
    87.1651     3391.00000
    87.1783     3140.00000
    87.1914     3009.00000
    87.2045     2961.00000
    87.2177     2929.00000
    87.2308     2882.00000
    87.2439     2825.00000
    87.2570     2759.00000
    87.2702     2747.00000
    87.2833     2750.00000
    87.2964     2760.00000
    87.3096     2797.00000
    87.3227     2773.00000
    87.3358     2836.00000
    87.3490     2863.00000
    87.3621     2899.00000
    87.3752     3044.00000
    87.3884     2999.00000
    87.4015     2990.00000
    87.4146     2980.00000
    87.4277     3007.00000
    87.4409     2903.00000
    87.4540     3027.00000
    87.4671     2846.00000
    87.4803     2821.00000
    87.4934     2826.00000
    87.5065     2812.00000
    87.5197     2768.00000
    87.5328     2782.00000
    87.5459     2767.00000
    87.5590     2872.00000
    87.5722     2848.00000
    87.5853     2920.00000
    87.5984     3033.00000
    87.6116     3023.00000
    87.6247     3253.00000
    87.6378     3489.00000
    87.6510     3506.00000
    87.6641     3764.00000
    87.6772     3532.00000
    87.6904     3363.00000
    87.7035     3281.00000
    87.7166     3107.00000
    87.7297     3114.00000
    87.7429     2975.00000
    87.7560     2810.00000
    87.7691     2901.00000
    87.7823     2779.00000
    87.7954     2864.00000
    87.8085     2792.00000
    87.8217     2886.00000
    87.8348     2773.00000
    87.8479     2754.00000
    87.8610     2792.00000
    87.8742     2832.00000
    87.8873     2885.00000
    87.9004     2935.00000
    87.9136     3056.00000
    87.9267     3157.00000
    87.9398     3153.00000
    87.9530     3120.00000
    87.9661     3165.00000
    87.9792     3062.00000
    87.9923     3122.00000
    88.0055     3197.00000
    88.0186     3228.00000
    88.0317     3270.00000
    88.0449     3408.00000
    88.0580     3679.00000
    88.0711     3637.00000
    88.0843     3699.00000
    88.0974     3710.00000
    88.1105     3889.00000
    88.1236     3747.00000
    88.1368     3712.00000
    88.1499     3639.00000
    88.1630     3431.00000
    88.1762     3208.00000
    88.1893     3234.00000
    88.2024     3001.00000
    88.2156     2891.00000
    88.2287     2860.00000
    88.2418     2979.00000
    88.2550     2964.00000
    88.2681     2901.00000
    88.2812     2970.00000
    88.2943     3062.00000
    88.3075     3176.00000
    88.3206     3131.00000
    88.3337     3195.00000
    88.3469     3324.00000
    88.3600     3402.00000
    88.3731     3291.00000
    88.3863     3404.00000
    88.3994     3293.00000
    88.4125     3301.00000
    88.4256     3233.00000
    88.4388     3065.00000
    88.4519     2997.00000
    88.4650     2932.00000
    88.4782     2855.00000
    88.4913     2699.00000
    88.5044     2742.00000
    88.5176     2687.00000
    88.5307     2658.00000
    88.5438     2622.00000
    88.5569     2644.00000
    88.5701     2679.00000
    88.5832     2595.00000
    88.5963     2663.00000
    88.6095     2687.00000
    88.6226     2666.00000
    88.6357     2683.00000
    88.6489     2652.00000
    88.6620     2622.00000
    88.6751     2583.00000
    88.6882     2585.00000
    88.7014     2661.00000
    88.7145     2642.00000
    88.7276     2668.00000
    88.7408     2581.00000
    88.7539     2617.00000
    88.7670     2504.00000
    88.7802     2699.00000
    88.7933     2679.00000
    88.8064     2714.00000
    88.8196     2743.00000
    88.8327     2813.00000
    88.8458     2997.00000
    88.8589     2989.00000
    88.8721     3184.00000
    88.8852     3329.00000
    88.8983     3323.00000
    88.9115     3315.00000
    88.9246     3199.00000
    88.9377     3239.00000
    88.9509     3059.00000
    88.9640     3067.00000
    88.9771     2846.00000
    88.9902     2839.00000
    89.0034     2778.00000
    89.0165     2770.00000
    89.0296     2703.00000
    89.0428     2697.00000
    89.0559     2747.00000
    89.0690     2785.00000
    89.0822     2784.00000
    89.0953     2744.00000
    89.1084     2754.00000
    89.1216     2750.00000
    89.1347     2816.00000
    89.1478     2839.00000
    89.1609     2848.00000
    89.1741     2928.00000
    89.1872     2987.00000
    89.2003     2972.00000
    89.2135     2840.00000
    89.2266     2838.00000
    89.2397     2903.00000
    89.2529     2950.00000
    89.2660     2884.00000
    89.2791     2982.00000
    89.2922     2957.00000
    89.3054     2964.00000
    89.3185     2820.00000
    89.3316     2800.00000
    89.3448     2938.00000
    89.3579     2882.00000
    89.3710     2776.00000
    89.3842     2650.00000
    89.3973     2751.00000
    89.4104     2606.00000
    89.4235     2640.00000
    89.4367     2654.00000
    89.4498     2657.00000
    89.4629     2552.00000
    89.4761     2569.00000
    89.4892     2610.00000
    89.5023     2528.00000
    89.5155     2625.00000
    89.5286     2686.00000
    89.5417     2692.00000
    89.5548     2664.00000
    89.5680     2717.00000
    89.5811     2777.00000
    89.5942     2662.00000
    89.6074     2812.00000
    89.6205     2781.00000
    89.6336     2867.00000
    89.6468     2867.00000
    89.6599     2897.00000
    89.6730     2909.00000
    89.6861     2940.00000
    89.6993     3010.00000
    89.7124     3050.00000
    89.7255     3401.00000
    89.7387     3423.00000
    89.7518     3539.00000
    89.7649     3650.00000
    89.7781     3717.00000
    89.7912     3536.00000
    89.8043     3598.00000
    89.8175     3341.00000
    89.8306     3117.00000
    89.8437     3145.00000
    89.8568     3146.00000
    89.8700     3077.00000
    89.8831     3175.00000
    89.8962     3161.00000
    89.9094     3107.00000
    89.9225     3256.00000
    89.9356     3363.00000
    89.9488     3426.00000
    89.9619     3589.00000
    89.9750     3594.00000
    89.9882     3637.00000
    90.0013     3676.00000
    90.0144     3676.00000
    90.0275     3751.00000
    90.0407     3723.00000
    90.0538     3702.00000
    90.0669     3747.00000
    90.0801     3543.00000
    90.0932     3407.00000
    90.1063     3468.00000
    90.1195     3188.00000
    90.1326     3139.00000
    90.1457     3121.00000
    90.1588     3091.00000
    90.1720     3052.00000
    90.1851     2993.00000
    90.1982     3011.00000
    90.2114     3023.00000
    90.2245     3093.00000
    90.2376     3160.00000
    90.2508     3253.00000
    90.2639     3272.00000
    90.2770     3317.00000
    90.2901     3472.00000
    90.3033     3530.00000
    90.3164     3563.00000
    90.3295     3484.00000
    90.3427     3583.00000
    90.3558     3518.00000
    90.3689     3278.00000
    90.3821     3255.00000
    90.3952     3147.00000
    90.4083     2966.00000
    90.4214     2890.00000
    90.4346     2746.00000
    90.4477     2796.00000
    90.4608     2712.00000
    90.4740     2618.00000
    90.4871     2751.00000
    90.5002     2746.00000
    90.5134     2707.00000
    90.5265     2787.00000
    90.5396     2753.00000
    90.5527     2884.00000
    90.5659     2999.00000
    90.5790     2941.00000
    90.5921     2898.00000
    90.6053     3023.00000
    90.6184     3143.00000
    90.6315     3239.00000
    90.6447     3075.00000
    90.6578     2990.00000
    90.6709     3012.00000
    90.6841     2881.00000
    90.6972     2973.00000
    90.7103     2909.00000
    90.7234     2916.00000
    90.7366     3033.00000
    90.7497     2956.00000
    90.7628     3002.00000
    90.7760     3037.00000
    90.7891     3112.00000
    90.8022     3134.00000
    90.8154     3109.00000
    90.8285     3091.00000
    90.8416     3013.00000
    90.8548     2960.00000
    90.8679     2950.00000
    90.8810     2783.00000
    90.8941     2769.00000
    90.9073     2894.00000
    90.9204     2835.00000
    90.9335     2801.00000
    90.9467     2887.00000
    90.9598     2834.00000
    90.9729     2887.00000
    90.9861     2927.00000
    90.9992     2868.00000
    91.0123     2857.00000
    91.0254     2999.00000
    91.0386     3141.00000
    91.0517     3206.00000
    91.0648     3429.00000
    91.0780     3396.00000
    91.0911     3458.00000
    91.1042     3565.00000
    91.1174     3635.00000
    91.1305     3584.00000
    91.1436     3545.00000
    91.1567     3623.00000
    91.1699     3532.00000
    91.1830     3507.00000
    91.1961     3502.00000
    91.2093     3393.00000
    91.2224     3289.00000
    91.2355     3239.00000
    91.2487     3141.00000
    91.2618     2972.00000
    91.2749     2971.00000
    91.2880     2930.00000
    91.3012     2855.00000
    91.3143     2863.00000
    91.3274     2819.00000
    91.3406     2919.00000
    91.3537     3035.00000
    91.3668     3132.00000
    91.3800     3215.00000
    91.3931     3319.00000
    91.4062     3404.00000
    91.4193     3376.00000
    91.4325     3509.00000
    91.4456     3626.00000
    91.4587     3835.00000
    91.4719     3982.00000
    91.4850     4140.00000
    91.4981     4105.00000
    91.5113     4287.00000
    91.5244     4241.00000
    91.5375     4060.00000
    91.5507     3971.00000
    91.5638     3783.00000
    91.5769     3559.00000
    91.5900     3360.00000
    91.6032     3267.00000
    91.6163     3119.00000
    91.6294     2984.00000
    91.6426     2977.00000
    91.6557     2952.00000
    91.6688     2758.00000
    91.6820     2925.00000
    91.6951     2844.00000
    91.7082     2940.00000
    91.7213     2976.00000
    91.7345     3055.00000
    91.7476     3094.00000
    91.7607     3172.00000
    91.7739     3259.00000
    91.7870     3324.00000
    91.8001     3345.00000
    91.8133     3420.00000
    91.8264     3286.00000
    91.8395     3277.00000
    91.8526     3028.00000
    91.8658     2998.00000
    91.8789     2892.00000
    91.8920     2910.00000
    91.9052     2873.00000
    91.9183     2805.00000
    91.9314     2624.00000
    91.9446     2792.00000
    91.9577     2764.00000
    91.9708     2658.00000
    91.9840     2688.00000
    91.9971     2766.00000
    92.0102     2768.00000
    92.0233     2740.00000
    92.0365     2821.00000
    92.0496     2877.00000
    92.0627     2831.00000
    92.0759     2968.00000
    92.0890     2873.00000
    92.1021     3018.00000
    92.1153     3018.00000
    92.1284     2923.00000
    92.1415     2936.00000
    92.1546     2994.00000
    92.1678     3005.00000
    92.1809     3013.00000
    92.1940     2936.00000
    92.2072     2873.00000
    92.2203     2903.00000
    92.2334     2935.00000
    92.2466     2871.00000
    92.2597     2938.00000
    92.2728     2983.00000
    92.2859     2923.00000
    92.2991     2986.00000
    92.3122     2922.00000
    92.3253     2975.00000
    92.3385     3042.00000
    92.3516     2982.00000
    92.3647     3120.00000
    92.3779     3369.00000
    92.3910     3257.00000
    92.4041     3363.00000
    92.4173     3507.00000
    92.4304     3664.00000
    92.4435     3767.00000
    92.4566     3784.00000
    92.4698     3717.00000
    92.4829     3772.00000
    92.4960     3564.00000
    92.5092     3388.00000
    92.5223     3405.00000
    92.5354     3263.00000
    92.5486     2985.00000
    92.5617     3058.00000
    92.5748     2985.00000
    92.5879     2921.00000
    92.6011     2862.00000
    92.6142     2924.00000
    92.6273     2906.00000
    92.6405     2831.00000
    92.6536     2739.00000
    92.6667     2835.00000
    92.6799     2865.00000
    92.6930     2810.00000
    92.7061     3007.00000
    92.7192     2997.00000
    92.7324     2993.00000
    92.7455     2929.00000
    92.7586     3050.00000
    92.7718     3143.00000
    92.7849     3046.00000
    92.7980     2921.00000
    92.8112     2821.00000
    92.8243     2790.00000
    92.8374     2683.00000
    92.8505     2605.00000
    92.8637     2625.00000
    92.8768     2526.00000
    92.8899     2604.00000
    92.9031     2417.00000
    92.9162     2520.00000
    92.9293     2568.00000
    92.9425     2527.00000
    92.9556     2591.00000
    92.9687     2531.00000
    92.9819     2416.00000
    92.9950     2505.00000
    93.0081     2385.00000
    93.0212     2499.00000
    93.0344     2433.00000
    93.0475     2422.00000
    93.0606     2427.00000
    93.0738     2388.00000
    93.0869     2433.00000
    93.1000     2483.00000
    93.1132     2428.00000
    93.1263     2393.00000
    93.1394     2486.00000
    93.1525     2545.00000
    93.1657     2469.00000
    93.1788     2437.00000
    93.1919     2374.00000
    93.2051     2434.00000
    93.2182     2424.00000
    93.2313     2428.00000
    93.2445     2424.00000
    93.2576     2449.00000
    93.2707     2315.00000
    93.2839     2483.00000
    93.2970     2466.00000
    93.3101     2407.00000
    93.3232     2510.00000
    93.3364     2514.00000
    93.3495     2512.00000
    93.3626     2539.00000
    93.3758     2496.00000
    93.3889     2593.00000
    93.4020     2515.00000
    93.4152     2535.00000
    93.4283     2543.00000
    93.4414     2531.00000
    93.4545     2574.00000
    93.4677     2673.00000
    93.4808     2687.00000
    93.4939     2713.00000
    93.5071     2882.00000
    93.5202     2883.00000
    93.5333     2997.00000
    93.5465     3126.00000
    93.5596     3103.00000
    93.5727     3144.00000
    93.5858     3066.00000
    93.5990     3089.00000
    93.6121     2933.00000
    93.6252     2783.00000
    93.6384     2847.00000
    93.6515     2767.00000
    93.6646     2749.00000
    93.6778     2715.00000
    93.6909     2764.00000
    93.7040     2733.00000
    93.7171     2718.00000
    93.7303     2679.00000
    93.7434     2785.00000
    93.7565     2881.00000
    93.7697     2874.00000
    93.7828     2877.00000
    93.7959     2874.00000
    93.8091     3099.00000
    93.8222     3067.00000
    93.8353     3055.00000
    93.8484     2896.00000
    93.8616     2999.00000
    93.8747     3004.00000
    93.8878     2936.00000
    93.9010     2875.00000
    93.9141     2737.00000
    93.9272     2913.00000
    93.9404     2665.00000
    93.9535     2620.00000
    93.9666     2638.00000
    93.9798     2712.00000
    93.9929     2681.00000
    94.0060     2672.00000
    94.0191     2597.00000
    94.0323     2556.00000
    94.0454     2606.00000
    94.0585     2683.00000
    94.0717     2583.00000
    94.0848     2599.00000
    94.0979     2674.00000
    94.1111     2733.00000
    94.1242     2695.00000
    94.1373     2653.00000
    94.1505     2573.00000
    94.1636     2581.00000
    94.1767     2672.00000
    94.1898     2643.00000
    94.2030     2634.00000
    94.2161     2670.00000
    94.2292     2734.00000
    94.2424     2875.00000
    94.2555     2970.00000
    94.2686     2958.00000
    94.2818     3005.00000
    94.2949     3114.00000
    94.3080     3134.00000
    94.3211     3060.00000
    94.3343     2990.00000
    94.3474     3149.00000
    94.3605     3041.00000
    94.3737     3128.00000
    94.3868     3092.00000
    94.3999     3112.00000
    94.4131     3141.00000
    94.4262     3174.00000
    94.4393     3256.00000
    94.4524     3295.00000
    94.4656     3246.00000
    94.4787     3125.00000
    94.4918     3089.00000
    94.5050     2992.00000
    94.5181     2866.00000
    94.5312     2882.00000
    94.5444     2873.00000
    94.5575     2802.00000
    94.5706     2797.00000
    94.5837     2752.00000
    94.5969     2789.00000
    94.6100     2921.00000
    94.6231     2757.00000
    94.6363     2805.00000
    94.6494     2841.00000
    94.6625     2892.00000
    94.6757     2724.00000
    94.6888     2779.00000
    94.7019     2753.00000
    94.7150     2741.00000
    94.7282     2846.00000
    94.7413     2818.00000
    94.7544     2833.00000
    94.7676     2887.00000
    94.7807     2916.00000
    94.7938     2663.00000
    94.8070     2731.00000
    94.8201     2618.00000
    94.8332     2598.00000
    94.8464     2626.00000
    94.8595     2483.00000
    94.8726     2504.00000
    94.8857     2490.00000
    94.8989     2614.00000
    94.9120     2509.00000
    94.9251     2506.00000
    94.9383     2509.00000
    94.9514     2467.00000
    94.9645     2424.00000
    94.9777     2473.00000
    94.9908     2404.00000
    95.0039     2473.00000
    95.0170     2441.00000
    95.0302     2475.00000
    95.0433     2332.00000
    95.0564     2416.00000
    95.0696     2445.00000
    95.0827     2387.00000
    95.0958     2475.00000
    95.1090     2466.00000
    95.1221     2457.00000
    95.1352     2478.00000
    95.1484     2493.00000
    95.1615     2430.00000
    95.1746     2475.00000
    95.1877     2441.00000
    95.2009     2449.00000
    95.2140     2344.00000
    95.2271     2409.00000
    95.2403     2394.00000
    95.2534     2447.00000
    95.2665     2498.00000
    95.2797     2416.00000
    95.2928     2487.00000
    95.3059     2379.00000
    95.3190     2376.00000
    95.3322     2434.00000
    95.3453     2496.00000
    95.3584     2410.00000
    95.3716     2418.00000
    95.3847     2428.00000
    95.3978     2407.00000
    95.4110     2413.00000
    95.4241     2403.00000
    95.4372     2306.00000
    95.4503     2396.00000
    95.4635     2393.00000
    95.4766     2379.00000
    95.4897     2539.00000
    95.5029     2424.00000
    95.5160     2352.00000
    95.5291     2413.00000
    95.5423     2379.00000
    95.5554     2393.00000
    95.5685     2503.00000
    95.5816     2365.00000
    95.5948     2362.00000
    95.6079     2499.00000
    95.6210     2416.00000
    95.6342     2323.00000
    95.6473     2445.00000
    95.6604     2345.00000
    95.6736     2398.00000
    95.6867     2458.00000
    95.6998     2468.00000
    95.7130     2499.00000
    95.7261     2474.00000
    95.7392     2467.00000
    95.7523     2570.00000
    95.7655     2453.00000
    95.7786     2521.00000
    95.7917     2568.00000
    95.8049     2705.00000
    95.8180     2552.00000
    95.8311     2562.00000
    95.8443     2540.00000
    95.8574     2514.00000
    95.8705     2590.00000
    95.8836     2622.00000
    95.8968     2449.00000
    95.9099     2552.00000
    95.9230     2435.00000
    95.9362     2411.00000
    95.9493     2351.00000
    95.9624     2509.00000
    95.9756     2373.00000
    95.9887     2454.00000
    96.0018     2540.00000
    96.0149     2433.00000
    96.0281     2518.00000
    96.0412     2470.00000
    96.0543     2565.00000
    96.0675     2492.00000
    96.0806     2542.00000
    96.0937     2525.00000
    96.1069     2495.00000
    96.1200     2541.00000
    96.1331     2501.00000
    96.1463     2540.00000
    96.1594     2483.00000
    96.1725     2455.00000
    96.1856     2529.00000
    96.1988     2591.00000
    96.2119     2548.00000
    96.2250     2566.00000
    96.2382     2686.00000
    96.2513     2735.00000
    96.2644     2741.00000
    96.2776     2684.00000
    96.2907     2732.00000
    96.3038     2891.00000
    96.3169     3054.00000
    96.3301     3087.00000
    96.3432     3291.00000
    96.3563     3348.00000
    96.3695     3490.00000
    96.3826     3599.00000
    96.3957     3591.00000
    96.4089     3630.00000
    96.4220     3478.00000
    96.4351     3385.00000
    96.4482     3319.00000
    96.4614     3207.00000
    96.4745     3234.00000
    96.4876     3132.00000
    96.5008     3222.00000
    96.5139     3178.00000
    96.5270     3328.00000
    96.5402     3317.00000
    96.5533     3339.00000
    96.5664     3356.00000
    96.5796     3345.00000
    96.5927     3519.00000
    96.6058     3445.00000
    96.6189     3527.00000
    96.6321     3459.00000
    96.6452     3239.00000
    96.6583     3331.00000
    96.6715     3300.00000
    96.6846     3232.00000
    96.6977     3258.00000
    96.7109     3297.00000
    96.7240     3200.00000
    96.7371     3070.00000
    96.7502     3002.00000
    96.7634     2891.00000
    96.7765     2906.00000
    96.7896     2885.00000
    96.8028     2963.00000
    96.8159     2914.00000
    96.8290     2899.00000
    96.8422     3008.00000
    96.8553     2779.00000
    96.8684     3055.00000
    96.8815     2992.00000
    96.8947     2827.00000
    96.9078     2938.00000
    96.9209     2847.00000
    96.9341     2853.00000
    96.9472     2794.00000
    96.9603     2849.00000
    96.9735     2715.00000
    96.9866     2748.00000
    96.9997     2604.00000
    97.0128     2673.00000
    97.0260     2611.00000
    97.0391     2570.00000
    97.0522     2564.00000
    97.0654     2573.00000
    97.0785     2458.00000
    97.0916     2497.00000
    97.1048     2452.00000
    97.1179     2676.00000
    97.1310     2570.00000
    97.1442     2493.00000
    97.1573     2479.00000
    97.1704     2551.00000
    97.1835     2614.00000
    97.1967     2586.00000
    97.2098     2482.00000
    97.2229     2646.00000
    97.2361     2594.00000
    97.2492     2744.00000
    97.2623     2866.00000
    97.2755     2770.00000
    97.2886     2914.00000
    97.3017     2874.00000
    97.3148     2959.00000
    97.3280     3216.00000
    97.3411     3209.00000
    97.3542     3262.00000
    97.3674     3398.00000
    97.3805     3405.00000
    97.3936     3518.00000
    97.4068     3497.00000
    97.4199     3366.00000
    97.4330     3331.00000
    97.4462     3216.00000
    97.4593     3197.00000
    97.4724     3166.00000
    97.4855     2965.00000
    97.4987     2975.00000
    97.5118     2779.00000
    97.5249     2879.00000
    97.5381     2849.00000
    97.5512     2635.00000
    97.5643     2661.00000
    97.5775     2609.00000
    97.5906     2755.00000
    97.6037     2732.00000
    97.6168     2657.00000
    97.6300     2753.00000
    97.6431     2774.00000
    97.6562     2936.00000
    97.6694     2959.00000
    97.6825     2985.00000
    97.6956     2924.00000
    97.7088     3014.00000
    97.7219     2903.00000
    97.7350     2969.00000
    97.7481     2959.00000
    97.7613     3014.00000
    97.7744     2865.00000
    97.7875     2790.00000
    97.8007     2746.00000
    97.8138     2725.00000
    97.8269     2688.00000
    97.8401     2717.00000
    97.8532     2694.00000
    97.8663     2586.00000
    97.8794     2598.00000
    97.8926     2496.00000
    97.9057     2489.00000
    97.9188     2551.00000
    97.9320     2511.00000
    97.9451     2512.00000
    97.9582     2550.00000
    97.9714     2609.00000
    97.9845     2540.00000
    97.9976     2443.00000
    98.0107     2486.00000
    98.0239     2560.00000
    98.0370     2494.00000
    98.0501     2612.00000
    98.0633     2614.00000
    98.0764     2594.00000
    98.0895     2546.00000
    98.1027     2739.00000
    98.1158     2645.00000
    98.1289     2595.00000
    98.1421     2737.00000
    98.1552     2665.00000
    98.1683     2901.00000
    98.1814     2911.00000
    98.1946     2983.00000
    98.2077     2880.00000
    98.2208     3001.00000
    98.2340     2916.00000
    98.2471     3052.00000
    98.2602     3128.00000
    98.2734     3137.00000
    98.2865     3076.00000
    98.2996     3193.00000
    98.3128     3286.00000
    98.3259     3365.00000
    98.3390     3270.00000
    98.3521     3318.00000
    98.3653     3232.00000
    98.3784     3290.00000
    98.3915     3379.00000
    98.4047     3398.00000
    98.4178     3565.00000
    98.4309     3680.00000
    98.4441     3742.00000
    98.4572     3651.00000
    98.4703     3715.00000
    98.4834     3762.00000
    98.4966     3723.00000
    98.5097     3661.00000
    98.5228     3504.00000
    98.5360     3392.00000
    98.5491     3361.00000
    98.5622     3395.00000
    98.5754     3222.00000
    98.5885     3233.00000
    98.6016     3275.00000
    98.6147     3255.00000
    98.6279     3088.00000
    98.6410     3115.00000
    98.6541     3153.00000
    98.6673     3190.00000
    98.6804     3233.00000
    98.6935     3305.00000
    98.7067     3323.00000
    98.7198     3436.00000
    98.7329     3441.00000
    98.7460     3497.00000
    98.7592     3684.00000
    98.7723     3668.00000
    98.7854     3843.00000
    98.7986     3904.00000
    98.8117     4025.00000
    98.8248     4187.00000
    98.8380     4138.00000
    98.8511     4266.00000
    98.8642     4236.00000
    98.8773     4142.00000
    98.8905     4110.00000
    98.9036     4125.00000
    98.9167     4035.00000
    98.9299     4180.00000
    98.9430     4194.00000
    98.9561     4159.00000
    98.9693     4309.00000
    98.9824     4366.00000
    98.9955     4569.00000
    99.0087     4581.00000
    99.0218     4650.00000
    99.0349     4580.00000
    99.0480     4649.00000
    99.0612     4521.00000
    99.0743     4434.00000
    99.0874     4332.00000
    99.1006     4210.00000
    99.1137     4071.00000
    99.1268     3990.00000
    99.1400     3936.00000
    99.1531     3822.00000
    99.1662     3811.00000
    99.1793     3822.00000
    99.1925     3784.00000
    99.2056     3704.00000
    99.2187     3385.00000
    99.2319     3422.00000
    99.2450     3435.00000
    99.2581     3347.00000
    99.2713     3313.00000
    99.2844     3374.00000
    99.2975     3344.00000
    99.3107     3522.00000
    99.3238     3475.00000
    99.3369     3575.00000
    99.3500     3507.00000
    99.3632     3481.00000
    99.3763     3427.00000
    99.3894     3510.00000
    99.4026     3395.00000
    99.4157     3309.00000
    99.4288     3276.00000
    99.4420     3051.00000
    99.4551     3149.00000
    99.4682     3086.00000
    99.4813     2968.00000
    99.4945     2894.00000
    99.5076     2726.00000
    99.5207     2868.00000
    99.5339     2766.00000
    99.5470     2851.00000
    99.5601     2774.00000
    99.5733     2679.00000
    99.5864     2649.00000
    99.5995     2718.00000
    99.6126     2674.00000
    99.6258     2724.00000
    99.6389     2663.00000
    99.6520     2779.00000
    99.6652     2702.00000
    99.6783     2794.00000
    99.6914     2759.00000
    99.7046     2875.00000
    99.7177     2959.00000
    99.7308     2982.00000
    99.7439     3068.00000
    99.7571     3384.00000
    99.7702     3320.00000
    99.7833     3357.00000
    99.7965     3330.00000
    99.8096     3218.00000
    99.8227     3064.00000
    99.8359     3059.00000
    99.8490     3064.00000
    99.8621     2956.00000
    99.8753     2876.00000
    99.8884     2996.00000
    99.9015     3038.00000
    99.9146     2931.00000
    99.9278     2907.00000
    99.9409     2970.00000
    99.9540     2944.00000
    99.9672     2960.00000
    99.9803     2952.00000
    99.9934     2945.00000
