! Initial file:   D:\ZAKARY_OUAIL\MA_THESE\Deuxième_année_de_thèse\DRX\Manips_DRX\1st_NaTaO2F2_XRK900\NaTaO2F2-Lent_270°C.xrdml
! Initial format:  58
! WAVE (A):      1.54060     1.54060     1.00000
! REM : data have been multiplied by     1.0000
! X_data : 2 Theta (deg.)                                                                                                                                                                                                                                                  
! Y_data : Intensity (arb. units)                                                                                                                                                                                                                                          
!     X         Y
!--------------------------------------------------------------------------------
    10.0116     6289.00000
    10.0247     6441.00000
    10.0379     6385.00000
    10.0510     6455.00000
    10.0641     6412.00000
    10.0772     6347.00000
    10.0904     6325.00000
    10.1035     6237.00000
    10.1166     6267.00000
    10.1298     6407.00000
    10.1429     6257.00000
    10.1560     6279.00000
    10.1692     6225.00000
    10.1823     6105.00000
    10.1954     6129.00000
    10.2086     6225.00000
    10.2217     6300.00000
    10.2348     6227.00000
    10.2479     6277.00000
    10.2611     6232.00000
    10.2742     6241.00000
    10.2873     6237.00000
    10.3005     6206.00000
    10.3136     6140.00000
    10.3267     6210.00000
    10.3399     5945.00000
    10.3530     6174.00000
    10.3661     6244.00000
    10.3792     6151.00000
    10.3924     6090.00000
    10.4055     6018.00000
    10.4186     6275.00000
    10.4318     6192.00000
    10.4449     6128.00000
    10.4580     6186.00000
    10.4712     6171.00000
    10.4843     6079.00000
    10.4974     6118.00000
    10.5105     6026.00000
    10.5237     6116.00000
    10.5368     6086.00000
    10.5499     6088.00000
    10.5631     6061.00000
    10.5762     6085.00000
    10.5893     6051.00000
    10.6025     5998.00000
    10.6156     6095.00000
    10.6287     6083.00000
    10.6418     6131.00000
    10.6550     6008.00000
    10.6681     6048.00000
    10.6812     6068.00000
    10.6944     6068.00000
    10.7075     6197.00000
    10.7206     6246.00000
    10.7338     6262.00000
    10.7469     6303.00000
    10.7600     6358.00000
    10.7732     6142.00000
    10.7863     6160.00000
    10.7994     6330.00000
    10.8125     6489.00000
    10.8257     6326.00000
    10.8388     6377.00000
    10.8519     6339.00000
    10.8651     6447.00000
    10.8782     6379.00000
    10.8913     6625.00000
    10.9045     6642.00000
    10.9176     6946.00000
    10.9307     6841.00000
    10.9438     7085.00000
    10.9570     7355.00000
    10.9701     8015.00000
    10.9832     8642.00000
    10.9964     9477.00000
    11.0095    10900.00000
    11.0226    12623.00000
    11.0358    15786.00000
    11.0489    20412.00000
    11.0620    25467.00000
    11.0751    32667.00000
    11.0883    41388.00000
    11.1014    47605.00000
    11.1145    49847.00000
    11.1277    47678.00000
    11.1408    40828.00000
    11.1539    32911.00000
    11.1671    25546.00000
    11.1802    19692.00000
    11.1933    14373.00000
    11.2065    10918.00000
    11.2196     8868.00000
    11.2327     7763.00000
    11.2458     7108.00000
    11.2590     6784.00000
    11.2721     6716.00000
    11.2852     6380.00000
    11.2984     6223.00000
    11.3115     6369.00000
    11.3246     6340.00000
    11.3378     6160.00000
    11.3509     6079.00000
    11.3640     5935.00000
    11.3771     5981.00000
    11.3903     5889.00000
    11.4034     6020.00000
    11.4165     5868.00000
    11.4297     5989.00000
    11.4428     5780.00000
    11.4559     5905.00000
    11.4691     5857.00000
    11.4822     5910.00000
    11.4953     5895.00000
    11.5084     5863.00000
    11.5216     5924.00000
    11.5347     5756.00000
    11.5478     5719.00000
    11.5610     5762.00000
    11.5741     5892.00000
    11.5872     5754.00000
    11.6004     5741.00000
    11.6135     5833.00000
    11.6266     5833.00000
    11.6398     5638.00000
    11.6529     5853.00000
    11.6660     5715.00000
    11.6791     5788.00000
    11.6923     5864.00000
    11.7054     5778.00000
    11.7185     5659.00000
    11.7317     5634.00000
    11.7448     5739.00000
    11.7579     5807.00000
    11.7711     5752.00000
    11.7842     5720.00000
    11.7973     5729.00000
    11.8104     5605.00000
    11.8236     5649.00000
    11.8367     5713.00000
    11.8498     5622.00000
    11.8630     5640.00000
    11.8761     5723.00000
    11.8892     5674.00000
    11.9024     5750.00000
    11.9155     5584.00000
    11.9286     5709.00000
    11.9417     5668.00000
    11.9549     5463.00000
    11.9680     5566.00000
    11.9811     5673.00000
    11.9943     5400.00000
    12.0074     5656.00000
    12.0205     5591.00000
    12.0337     5643.00000
    12.0468     5779.00000
    12.0599     5483.00000
    12.0731     5626.00000
    12.0862     5675.00000
    12.0993     5640.00000
    12.1124     5480.00000
    12.1256     5555.00000
    12.1387     5503.00000
    12.1518     5512.00000
    12.1650     5496.00000
    12.1781     5551.00000
    12.1912     5665.00000
    12.2044     5622.00000
    12.2175     5671.00000
    12.2306     5510.00000
    12.2437     5598.00000
    12.2569     5637.00000
    12.2700     5581.00000
    12.2831     5502.00000
    12.2963     5470.00000
    12.3094     5528.00000
    12.3225     5503.00000
    12.3357     5535.00000
    12.3488     5704.00000
    12.3619     5620.00000
    12.3750     5508.00000
    12.3882     5440.00000
    12.4013     5552.00000
    12.4144     5327.00000
    12.4276     5445.00000
    12.4407     5355.00000
    12.4538     5466.00000
    12.4670     5528.00000
    12.4801     5474.00000
    12.4932     5515.00000
    12.5063     5580.00000
    12.5195     5386.00000
    12.5326     5402.00000
    12.5457     5336.00000
    12.5589     5418.00000
    12.5720     5324.00000
    12.5851     5482.00000
    12.5983     5412.00000
    12.6114     5428.00000
    12.6245     5294.00000
    12.6377     5331.00000
    12.6508     5379.00000
    12.6639     5550.00000
    12.6770     5398.00000
    12.6902     5455.00000
    12.7033     5437.00000
    12.7164     5228.00000
    12.7296     5395.00000
    12.7427     5474.00000
    12.7558     5361.00000
    12.7690     5405.00000
    12.7821     5331.00000
    12.7952     5453.00000
    12.8083     5227.00000
    12.8215     5414.00000
    12.8346     5244.00000
    12.8477     5317.00000
    12.8609     5230.00000
    12.8740     5232.00000
    12.8871     5432.00000
    12.9003     5239.00000
    12.9134     5151.00000
    12.9265     5285.00000
    12.9396     5285.00000
    12.9528     5263.00000
    12.9659     5230.00000
    12.9790     5227.00000
    12.9922     5201.00000
    13.0053     5296.00000
    13.0184     5221.00000
    13.0316     5234.00000
    13.0447     5156.00000
    13.0578     5260.00000
    13.0710     5389.00000
    13.0841     5060.00000
    13.0972     5249.00000
    13.1103     5176.00000
    13.1235     5276.00000
    13.1366     5282.00000
    13.1497     5296.00000
    13.1629     5225.00000
    13.1760     5241.00000
    13.1891     5215.00000
    13.2023     5338.00000
    13.2154     5362.00000
    13.2285     5367.00000
    13.2416     5117.00000
    13.2548     5200.00000
    13.2679     5176.00000
    13.2810     5271.00000
    13.2942     5198.00000
    13.3073     5198.00000
    13.3204     5269.00000
    13.3336     5222.00000
    13.3467     5202.00000
    13.3598     5230.00000
    13.3729     5203.00000
    13.3861     5128.00000
    13.3992     5148.00000
    13.4123     5154.00000
    13.4255     5188.00000
    13.4386     5241.00000
    13.4517     5160.00000
    13.4649     5064.00000
    13.4780     5120.00000
    13.4911     5165.00000
    13.5043     5097.00000
    13.5174     5417.00000
    13.5305     5029.00000
    13.5436     5071.00000
    13.5568     5247.00000
    13.5699     5173.00000
    13.5830     5057.00000
    13.5962     5047.00000
    13.6093     5212.00000
    13.6224     5192.00000
    13.6356     5189.00000
    13.6487     5223.00000
    13.6618     5081.00000
    13.6749     5020.00000
    13.6881     4967.00000
    13.7012     5103.00000
    13.7143     5101.00000
    13.7275     5199.00000
    13.7406     4889.00000
    13.7537     5078.00000
    13.7669     5224.00000
    13.7800     5141.00000
    13.7931     5079.00000
    13.8062     5192.00000
    13.8194     5009.00000
    13.8325     5094.00000
    13.8456     5067.00000
    13.8588     5055.00000
    13.8719     5046.00000
    13.8850     5022.00000
    13.8982     5012.00000
    13.9113     5063.00000
    13.9244     5104.00000
    13.9376     4930.00000
    13.9507     4977.00000
    13.9638     5168.00000
    13.9769     5017.00000
    13.9901     4948.00000
    14.0032     4971.00000
    14.0163     4947.00000
    14.0295     5017.00000
    14.0426     5108.00000
    14.0557     5028.00000
    14.0689     5061.00000
    14.0820     4985.00000
    14.0951     5037.00000
    14.1082     4952.00000
    14.1214     5088.00000
    14.1345     4855.00000
    14.1476     4854.00000
    14.1608     5022.00000
    14.1739     4934.00000
    14.1870     4969.00000
    14.2002     4973.00000
    14.2133     4967.00000
    14.2264     4993.00000
    14.2395     4987.00000
    14.2527     4842.00000
    14.2658     5079.00000
    14.2789     5033.00000
    14.2921     4914.00000
    14.3052     4910.00000
    14.3183     5029.00000
    14.3315     4971.00000
    14.3446     5003.00000
    14.3577     4965.00000
    14.3708     4940.00000
    14.3840     4973.00000
    14.3971     4923.00000
    14.4102     4787.00000
    14.4234     5106.00000
    14.4365     4909.00000
    14.4496     4922.00000
    14.4628     4918.00000
    14.4759     4906.00000
    14.4890     4847.00000
    14.5022     4857.00000
    14.5153     4879.00000
    14.5284     4962.00000
    14.5415     4907.00000
    14.5547     5020.00000
    14.5678     5049.00000
    14.5809     4866.00000
    14.5941     4931.00000
    14.6072     4873.00000
    14.6203     4913.00000
    14.6335     4929.00000
    14.6466     4805.00000
    14.6597     4865.00000
    14.6728     4867.00000
    14.6860     4777.00000
    14.6991     4803.00000
    14.7122     4815.00000
    14.7254     4705.00000
    14.7385     4717.00000
    14.7516     4766.00000
    14.7648     4825.00000
    14.7779     4847.00000
    14.7910     4813.00000
    14.8041     4849.00000
    14.8173     4816.00000
    14.8304     4883.00000
    14.8435     4904.00000
    14.8567     4808.00000
    14.8698     4802.00000
    14.8829     4727.00000
    14.8961     4832.00000
    14.9092     4889.00000
    14.9223     4873.00000
    14.9355     4767.00000
    14.9486     4732.00000
    14.9617     4703.00000
    14.9748     4781.00000
    14.9880     4821.00000
    15.0011     4768.00000
    15.0142     4807.00000
    15.0274     4824.00000
    15.0405     4830.00000
    15.0536     4726.00000
    15.0668     4780.00000
    15.0799     4821.00000
    15.0930     4812.00000
    15.1061     4672.00000
    15.1193     4761.00000
    15.1324     4725.00000
    15.1455     4756.00000
    15.1587     4666.00000
    15.1718     4684.00000
    15.1849     4747.00000
    15.1981     4731.00000
    15.2112     4907.00000
    15.2243     4680.00000
    15.2374     4882.00000
    15.2506     4671.00000
    15.2637     4757.00000
    15.2768     4719.00000
    15.2900     4774.00000
    15.3031     4710.00000
    15.3162     4729.00000
    15.3294     4760.00000
    15.3425     4658.00000
    15.3556     4664.00000
    15.3688     4728.00000
    15.3819     4663.00000
    15.3950     4603.00000
    15.4081     4822.00000
    15.4213     4704.00000
    15.4344     4660.00000
    15.4475     4705.00000
    15.4607     4639.00000
    15.4738     4717.00000
    15.4869     4696.00000
    15.5001     4777.00000
    15.5132     4695.00000
    15.5263     4723.00000
    15.5394     4631.00000
    15.5526     4760.00000
    15.5657     4635.00000
    15.5788     4702.00000
    15.5920     4719.00000
    15.6051     4722.00000
    15.6182     4713.00000
    15.6314     4694.00000
    15.6445     4704.00000
    15.6576     4655.00000
    15.6707     4654.00000
    15.6839     4713.00000
    15.6970     4629.00000
    15.7101     4603.00000
    15.7233     4714.00000
    15.7364     4675.00000
    15.7495     4676.00000
    15.7627     4713.00000
    15.7758     4681.00000
    15.7889     4680.00000
    15.8021     4750.00000
    15.8152     4516.00000
    15.8283     4746.00000
    15.8414     4644.00000
    15.8546     4735.00000
    15.8677     4679.00000
    15.8808     4597.00000
    15.8940     4692.00000
    15.9071     4732.00000
    15.9202     4617.00000
    15.9334     4489.00000
    15.9465     4484.00000
    15.9596     4561.00000
    15.9727     4660.00000
    15.9859     4636.00000
    15.9990     4480.00000
    16.0121     4604.00000
    16.0253     4704.00000
    16.0384     4571.00000
    16.0515     4733.00000
    16.0647     4672.00000
    16.0778     4623.00000
    16.0909     4728.00000
    16.1040     4705.00000
    16.1172     4617.00000
    16.1303     4711.00000
    16.1434     4816.00000
    16.1566     4886.00000
    16.1697     4750.00000
    16.1828     4717.00000
    16.1960     4688.00000
    16.2091     4826.00000
    16.2222     4704.00000
    16.2353     4847.00000
    16.2485     4726.00000
    16.2616     4736.00000
    16.2747     4717.00000
    16.2879     4712.00000
    16.3010     4754.00000
    16.3141     4782.00000
    16.3273     4712.00000
    16.3404     4777.00000
    16.3535     4778.00000
    16.3667     4638.00000
    16.3798     4796.00000
    16.3929     4829.00000
    16.4060     4706.00000
    16.4192     4705.00000
    16.4323     4563.00000
    16.4454     4569.00000
    16.4586     4706.00000
    16.4717     4697.00000
    16.4848     4563.00000
    16.4980     4693.00000
    16.5111     4638.00000
    16.5242     4609.00000
    16.5373     4532.00000
    16.5505     4642.00000
    16.5636     4519.00000
    16.5767     4428.00000
    16.5899     4608.00000
    16.6030     4533.00000
    16.6161     4540.00000
    16.6293     4488.00000
    16.6424     4499.00000
    16.6555     4546.00000
    16.6686     4639.00000
    16.6818     4498.00000
    16.6949     4514.00000
    16.7080     4535.00000
    16.7212     4442.00000
    16.7343     4517.00000
    16.7474     4463.00000
    16.7606     4446.00000
    16.7737     4474.00000
    16.7868     4417.00000
    16.8000     4482.00000
    16.8131     4486.00000
    16.8262     4513.00000
    16.8393     4512.00000
    16.8525     4445.00000
    16.8656     4533.00000
    16.8787     4495.00000
    16.8919     4557.00000
    16.9050     4547.00000
    16.9181     4475.00000
    16.9313     4522.00000
    16.9444     4430.00000
    16.9575     4334.00000
    16.9706     4325.00000
    16.9838     4496.00000
    16.9969     4403.00000
    17.0100     4376.00000
    17.0232     4534.00000
    17.0363     4535.00000
    17.0494     4404.00000
    17.0626     4478.00000
    17.0757     4494.00000
    17.0888     4409.00000
    17.1019     4398.00000
    17.1151     4500.00000
    17.1282     4416.00000
    17.1413     4528.00000
    17.1545     4566.00000
    17.1676     4530.00000
    17.1807     4429.00000
    17.1939     4598.00000
    17.2070     4547.00000
    17.2201     4553.00000
    17.2333     4639.00000
    17.2464     4418.00000
    17.2595     4597.00000
    17.2726     4478.00000
    17.2858     4441.00000
    17.2989     4410.00000
    17.3120     4471.00000
    17.3252     4409.00000
    17.3383     4431.00000
    17.3514     4361.00000
    17.3646     4364.00000
    17.3777     4378.00000
    17.3908     4342.00000
    17.4039     4395.00000
    17.4171     4319.00000
    17.4302     4401.00000
    17.4433     4460.00000
    17.4565     4428.00000
    17.4696     4364.00000
    17.4827     4305.00000
    17.4959     4452.00000
    17.5090     4381.00000
    17.5221     4287.00000
    17.5352     4354.00000
    17.5484     4280.00000
    17.5615     4520.00000
    17.5746     4466.00000
    17.5878     4352.00000
    17.6009     4395.00000
    17.6140     4304.00000
    17.6272     4210.00000
    17.6403     4352.00000
    17.6534     4295.00000
    17.6666     4359.00000
    17.6797     4507.00000
    17.6928     4439.00000
    17.7059     4588.00000
    17.7191     4767.00000
    17.7322     4464.00000
    17.7453     4688.00000
    17.7585     4504.00000
    17.7716     4490.00000
    17.7847     4416.00000
    17.7979     4369.00000
    17.8110     4293.00000
    17.8241     4349.00000
    17.8372     4380.00000
    17.8504     4355.00000
    17.8635     4367.00000
    17.8766     4406.00000
    17.8898     4193.00000
    17.9029     4363.00000
    17.9160     4165.00000
    17.9292     4221.00000
    17.9423     4279.00000
    17.9554     4306.00000
    17.9685     4220.00000
    17.9817     4279.00000
    17.9948     4424.00000
    18.0079     4352.00000
    18.0211     4294.00000
    18.0342     4251.00000
    18.0473     4143.00000
    18.0605     4271.00000
    18.0736     4328.00000
    18.0867     4228.00000
    18.0998     4199.00000
    18.1130     4079.00000
    18.1261     4229.00000
    18.1392     4235.00000
    18.1524     4100.00000
    18.1655     4150.00000
    18.1786     4267.00000
    18.1918     4183.00000
    18.2049     4196.00000
    18.2180     4236.00000
    18.2312     4185.00000
    18.2443     4098.00000
    18.2574     4289.00000
    18.2705     4147.00000
    18.2837     4171.00000
    18.2968     4188.00000
    18.3099     4102.00000
    18.3231     4294.00000
    18.3362     4208.00000
    18.3493     4269.00000
    18.3625     4237.00000
    18.3756     4212.00000
    18.3887     4025.00000
    18.4018     4184.00000
    18.4150     4270.00000
    18.4281     4283.00000
    18.4412     4088.00000
    18.4544     4183.00000
    18.4675     4260.00000
    18.4806     4205.00000
    18.4938     4243.00000
    18.5069     4137.00000
    18.5200     4234.00000
    18.5331     4201.00000
    18.5463     4162.00000
    18.5594     4231.00000
    18.5725     4295.00000
    18.5857     4182.00000
    18.5988     4092.00000
    18.6119     4082.00000
    18.6251     4312.00000
    18.6382     4202.00000
    18.6513     4303.00000
    18.6645     4272.00000
    18.6776     4230.00000
    18.6907     4105.00000
    18.7038     4181.00000
    18.7170     4236.00000
    18.7301     4098.00000
    18.7432     4069.00000
    18.7564     4071.00000
    18.7695     4067.00000
    18.7826     4078.00000
    18.7958     4137.00000
    18.8089     4064.00000
    18.8220     4138.00000
    18.8351     4136.00000
    18.8483     4151.00000
    18.8614     4257.00000
    18.8745     4156.00000
    18.8877     4200.00000
    18.9008     4181.00000
    18.9139     4167.00000
    18.9271     4197.00000
    18.9402     4231.00000
    18.9533     4361.00000
    18.9664     4366.00000
    18.9796     4450.00000
    18.9927     4500.00000
    19.0058     4516.00000
    19.0190     4495.00000
    19.0321     4536.00000
    19.0452     4486.00000
    19.0584     4449.00000
    19.0715     4499.00000
    19.0846     4619.00000
    19.0978     4514.00000
    19.1109     4549.00000
    19.1240     4716.00000
    19.1371     4497.00000
    19.1503     4642.00000
    19.1634     4578.00000
    19.1765     4548.00000
    19.1897     4563.00000
    19.2028     4374.00000
    19.2159     4524.00000
    19.2291     4635.00000
    19.2422     4554.00000
    19.2553     4497.00000
    19.2684     4587.00000
    19.2816     4616.00000
    19.2947     4580.00000
    19.3078     4518.00000
    19.3210     4754.00000
    19.3341     4758.00000
    19.3472     4752.00000
    19.3604     4807.00000
    19.3735     4929.00000
    19.3866     5087.00000
    19.3997     5051.00000
    19.4129     5291.00000
    19.4260     5373.00000
    19.4391     5466.00000
    19.4523     5735.00000
    19.4654     6052.00000
    19.4785     6365.00000
    19.4917     7085.00000
    19.5048     7685.00000
    19.5179     9033.00000
    19.5311    10933.00000
    19.5442    14196.00000
    19.5573    18862.00000
    19.5704    26671.00000
    19.5836    39634.00000
    19.5967    59138.00000
    19.6098    81770.00000
    19.6230   104948.00000
    19.6361   120577.00000
    19.6492   119926.00000
    19.6624   112705.00000
    19.6755   103764.00000
    19.6886    91116.00000
    19.7017    71902.00000
    19.7149    54081.00000
    19.7280    39414.00000
    19.7411    27801.00000
    19.7543    19233.00000
    19.7674    13954.00000
    19.7805    10578.00000
    19.7937     8442.00000
    19.8068     7366.00000
    19.8199     6632.00000
    19.8330     6002.00000
    19.8462     5759.00000
    19.8593     5450.00000
    19.8724     5257.00000
    19.8856     4996.00000
    19.8987     4865.00000
    19.9118     4687.00000
    19.9250     4758.00000
    19.9381     4603.00000
    19.9512     4494.00000
    19.9643     4470.00000
    19.9775     4533.00000
    19.9906     4483.00000
    20.0037     4446.00000
    20.0169     4367.00000
    20.0300     4289.00000
    20.0431     4339.00000
    20.0563     4297.00000
    20.0694     4352.00000
    20.0825     4362.00000
    20.0957     4426.00000
    20.1088     4396.00000
    20.1219     4427.00000
    20.1350     4522.00000
    20.1482     4330.00000
    20.1613     4504.00000
    20.1744     4492.00000
    20.1876     4438.00000
    20.2007     4529.00000
    20.2138     4288.00000
    20.2270     4515.00000
    20.2401     4373.00000
    20.2532     4142.00000
    20.2663     4212.00000
    20.2795     4152.00000
    20.2926     4062.00000
    20.3057     4112.00000
    20.3189     4097.00000
    20.3320     4092.00000
    20.3451     4086.00000
    20.3583     4135.00000
    20.3714     4169.00000
    20.3845     4053.00000
    20.3976     4077.00000
    20.4108     4094.00000
    20.4239     3979.00000
    20.4370     4160.00000
    20.4502     4172.00000
    20.4633     3943.00000
    20.4764     4011.00000
    20.4896     4111.00000
    20.5027     4056.00000
    20.5158     4035.00000
    20.5290     3977.00000
    20.5421     3935.00000
    20.5552     4107.00000
    20.5683     3982.00000
    20.5815     4194.00000
    20.5946     4166.00000
    20.6077     4039.00000
    20.6209     4037.00000
    20.6340     4000.00000
    20.6471     4080.00000
    20.6603     4034.00000
    20.6734     4012.00000
    20.6865     4018.00000
    20.6996     3954.00000
    20.7128     3987.00000
    20.7259     4060.00000
    20.7390     3890.00000
    20.7522     3978.00000
    20.7653     3955.00000
    20.7784     3927.00000
    20.7916     3934.00000
    20.8047     3886.00000
    20.8178     3972.00000
    20.8309     3974.00000
    20.8441     3926.00000
    20.8572     4103.00000
    20.8703     3972.00000
    20.8835     3942.00000
    20.8966     3814.00000
    20.9097     3939.00000
    20.9229     3807.00000
    20.9360     3925.00000
    20.9491     3939.00000
    20.9623     3843.00000
    20.9754     3864.00000
    20.9885     3952.00000
    21.0016     3904.00000
    21.0148     3901.00000
    21.0279     3915.00000
    21.0410     3941.00000
    21.0542     3869.00000
    21.0673     3882.00000
    21.0804     4001.00000
    21.0936     3982.00000
    21.1067     3928.00000
    21.1198     3809.00000
    21.1329     3990.00000
    21.1461     3944.00000
    21.1592     3855.00000
    21.1723     3946.00000
    21.1855     3826.00000
    21.1986     3857.00000
    21.2117     3794.00000
    21.2249     3783.00000
    21.2380     3850.00000
    21.2511     3883.00000
    21.2642     3843.00000
    21.2774     3721.00000
    21.2905     3892.00000
    21.3036     3887.00000
    21.3168     3864.00000
    21.3299     3757.00000
    21.3430     3818.00000
    21.3562     3786.00000
    21.3693     3865.00000
    21.3824     3945.00000
    21.3956     3801.00000
    21.4087     3808.00000
    21.4218     3790.00000
    21.4349     3869.00000
    21.4481     3887.00000
    21.4612     3827.00000
    21.4743     3763.00000
    21.4875     3884.00000
    21.5006     3819.00000
    21.5137     3832.00000
    21.5269     3712.00000
    21.5400     3768.00000
    21.5531     3689.00000
    21.5662     3834.00000
    21.5794     3842.00000
    21.5925     3847.00000
    21.6056     3931.00000
    21.6188     3882.00000
    21.6319     3813.00000
    21.6450     3854.00000
    21.6582     3818.00000
    21.6713     3933.00000
    21.6844     3751.00000
    21.6975     3904.00000
    21.7107     3833.00000
    21.7238     3735.00000
    21.7369     3848.00000
    21.7501     3960.00000
    21.7632     4025.00000
    21.7763     4088.00000
    21.7895     4161.00000
    21.8026     4112.00000
    21.8157     4132.00000
    21.8288     4101.00000
    21.8420     4170.00000
    21.8551     4023.00000
    21.8682     3873.00000
    21.8814     3910.00000
    21.8945     3925.00000
    21.9076     3823.00000
    21.9208     3828.00000
    21.9339     3824.00000
    21.9470     4009.00000
    21.9602     4039.00000
    21.9733     3976.00000
    21.9864     4001.00000
    21.9995     3911.00000
    22.0127     3994.00000
    22.0258     3946.00000
    22.0389     3853.00000
    22.0521     3926.00000
    22.0652     3751.00000
    22.0783     3797.00000
    22.0915     3887.00000
    22.1046     3909.00000
    22.1177     3910.00000
    22.1308     3913.00000
    22.1440     3965.00000
    22.1571     3942.00000
    22.1702     4088.00000
    22.1834     4024.00000
    22.1965     4075.00000
    22.2096     4323.00000
    22.2228     4356.00000
    22.2359     4693.00000
    22.2490     5304.00000
    22.2621     6034.00000
    22.2753     6885.00000
    22.2884     8839.00000
    22.3015    11836.00000
    22.3147    15586.00000
    22.3278    18423.00000
    22.3409    18985.00000
    22.3541    18015.00000
    22.3672    16490.00000
    22.3803    15165.00000
    22.3935    13411.00000
    22.4066    11017.00000
    22.4197     8937.00000
    22.4328     7227.00000
    22.4460     6060.00000
    22.4591     4986.00000
    22.4722     4497.00000
    22.4854     4327.00000
    22.4985     4099.00000
    22.5116     4011.00000
    22.5248     3968.00000
    22.5379     4041.00000
    22.5510     3898.00000
    22.5641     3847.00000
    22.5773     3851.00000
    22.5904     3772.00000
    22.6035     3740.00000
    22.6167     3882.00000
    22.6298     3725.00000
    22.6429     3811.00000
    22.6561     3794.00000
    22.6692     3761.00000
    22.6823     3655.00000
    22.6954     3755.00000
    22.7086     3682.00000
    22.7217     3716.00000
    22.7348     3953.00000
    22.7480     3773.00000
    22.7611     3800.00000
    22.7742     3811.00000
    22.7874     3803.00000
    22.8005     3850.00000
    22.8136     3825.00000
    22.8268     3719.00000
    22.8399     3843.00000
    22.8530     3777.00000
    22.8661     3793.00000
    22.8793     3739.00000
    22.8924     3729.00000
    22.9055     3654.00000
    22.9187     3774.00000
    22.9318     3759.00000
    22.9449     3701.00000
    22.9581     3728.00000
    22.9712     3640.00000
    22.9843     3737.00000
    22.9974     3658.00000
    23.0106     3657.00000
    23.0237     3636.00000
    23.0368     3687.00000
    23.0500     3639.00000
    23.0631     3750.00000
    23.0762     3593.00000
    23.0894     3645.00000
    23.1025     3674.00000
    23.1156     3704.00000
    23.1287     3695.00000
    23.1419     3538.00000
    23.1550     3587.00000
    23.1681     3638.00000
    23.1813     3584.00000
    23.1944     3583.00000
    23.2075     3638.00000
    23.2207     3528.00000
    23.2338     3591.00000
    23.2469     3611.00000
    23.2601     3542.00000
    23.2732     3641.00000
    23.2863     3639.00000
    23.2994     3774.00000
    23.3126     3649.00000
    23.3257     3763.00000
    23.3388     3692.00000
    23.3520     3657.00000
    23.3651     3613.00000
    23.3782     3657.00000
    23.3914     3699.00000
    23.4045     3650.00000
    23.4176     3659.00000
    23.4307     3703.00000
    23.4439     3727.00000
    23.4570     3724.00000
    23.4701     3777.00000
    23.4833     3731.00000
    23.4964     3771.00000
    23.5095     3777.00000
    23.5227     3869.00000
    23.5358     3808.00000
    23.5489     3931.00000
    23.5620     3859.00000
    23.5752     3835.00000
    23.5883     3870.00000
    23.6014     3949.00000
    23.6146     3852.00000
    23.6277     3783.00000
    23.6408     3898.00000
    23.6540     3791.00000
    23.6671     3872.00000
    23.6802     3789.00000
    23.6933     3868.00000
    23.7065     3917.00000
    23.7196     3958.00000
    23.7327     3844.00000
    23.7459     4009.00000
    23.7590     3962.00000
    23.7721     3879.00000
    23.7853     3807.00000
    23.7984     3902.00000
    23.8115     3892.00000
    23.8247     3863.00000
    23.8378     3864.00000
    23.8509     3916.00000
    23.8640     4016.00000
    23.8772     4085.00000
    23.8903     4091.00000
    23.9034     4206.00000
    23.9166     4235.00000
    23.9297     4287.00000
    23.9428     4324.00000
    23.9560     4195.00000
    23.9691     4425.00000
    23.9822     4439.00000
    23.9953     4524.00000
    24.0085     4568.00000
    24.0216     4605.00000
    24.0347     4786.00000
    24.0479     5003.00000
    24.0610     5231.00000
    24.0741     5632.00000
    24.0873     6294.00000
    24.1004     7532.00000
    24.1135     9675.00000
    24.1266    13250.00000
    24.1398    19428.00000
    24.1529    26803.00000
    24.1660    35836.00000
    24.1792    41524.00000
    24.1923    44390.00000
    24.2054    43513.00000
    24.2186    40163.00000
    24.2317    36234.00000
    24.2448    32319.00000
    24.2580    29387.00000
    24.2711    25837.00000
    24.2842    22406.00000
    24.2973    21646.00000
    24.3105    26265.00000
    24.3236    33121.00000
    24.3367    38379.00000
    24.3499    42979.00000
    24.3630    47448.00000
    24.3761    47598.00000
    24.3893    43570.00000
    24.4024    39540.00000
    24.4155    35722.00000
    24.4286    30261.00000
    24.4418    23960.00000
    24.4549    18162.00000
    24.4680    14371.00000
    24.4812    10772.00000
    24.4943     7919.00000
    24.5074     6306.00000
    24.5206     5405.00000
    24.5337     4885.00000
    24.5468     4708.00000
    24.5599     4501.00000
    24.5731     4354.00000
    24.5862     4205.00000
    24.5993     4152.00000
    24.6125     4047.00000
    24.6256     4126.00000
    24.6387     3919.00000
    24.6519     3828.00000
    24.6650     3861.00000
    24.6781     3773.00000
    24.6913     3930.00000
    24.7044     3869.00000
    24.7175     3850.00000
    24.7306     3861.00000
    24.7438     3873.00000
    24.7569     3726.00000
    24.7700     3810.00000
    24.7832     3668.00000
    24.7963     3641.00000
    24.8094     3627.00000
    24.8226     3691.00000
    24.8357     3748.00000
    24.8488     3745.00000
    24.8619     3624.00000
    24.8751     3694.00000
    24.8882     3738.00000
    24.9013     3709.00000
    24.9145     3750.00000
    24.9276     3657.00000
    24.9407     3931.00000
    24.9539     3863.00000
    24.9670     4029.00000
    24.9801     3880.00000
    24.9932     3743.00000
    25.0064     3805.00000
    25.0195     3767.00000
    25.0326     3619.00000
    25.0458     3733.00000
    25.0589     3655.00000
    25.0720     3581.00000
    25.0852     3594.00000
    25.0983     3547.00000
    25.1114     3696.00000
    25.1246     3619.00000
    25.1377     3631.00000
    25.1508     3658.00000
    25.1639     3497.00000
    25.1771     3598.00000
    25.1902     3517.00000
    25.2033     3645.00000
    25.2165     3607.00000
    25.2296     3572.00000
    25.2427     3570.00000
    25.2559     3545.00000
    25.2690     3605.00000
    25.2821     3680.00000
    25.2952     3492.00000
    25.3084     3676.00000
    25.3215     3528.00000
    25.3346     3584.00000
    25.3478     3611.00000
    25.3609     3618.00000
    25.3740     3537.00000
    25.3872     3702.00000
    25.4003     3662.00000
    25.4134     3663.00000
    25.4265     3561.00000
    25.4397     3654.00000
    25.4528     3608.00000
    25.4659     3722.00000
    25.4791     3637.00000
    25.4922     3531.00000
    25.5053     3522.00000
    25.5185     3518.00000
    25.5316     3579.00000
    25.5447     3658.00000
    25.5579     3508.00000
    25.5710     3475.00000
    25.5841     3454.00000
    25.5972     3528.00000
    25.6104     3532.00000
    25.6235     3492.00000
    25.6366     3576.00000
    25.6498     3517.00000
    25.6629     3511.00000
    25.6760     3525.00000
    25.6892     3571.00000
    25.7023     3489.00000
    25.7154     3447.00000
    25.7285     3359.00000
    25.7417     3562.00000
    25.7548     3512.00000
    25.7679     3521.00000
    25.7811     3529.00000
    25.7942     3443.00000
    25.8073     3440.00000
    25.8205     3565.00000
    25.8336     3452.00000
    25.8467     3473.00000
    25.8598     3454.00000
    25.8730     3457.00000
    25.8861     3527.00000
    25.8992     3509.00000
    25.9124     3390.00000
    25.9255     3357.00000
    25.9386     3424.00000
    25.9518     3569.00000
    25.9649     3382.00000
    25.9780     3495.00000
    25.9911     3447.00000
    26.0043     3437.00000
    26.0174     3584.00000
    26.0305     3506.00000
    26.0437     3579.00000
    26.0568     3485.00000
    26.0699     3578.00000
    26.0831     3594.00000
    26.0962     3684.00000
    26.1093     3552.00000
    26.1225     3727.00000
    26.1356     3711.00000
    26.1487     3710.00000
    26.1618     3706.00000
    26.1750     3679.00000
    26.1881     3821.00000
    26.2012     3597.00000
    26.2144     3617.00000
    26.2275     3622.00000
    26.2406     3609.00000
    26.2538     3599.00000
    26.2669     3601.00000
    26.2800     3508.00000
    26.2931     3511.00000
    26.3063     3510.00000
    26.3194     3611.00000
    26.3325     3463.00000
    26.3457     3526.00000
    26.3588     3570.00000
    26.3719     3498.00000
    26.3851     3554.00000
    26.3982     3554.00000
    26.4113     3440.00000
    26.4244     3525.00000
    26.4376     3447.00000
    26.4507     3497.00000
    26.4638     3389.00000
    26.4770     3438.00000
    26.4901     3387.00000
    26.5032     3409.00000
    26.5164     3469.00000
    26.5295     3430.00000
    26.5426     3479.00000
    26.5558     3490.00000
    26.5689     3370.00000
    26.5820     3400.00000
    26.5951     3435.00000
    26.6083     3517.00000
    26.6214     3406.00000
    26.6345     3501.00000
    26.6477     3361.00000
    26.6608     3454.00000
    26.6739     3514.00000
    26.6871     3363.00000
    26.7002     3552.00000
    26.7133     3376.00000
    26.7264     3511.00000
    26.7396     3506.00000
    26.7527     3662.00000
    26.7658     3573.00000
    26.7790     3594.00000
    26.7921     3607.00000
    26.8052     3629.00000
    26.8184     3589.00000
    26.8315     3715.00000
    26.8446     3457.00000
    26.8577     3613.00000
    26.8709     3573.00000
    26.8840     3575.00000
    26.8971     3751.00000
    26.9103     3624.00000
    26.9234     3561.00000
    26.9365     3659.00000
    26.9497     3629.00000
    26.9628     3612.00000
    26.9759     3622.00000
    26.9891     3539.00000
    27.0022     3689.00000
    27.0153     3612.00000
    27.0284     3618.00000
    27.0416     3654.00000
    27.0547     3559.00000
    27.0678     3608.00000
    27.0810     3816.00000
    27.0941     3648.00000
    27.1072     3787.00000
    27.1204     3551.00000
    27.1335     3716.00000
    27.1466     3739.00000
    27.1597     3665.00000
    27.1729     3646.00000
    27.1860     3750.00000
    27.1991     3650.00000
    27.2123     3586.00000
    27.2254     3633.00000
    27.2385     3580.00000
    27.2517     3568.00000
    27.2648     3596.00000
    27.2779     3695.00000
    27.2910     3648.00000
    27.3042     3682.00000
    27.3173     3795.00000
    27.3304     3771.00000
    27.3436     3876.00000
    27.3567     3865.00000
    27.3698     3878.00000
    27.3830     3927.00000
    27.3961     4070.00000
    27.4092     4234.00000
    27.4224     4257.00000
    27.4355     4419.00000
    27.4486     4425.00000
    27.4617     4668.00000
    27.4749     4955.00000
    27.4880     5172.00000
    27.5011     5286.00000
    27.5143     5596.00000
    27.5274     5984.00000
    27.5405     6404.00000
    27.5537     7036.00000
    27.5668     7875.00000
    27.5799     9252.00000
    27.5930    11317.00000
    27.6062    14733.00000
    27.6193    21342.00000
    27.6324    31472.00000
    27.6456    46593.00000
    27.6587    65998.00000
    27.6718    81270.00000
    27.6850    85687.00000
    27.6981    80429.00000
    27.7112    72785.00000
    27.7243    66497.00000
    27.7375    62484.00000
    27.7506    57070.00000
    27.7637    47952.00000
    27.7769    37525.00000
    27.7900    28331.00000
    27.8031    20720.00000
    27.8163    15281.00000
    27.8294    10992.00000
    27.8425     8466.00000
    27.8556     6900.00000
    27.8688     6220.00000
    27.8819     5516.00000
    27.8950     5230.00000
    27.9082     4830.00000
    27.9213     4758.00000
    27.9344     4468.00000
    27.9476     4270.00000
    27.9607     4086.00000
    27.9738     4075.00000
    27.9870     3901.00000
    28.0001     3906.00000
    28.0132     3837.00000
    28.0263     3789.00000
    28.0395     3751.00000
    28.0526     3628.00000
    28.0657     3757.00000
    28.0789     3708.00000
    28.0920     3774.00000
    28.1051     3641.00000
    28.1183     3714.00000
    28.1314     3726.00000
    28.1445     3792.00000
    28.1576     3672.00000
    28.1708     3759.00000
    28.1839     3751.00000
    28.1970     3758.00000
    28.2102     3943.00000
    28.2233     3834.00000
    28.2364     3907.00000
    28.2496     3860.00000
    28.2627     3882.00000
    28.2758     3794.00000
    28.2889     3862.00000
    28.3021     3904.00000
    28.3152     3793.00000
    28.3283     3652.00000
    28.3415     3721.00000
    28.3546     3612.00000
    28.3677     3668.00000
    28.3809     3643.00000
    28.3940     3642.00000
    28.4071     3397.00000
    28.4203     3646.00000
    28.4334     3618.00000
    28.4465     3571.00000
    28.4596     3553.00000
    28.4728     3631.00000
    28.4859     3554.00000
    28.4990     3601.00000
    28.5122     3622.00000
    28.5253     3575.00000
    28.5384     3605.00000
    28.5516     3565.00000
    28.5647     3531.00000
    28.5778     3584.00000
    28.5909     3609.00000
    28.6041     3560.00000
    28.6172     3484.00000
    28.6303     3512.00000
    28.6435     3683.00000
    28.6566     3415.00000
    28.6697     3420.00000
    28.6829     3548.00000
    28.6960     3535.00000
    28.7091     3631.00000
    28.7222     3455.00000
    28.7354     3609.00000
    28.7485     3513.00000
    28.7616     3470.00000
    28.7748     3530.00000
    28.7879     3647.00000
    28.8010     3506.00000
    28.8142     3570.00000
    28.8273     3584.00000
    28.8404     3607.00000
    28.8536     3543.00000
    28.8667     3515.00000
    28.8798     3595.00000
    28.8929     3606.00000
    28.9061     3619.00000
    28.9192     3751.00000
    28.9323     3693.00000
    28.9455     3586.00000
    28.9586     3745.00000
    28.9717     3658.00000
    28.9849     3857.00000
    28.9980     3899.00000
    29.0111     3854.00000
    29.0242     4006.00000
    29.0374     4056.00000
    29.0505     4057.00000
    29.0636     4298.00000
    29.0768     4391.00000
    29.0899     4635.00000
    29.1030     4966.00000
    29.1162     5182.00000
    29.1293     5525.00000
    29.1424     6542.00000
    29.1555     8580.00000
    29.1687    12133.00000
    29.1818    17323.00000
    29.1949    24176.00000
    29.2081    29654.00000
    29.2212    32694.00000
    29.2343    32579.00000
    29.2475    29174.00000
    29.2606    25795.00000
    29.2737    25072.00000
    29.2869    24279.00000
    29.3000    23771.00000
    29.3131    22835.00000
    29.3262    21589.00000
    29.3394    21232.00000
    29.3525    21639.00000
    29.3656    21689.00000
    29.3788    21035.00000
    29.3919    18992.00000
    29.4050    16615.00000
    29.4182    15012.00000
    29.4313    13535.00000
    29.4444    12520.00000
    29.4575    11433.00000
    29.4707     9591.00000
    29.4838     7837.00000
    29.4969     6340.00000
    29.5101     5141.00000
    29.5232     4553.00000
    29.5363     4129.00000
    29.5495     4088.00000
    29.5626     3804.00000
    29.5757     3812.00000
    29.5888     3763.00000
    29.6020     3649.00000
    29.6151     3486.00000
    29.6282     3531.00000
    29.6414     3465.00000
    29.6545     3436.00000
    29.6676     3414.00000
    29.6808     3410.00000
    29.6939     3370.00000
    29.7070     3448.00000
    29.7201     3269.00000
    29.7333     3428.00000
    29.7464     3422.00000
    29.7595     3313.00000
    29.7727     3424.00000
    29.7858     3384.00000
    29.7989     3427.00000
    29.8121     3369.00000
    29.8252     3318.00000
    29.8383     3198.00000
    29.8515     3385.00000
    29.8646     3326.00000
    29.8777     3415.00000
    29.8908     3443.00000
    29.9040     3473.00000
    29.9171     3395.00000
    29.9302     3385.00000
    29.9434     3307.00000
    29.9565     3471.00000
    29.9696     3399.00000
    29.9828     3302.00000
    29.9959     3438.00000
    30.0090     3250.00000
    30.0221     3320.00000
    30.0353     3289.00000
    30.0484     3387.00000
    30.0615     3202.00000
    30.0747     3367.00000
    30.0878     3405.00000
    30.1009     3344.00000
    30.1141     3327.00000
    30.1272     3375.00000
    30.1403     3232.00000
    30.1535     3245.00000
    30.1666     3330.00000
    30.1797     3301.00000
    30.1928     3155.00000
    30.2060     3342.00000
    30.2191     3390.00000
    30.2322     3338.00000
    30.2454     3334.00000
    30.2585     3440.00000
    30.2716     3244.00000
    30.2848     3326.00000
    30.2979     3432.00000
    30.3110     3345.00000
    30.3241     3261.00000
    30.3373     3329.00000
    30.3504     3277.00000
    30.3635     3198.00000
    30.3767     3246.00000
    30.3898     3232.00000
    30.4029     3219.00000
    30.4161     3309.00000
    30.4292     3295.00000
    30.4423     3228.00000
    30.4554     3389.00000
    30.4686     3274.00000
    30.4817     3183.00000
    30.4948     3237.00000
    30.5080     3220.00000
    30.5211     3247.00000
    30.5342     3143.00000
    30.5474     3178.00000
    30.5605     3240.00000
    30.5736     3103.00000
    30.5868     3157.00000
    30.5999     3198.00000
    30.6130     3247.00000
    30.6261     3185.00000
    30.6393     3254.00000
    30.6524     3262.00000
    30.6655     3179.00000
    30.6787     3269.00000
    30.6918     3132.00000
    30.7049     3145.00000
    30.7181     3155.00000
    30.7312     3139.00000
    30.7443     3241.00000
    30.7574     3009.00000
    30.7706     3028.00000
    30.7837     3109.00000
    30.7968     3191.00000
    30.8100     3137.00000
    30.8231     3299.00000
    30.8362     3198.00000
    30.8494     3184.00000
    30.8625     3213.00000
    30.8756     3161.00000
    30.8887     3312.00000
    30.9019     3229.00000
    30.9150     3152.00000
    30.9281     3081.00000
    30.9413     3134.00000
    30.9544     3167.00000
    30.9675     3183.00000
    30.9807     3124.00000
    30.9938     3099.00000
    31.0069     3159.00000
    31.0200     3221.00000
    31.0332     3145.00000
    31.0463     3129.00000
    31.0594     3079.00000
    31.0726     3154.00000
    31.0857     3208.00000
    31.0988     3103.00000
    31.1120     3120.00000
    31.1251     3118.00000
    31.1382     3099.00000
    31.1514     3120.00000
    31.1645     3090.00000
    31.1776     3144.00000
    31.1907     3086.00000
    31.2039     3139.00000
    31.2170     3049.00000
    31.2301     3064.00000
    31.2433     2995.00000
    31.2564     3038.00000
    31.2695     3056.00000
    31.2827     3172.00000
    31.2958     3181.00000
    31.3089     2959.00000
    31.3220     3097.00000
    31.3352     3065.00000
    31.3483     3148.00000
    31.3614     3099.00000
    31.3746     3130.00000
    31.3877     3118.00000
    31.4008     3092.00000
    31.4140     3216.00000
    31.4271     3099.00000
    31.4402     3103.00000
    31.4533     3037.00000
    31.4665     3134.00000
    31.4796     3184.00000
    31.4927     3179.00000
    31.5059     3226.00000
    31.5190     3216.00000
    31.5321     3163.00000
    31.5453     3130.00000
    31.5584     3074.00000
    31.5715     3231.00000
    31.5847     3168.00000
    31.5978     3097.00000
    31.6109     3097.00000
    31.6240     3122.00000
    31.6372     3174.00000
    31.6503     3105.00000
    31.6634     3028.00000
    31.6766     3126.00000
    31.6897     3143.00000
    31.7028     3129.00000
    31.7160     3042.00000
    31.7291     3095.00000
    31.7422     3136.00000
    31.7553     3150.00000
    31.7685     3082.00000
    31.7816     3217.00000
    31.7947     3132.00000
    31.8079     3192.00000
    31.8210     3053.00000
    31.8341     3164.00000
    31.8473     3155.00000
    31.8604     3172.00000
    31.8735     2983.00000
    31.8866     3152.00000
    31.8998     3097.00000
    31.9129     3088.00000
    31.9260     3231.00000
    31.9392     3100.00000
    31.9523     3054.00000
    31.9654     3066.00000
    31.9786     3140.00000
    31.9917     3054.00000
    32.0048     3052.00000
    32.0180     3162.00000
    32.0311     3107.00000
    32.0442     3028.00000
    32.0573     3080.00000
    32.0705     3115.00000
    32.0836     3198.00000
    32.0967     3151.00000
    32.1099     3306.00000
    32.1230     3160.00000
    32.1361     3144.00000
    32.1493     3126.00000
    32.1624     3312.00000
    32.1755     3247.00000
    32.1886     3295.00000
    32.2018     3186.00000
    32.2149     3194.00000
    32.2280     3284.00000
    32.2412     3147.00000
    32.2543     3259.00000
    32.2674     3143.00000
    32.2806     3265.00000
    32.2937     3326.00000
    32.3068     3346.00000
    32.3199     3302.00000
    32.3331     3301.00000
    32.3462     3203.00000
    32.3593     3222.00000
    32.3725     3228.00000
    32.3856     3297.00000
    32.3987     3430.00000
    32.4119     3409.00000
    32.4250     3307.00000
    32.4381     3575.00000
    32.4512     3548.00000
    32.4644     3779.00000
    32.4775     3814.00000
    32.4906     3789.00000
    32.5038     3834.00000
    32.5169     3904.00000
    32.5300     4275.00000
    32.5432     4692.00000
    32.5563     5399.00000
    32.5694     7150.00000
    32.5826    10064.00000
    32.5957    15168.00000
    32.6088    19372.00000
    32.6219    20911.00000
    32.6351    18954.00000
    32.6482    15393.00000
    32.6613    12950.00000
    32.6745    12435.00000
    32.6876    13103.00000
    32.7007    13318.00000
    32.7139    12372.00000
    32.7270    10214.00000
    32.7401     8058.00000
    32.7532     6257.00000
    32.7664     5229.00000
    32.7795     4667.00000
    32.7926     4174.00000
    32.8058     3925.00000
    32.8189     3678.00000
    32.8320     3698.00000
    32.8452     3667.00000
    32.8583     3484.00000
    32.8714     3474.00000
    32.8845     3480.00000
    32.8977     3444.00000
    32.9108     3431.00000
    32.9239     3468.00000
    32.9371     3562.00000
    32.9502     3612.00000
    32.9633     3590.00000
    32.9765     3667.00000
    32.9896     3744.00000
    33.0027     3645.00000
    33.0159     3836.00000
    33.0290     4026.00000
    33.0421     4025.00000
    33.0552     4013.00000
    33.0684     4182.00000
    33.0815     4197.00000
    33.0946     4506.00000
    33.1078     4664.00000
    33.1209     4829.00000
    33.1340     5406.00000
    33.1472     6120.00000
    33.1603     7659.00000
    33.1734    10463.00000
    33.1865    14951.00000
    33.1997    21208.00000
    33.2128    28552.00000
    33.2259    34316.00000
    33.2391    35305.00000
    33.2522    32345.00000
    33.2653    27897.00000
    33.2785    23834.00000
    33.2916    22140.00000
    33.3047    21923.00000
    33.3178    21561.00000
    33.3310    19597.00000
    33.3441    16534.00000
    33.3572    13009.00000
    33.3704     9788.00000
    33.3835     7433.00000
    33.3966     6283.00000
    33.4098     5450.00000
    33.4229     5240.00000
    33.4360     5091.00000
    33.4492     5010.00000
    33.4623     4828.00000
    33.4754     5057.00000
    33.4885     5106.00000
    33.5017     5426.00000
    33.5148     5905.00000
    33.5279     6726.00000
    33.5411     8135.00000
    33.5542    10647.00000
    33.5673    14234.00000
    33.5805    18972.00000
    33.5936    24178.00000
    33.6067    28223.00000
    33.6198    30881.00000
    33.6330    30556.00000
    33.6461    28362.00000
    33.6592    25325.00000
    33.6724    22579.00000
    33.6855    21185.00000
    33.6986    20406.00000
    33.7118    19785.00000
    33.7249    18761.00000
    33.7380    17902.00000
    33.7511    17884.00000
    33.7643    18532.00000
    33.7774    18822.00000
    33.7905    17609.00000
    33.8037    14804.00000
    33.8168    12279.00000
    33.8299    10590.00000
    33.8431    10078.00000
    33.8562    10457.00000
    33.8693    10461.00000
    33.8825     9661.00000
    33.8956     7953.00000
    33.9087     6520.00000
    33.9218     5360.00000
    33.9350     4525.00000
    33.9481     4009.00000
    33.9612     3844.00000
    33.9744     3639.00000
    33.9875     3595.00000
    34.0006     3498.00000
    34.0138     3533.00000
    34.0269     3376.00000
    34.0400     3410.00000
    34.0531     3303.00000
    34.0663     3227.00000
    34.0794     3344.00000
    34.0925     3300.00000
    34.1057     3345.00000
    34.1188     3268.00000
    34.1319     3237.00000
    34.1451     3173.00000
    34.1582     3272.00000
    34.1713     3180.00000
    34.1844     3127.00000
    34.1976     3203.00000
    34.2107     3182.00000
    34.2238     3256.00000
    34.2370     3187.00000
    34.2501     3198.00000
    34.2632     3224.00000
    34.2764     3230.00000
    34.2895     3263.00000
    34.3026     3283.00000
    34.3158     3254.00000
    34.3289     3282.00000
    34.3420     3379.00000
    34.3551     3340.00000
    34.3683     3485.00000
    34.3814     3293.00000
    34.3945     3444.00000
    34.4077     3376.00000
    34.4208     3540.00000
    34.4339     3564.00000
    34.4471     3543.00000
    34.4602     3571.00000
    34.4733     3890.00000
    34.4864     4279.00000
    34.4996     4816.00000
    34.5127     6081.00000
    34.5258     8024.00000
    34.5390    10899.00000
    34.5521    13455.00000
    34.5652    14668.00000
    34.5784    13486.00000
    34.5915    11654.00000
    34.6046     9993.00000
    34.6177     9176.00000
    34.6309     9161.00000
    34.6440     9292.00000
    34.6571     9197.00000
    34.6703     8343.00000
    34.6834     7112.00000
    34.6965     5683.00000
    34.7097     4927.00000
    34.7228     4173.00000
    34.7359     3672.00000
    34.7491     3638.00000
    34.7622     3501.00000
    34.7753     3392.00000
    34.7884     3289.00000
    34.8016     3221.00000
    34.8147     3172.00000
    34.8278     3136.00000
    34.8410     3227.00000
    34.8541     3299.00000
    34.8672     3527.00000
    34.8804     3541.00000
    34.8935     3494.00000
    34.9066     3460.00000
    34.9197     3399.00000
    34.9329     3294.00000
    34.9460     3195.00000
    34.9591     3343.00000
    34.9723     3286.00000
    34.9854     3202.00000
    34.9985     3233.00000
    35.0117     3209.00000
    35.0248     3118.00000
    35.0379     3166.00000
    35.0510     3051.00000
    35.0642     2869.00000
    35.0773     3063.00000
    35.0904     3072.00000
    35.1036     3005.00000
    35.1167     2925.00000
    35.1298     3068.00000
    35.1430     2930.00000
    35.1561     3071.00000
    35.1692     2947.00000
    35.1824     2957.00000
    35.1955     2997.00000
    35.2086     2970.00000
    35.2217     2875.00000
    35.2349     2996.00000
    35.2480     3007.00000
    35.2611     2934.00000
    35.2743     2940.00000
    35.2874     2916.00000
    35.3005     2934.00000
    35.3137     2926.00000
    35.3268     2963.00000
    35.3399     2953.00000
    35.3530     3029.00000
    35.3662     3070.00000
    35.3793     2873.00000
    35.3924     2877.00000
    35.4056     2925.00000
    35.4187     3031.00000
    35.4318     2898.00000
    35.4450     2917.00000
    35.4581     2960.00000
    35.4712     2861.00000
    35.4843     2969.00000
    35.4975     2903.00000
    35.5106     2992.00000
    35.5237     2948.00000
    35.5369     2983.00000
    35.5500     2959.00000
    35.5631     3011.00000
    35.5763     3007.00000
    35.5894     2906.00000
    35.6025     2885.00000
    35.6156     2918.00000
    35.6288     2971.00000
    35.6419     2883.00000
    35.6550     3008.00000
    35.6682     2954.00000
    35.6813     2964.00000
    35.6944     2943.00000
    35.7076     2843.00000
    35.7207     2779.00000
    35.7338     2922.00000
    35.7470     2971.00000
    35.7601     2955.00000
    35.7732     2863.00000
    35.7863     3027.00000
    35.7995     2909.00000
    35.8126     2952.00000
    35.8257     2938.00000
    35.8389     2944.00000
    35.8520     2971.00000
    35.8651     2875.00000
    35.8783     2843.00000
    35.8914     2968.00000
    35.9045     2995.00000
    35.9176     2916.00000
    35.9308     2859.00000
    35.9439     2861.00000
    35.9570     3062.00000
    35.9702     3081.00000
    35.9833     2895.00000
    35.9964     2940.00000
    36.0096     2970.00000
    36.0227     2907.00000
    36.0358     2965.00000
    36.0489     2977.00000
    36.0621     2938.00000
    36.0752     3025.00000
    36.0883     2986.00000
    36.1015     2922.00000
    36.1146     2917.00000
    36.1277     2985.00000
    36.1409     2823.00000
    36.1540     2955.00000
    36.1671     2891.00000
    36.1802     2871.00000
    36.1934     3012.00000
    36.2065     2991.00000
    36.2196     2957.00000
    36.2328     2968.00000
    36.2459     2903.00000
    36.2590     2875.00000
    36.2722     2941.00000
    36.2853     2966.00000
    36.2984     2916.00000
    36.3116     2903.00000
    36.3247     2935.00000
    36.3378     2833.00000
    36.3509     2863.00000
    36.3641     2846.00000
    36.3772     2974.00000
    36.3903     2993.00000
    36.4035     2977.00000
    36.4166     2914.00000
    36.4297     3077.00000
    36.4429     2973.00000
    36.4560     2929.00000
    36.4691     3028.00000
    36.4822     3018.00000
    36.4954     3052.00000
    36.5085     3060.00000
    36.5216     3050.00000
    36.5348     3093.00000
    36.5479     3290.00000
    36.5610     3238.00000
    36.5742     3412.00000
    36.5873     3482.00000
    36.6004     3765.00000
    36.6135     4289.00000
    36.6267     5312.00000
    36.6398     6657.00000
    36.6529     8208.00000
    36.6661     9227.00000
    36.6792     9219.00000
    36.6923     8611.00000
    36.7055     7060.00000
    36.7186     6058.00000
    36.7317     5837.00000
    36.7449     6094.00000
    36.7580     6400.00000
    36.7711     6302.00000
    36.7842     5824.00000
    36.7974     5142.00000
    36.8105     4299.00000
    36.8236     3827.00000
    36.8368     3540.00000
    36.8499     3226.00000
    36.8630     3195.00000
    36.8762     3090.00000
    36.8893     3056.00000
    36.9024     3013.00000
    36.9155     3049.00000
    36.9287     3089.00000
    36.9418     3167.00000
    36.9549     3046.00000
    36.9681     3056.00000
    36.9812     3045.00000
    36.9943     2969.00000
    37.0075     3140.00000
    37.0206     3038.00000
    37.0337     3064.00000
    37.0468     3047.00000
    37.0600     3151.00000
    37.0731     3123.00000
    37.0862     3189.00000
    37.0994     3098.00000
    37.1125     3253.00000
    37.1256     3261.00000
    37.1388     3303.00000
    37.1519     3449.00000
    37.1650     3618.00000
    37.1782     4013.00000
    37.1913     4513.00000
    37.2044     5501.00000
    37.2175     6713.00000
    37.2307     8219.00000
    37.2438     9210.00000
    37.2569    10076.00000
    37.2701     9874.00000
    37.2832     9052.00000
    37.2963     8290.00000
    37.3095     7353.00000
    37.3226     6882.00000
    37.3357     6720.00000
    37.3488     6916.00000
    37.3620     6589.00000
    37.3751     6240.00000
    37.3882     5390.00000
    37.4014     4718.00000
    37.4145     3989.00000
    37.4276     3569.00000
    37.4408     3377.00000
    37.4539     3210.00000
    37.4670     3175.00000
    37.4801     3135.00000
    37.4933     3041.00000
    37.5064     3170.00000
    37.5195     3338.00000
    37.5327     3339.00000
    37.5458     3443.00000
    37.5589     3591.00000
    37.5721     3414.00000
    37.5852     3452.00000
    37.5983     3299.00000
    37.6115     3270.00000
    37.6246     3161.00000
    37.6377     3384.00000
    37.6508     3441.00000
    37.6640     3371.00000
    37.6771     3170.00000
    37.6902     3079.00000
    37.7034     3097.00000
    37.7165     2995.00000
    37.7296     3048.00000
    37.7428     2907.00000
    37.7559     2948.00000
    37.7690     2880.00000
    37.7821     2854.00000
    37.7953     2888.00000
    37.8084     2819.00000
    37.8215     2781.00000
    37.8347     2812.00000
    37.8478     2822.00000
    37.8609     2813.00000
    37.8741     2820.00000
    37.8872     2741.00000
    37.9003     2726.00000
    37.9134     2681.00000
    37.9266     2843.00000
    37.9397     2796.00000
    37.9528     2737.00000
    37.9660     2743.00000
    37.9791     2803.00000
    37.9922     2812.00000
    38.0054     2726.00000
    38.0185     2719.00000
    38.0316     2818.00000
    38.0448     2755.00000
    38.0579     2842.00000
    38.0710     2779.00000
    38.0841     2790.00000
    38.0973     2746.00000
    38.1104     2716.00000
    38.1235     2849.00000
    38.1367     2837.00000
    38.1498     2801.00000
    38.1629     2789.00000
    38.1761     2782.00000
    38.1892     2765.00000
    38.2023     2713.00000
    38.2154     2808.00000
    38.2286     2805.00000
    38.2417     2749.00000
    38.2548     2719.00000
    38.2680     2718.00000
    38.2811     2787.00000
    38.2942     2800.00000
    38.3074     2766.00000
    38.3205     2764.00000
    38.3336     2760.00000
    38.3467     2792.00000
    38.3599     2708.00000
    38.3730     2806.00000
    38.3861     2759.00000
    38.3993     2854.00000
    38.4124     2729.00000
    38.4255     2809.00000
    38.4387     2725.00000
    38.4518     2754.00000
    38.4649     2762.00000
    38.4781     2795.00000
    38.4912     2749.00000
    38.5043     2670.00000
    38.5174     2822.00000
    38.5306     2853.00000
    38.5437     2748.00000
    38.5568     2895.00000
    38.5700     2954.00000
    38.5831     2622.00000
    38.5962     2781.00000
    38.6094     2805.00000
    38.6225     2802.00000
    38.6356     2679.00000
    38.6487     2816.00000
    38.6619     2770.00000
    38.6750     2808.00000
    38.6881     2708.00000
    38.7013     2772.00000
    38.7144     2850.00000
    38.7275     2758.00000
    38.7407     2796.00000
    38.7538     2896.00000
    38.7669     2734.00000
    38.7800     2848.00000
    38.7932     2742.00000
    38.8063     2678.00000
    38.8194     2847.00000
    38.8326     2759.00000
    38.8457     2794.00000
    38.8588     2714.00000
    38.8720     2766.00000
    38.8851     2837.00000
    38.8982     2834.00000
    38.9114     2767.00000
    38.9245     2746.00000
    38.9376     2877.00000
    38.9507     2812.00000
    38.9639     2783.00000
    38.9770     2772.00000
    38.9901     2791.00000
    39.0033     2743.00000
    39.0164     2867.00000
    39.0295     2745.00000
    39.0427     2707.00000
    39.0558     2844.00000
    39.0689     2768.00000
    39.0820     2720.00000
    39.0952     2754.00000
    39.1083     2727.00000
    39.1214     2717.00000
    39.1346     2718.00000
    39.1477     2727.00000
    39.1608     2724.00000
    39.1740     2703.00000
    39.1871     2730.00000
    39.2002     2676.00000
    39.2133     2709.00000
    39.2265     2731.00000
    39.2396     2853.00000
    39.2527     2866.00000
    39.2659     2748.00000
    39.2790     2717.00000
    39.2921     2694.00000
    39.3053     2691.00000
    39.3184     2820.00000
    39.3315     2786.00000
    39.3446     2887.00000
    39.3578     2815.00000
    39.3709     2763.00000
    39.3840     2750.00000
    39.3972     2826.00000
    39.4103     2873.00000
    39.4234     2744.00000
    39.4366     2940.00000
    39.4497     2784.00000
    39.4628     2835.00000
    39.4760     2884.00000
    39.4891     2830.00000
    39.5022     2864.00000
    39.5153     2992.00000
    39.5285     3053.00000
    39.5416     3313.00000
    39.5547     3520.00000
    39.5679     3775.00000
    39.5810     4391.00000
    39.5941     4623.00000
    39.6073     4651.00000
    39.6204     4659.00000
    39.6335     4514.00000
    39.6466     4224.00000
    39.6598     4046.00000
    39.6729     3927.00000
    39.6860     3843.00000
    39.6992     3934.00000
    39.7123     3957.00000
    39.7254     3870.00000
    39.7386     3683.00000
    39.7517     3587.00000
    39.7648     3485.00000
    39.7779     3345.00000
    39.7911     3402.00000
    39.8042     3351.00000
    39.8173     3425.00000
    39.8305     3961.00000
    39.8436     4345.00000
    39.8567     5186.00000
    39.8699     6347.00000
    39.8830     7575.00000
    39.8961     8003.00000
    39.9092     7431.00000
    39.9224     6600.00000
    39.9355     5928.00000
    39.9486     5418.00000
    39.9618     5185.00000
    39.9749     5360.00000
    39.9880     5624.00000
    40.0012     5663.00000
    40.0143     5308.00000
    40.0274     4982.00000
    40.0406     4330.00000
    40.0537     3944.00000
    40.0668     3616.00000
    40.0799     3424.00000
    40.0931     3391.00000
    40.1062     3250.00000
    40.1193     3249.00000
    40.1325     3143.00000
    40.1456     3109.00000
    40.1587     3260.00000
    40.1719     3228.00000
    40.1850     3199.00000
    40.1981     3274.00000
    40.2112     3487.00000
    40.2244     3707.00000
    40.2375     4164.00000
    40.2506     5006.00000
    40.2638     6265.00000
    40.2769     7993.00000
    40.2900     9582.00000
    40.3032    10377.00000
    40.3163     9843.00000
    40.3294     8255.00000
    40.3425     7027.00000
    40.3557     6168.00000
    40.3688     5894.00000
    40.3819     6241.00000
    40.3951     6768.00000
    40.4082     6910.00000
    40.4213     6544.00000
    40.4345     5727.00000
    40.4476     4828.00000
    40.4607     4194.00000
    40.4739     3643.00000
    40.4870     3316.00000
    40.5001     3295.00000
    40.5132     3155.00000
    40.5264     3102.00000
    40.5395     3013.00000
    40.5526     3013.00000
    40.5658     2970.00000
    40.5789     3192.00000
    40.5920     3037.00000
    40.6052     3031.00000
    40.6183     3108.00000
    40.6314     2950.00000
    40.6445     3111.00000
    40.6577     3053.00000
    40.6708     3136.00000
    40.6839     3220.00000
    40.6971     3247.00000
    40.7102     3320.00000
    40.7233     3356.00000
    40.7365     3626.00000
    40.7496     3946.00000
    40.7627     4217.00000
    40.7758     4630.00000
    40.7890     5575.00000
    40.8021     6768.00000
    40.8152     8194.00000
    40.8284     9735.00000
    40.8415    11317.00000
    40.8546    11407.00000
    40.8678    10660.00000
    40.8809     9303.00000
    40.8940     8147.00000
    40.9072     7346.00000
    40.9203     7393.00000
    40.9334     7948.00000
    40.9465     8483.00000
    40.9597     8968.00000
    40.9728     9353.00000
    40.9859    10164.00000
    40.9991    11473.00000
    41.0122    12676.00000
    41.0253    13415.00000
    41.0385    13123.00000
    41.0516    11864.00000
    41.0647    10611.00000
    41.0778     9884.00000
    41.0910    10874.00000
    41.1041    13046.00000
    41.1172    14903.00000
    41.1304    16716.00000
    41.1435    16523.00000
    41.1566    14566.00000
    41.1698    11929.00000
    41.1829     9620.00000
    41.1960     8263.00000
    41.2091     7705.00000
    41.2223     7841.00000
    41.2354     7908.00000
    41.2485     7914.00000
    41.2617     7086.00000
    41.2748     5961.00000
    41.2879     5123.00000
    41.3011     4410.00000
    41.3142     3810.00000
    41.3273     3504.00000
    41.3405     3310.00000
    41.3536     3109.00000
    41.3667     2999.00000
    41.3798     3018.00000
    41.3930     2890.00000
    41.4061     2895.00000
    41.4192     2859.00000
    41.4324     2930.00000
    41.4455     2982.00000
    41.4586     2819.00000
    41.4718     2830.00000
    41.4849     2703.00000
    41.4980     2735.00000
    41.5111     2824.00000
    41.5243     2744.00000
    41.5374     2957.00000
    41.5505     2863.00000
    41.5637     2755.00000
    41.5768     2795.00000
    41.5899     2824.00000
    41.6031     2790.00000
    41.6162     2791.00000
    41.6293     2750.00000
    41.6424     2751.00000
    41.6556     2742.00000
    41.6687     2720.00000
    41.6818     2718.00000
    41.6950     2657.00000
    41.7081     2800.00000
    41.7212     2779.00000
    41.7344     2727.00000
    41.7475     2804.00000
    41.7606     2794.00000
    41.7738     2744.00000
    41.7869     2704.00000
    41.8000     2680.00000
    41.8131     2695.00000
    41.8263     2823.00000
    41.8394     2583.00000
    41.8525     2715.00000
    41.8657     2690.00000
    41.8788     2680.00000
    41.8919     2675.00000
    41.9051     2734.00000
    41.9182     2726.00000
    41.9313     2644.00000
    41.9444     2676.00000
    41.9576     2656.00000
    41.9707     2680.00000
    41.9838     2677.00000
    41.9970     2639.00000
    42.0101     2654.00000
    42.0232     2737.00000
    42.0364     2740.00000
    42.0495     2748.00000
    42.0626     2674.00000
    42.0757     2619.00000
    42.0889     2606.00000
    42.1020     2735.00000
    42.1151     2675.00000
    42.1283     2642.00000
    42.1414     2658.00000
    42.1545     2741.00000
    42.1677     2691.00000
    42.1808     2764.00000
    42.1939     2660.00000
    42.2071     2737.00000
    42.2202     2673.00000
    42.2333     2644.00000
    42.2464     2710.00000
    42.2596     2740.00000
    42.2727     2716.00000
    42.2858     2715.00000
    42.2990     2810.00000
    42.3121     2771.00000
    42.3252     2732.00000
    42.3384     2759.00000
    42.3515     2598.00000
    42.3646     2654.00000
    42.3777     2688.00000
    42.3909     2683.00000
    42.4040     2720.00000
    42.4171     2771.00000
    42.4303     2718.00000
    42.4434     2647.00000
    42.4565     2595.00000
    42.4697     2740.00000
    42.4828     2691.00000
    42.4959     2679.00000
    42.5090     2729.00000
    42.5222     2696.00000
    42.5353     2642.00000
    42.5484     2611.00000
    42.5616     2662.00000
    42.5747     2718.00000
    42.5878     2628.00000
    42.6010     2667.00000
    42.6141     2722.00000
    42.6272     2676.00000
    42.6404     2722.00000
    42.6535     2813.00000
    42.6666     2706.00000
    42.6797     2701.00000
    42.6929     2816.00000
    42.7060     2560.00000
    42.7191     2559.00000
    42.7323     2609.00000
    42.7454     2816.00000
    42.7585     2649.00000
    42.7717     2713.00000
    42.7848     2699.00000
    42.7979     2650.00000
    42.8110     2797.00000
    42.8242     2766.00000
    42.8373     2796.00000
    42.8504     2762.00000
    42.8636     2786.00000
    42.8767     2823.00000
    42.8898     2728.00000
    42.9030     2702.00000
    42.9161     2657.00000
    42.9292     2679.00000
    42.9423     2725.00000
    42.9555     2728.00000
    42.9686     2749.00000
    42.9817     2721.00000
    42.9949     2704.00000
    43.0080     2730.00000
    43.0211     2683.00000
    43.0343     2670.00000
    43.0474     2683.00000
    43.0605     2660.00000
    43.0736     2668.00000
    43.0868     2735.00000
    43.0999     2679.00000
    43.1130     2584.00000
    43.1262     2652.00000
    43.1393     2804.00000
    43.1524     2702.00000
    43.1656     2754.00000
    43.1787     2750.00000
    43.1918     2670.00000
    43.2050     2749.00000
    43.2181     2717.00000
    43.2312     2789.00000
    43.2443     2895.00000
    43.2575     2883.00000
    43.2706     2891.00000
    43.2837     3137.00000
    43.2969     3186.00000
    43.3100     3289.00000
    43.3231     3173.00000
    43.3363     3214.00000
    43.3494     3061.00000
    43.3625     2980.00000
    43.3756     2896.00000
    43.3888     2967.00000
    43.4019     3061.00000
    43.4150     2988.00000
    43.4282     2987.00000
    43.4413     2933.00000
    43.4544     2994.00000
    43.4676     2904.00000
    43.4807     2803.00000
    43.4938     2663.00000
    43.5069     2700.00000
    43.5201     2695.00000
    43.5332     2621.00000
    43.5463     2697.00000
    43.5595     2660.00000
    43.5726     2701.00000
    43.5857     2570.00000
    43.5989     2762.00000
    43.6120     2601.00000
    43.6251     2566.00000
    43.6383     2738.00000
    43.6514     2761.00000
    43.6645     2627.00000
    43.6776     2609.00000
    43.6908     2718.00000
    43.7039     2693.00000
    43.7170     2732.00000
    43.7302     2700.00000
    43.7433     2669.00000
    43.7564     2772.00000
    43.7696     2686.00000
    43.7827     2650.00000
    43.7958     2650.00000
    43.8089     2696.00000
    43.8221     2703.00000
    43.8352     2643.00000
    43.8483     2665.00000
    43.8615     2622.00000
    43.8746     2706.00000
    43.8877     2690.00000
    43.9009     2690.00000
    43.9140     2768.00000
    43.9271     2741.00000
    43.9402     2817.00000
    43.9534     2730.00000
    43.9665     2704.00000
    43.9796     2677.00000
    43.9928     2759.00000
    44.0059     2828.00000
    44.0190     2937.00000
    44.0322     2872.00000
    44.0453     3061.00000
    44.0584     3386.00000
    44.0715     3549.00000
    44.0847     3957.00000
    44.0978     4134.00000
    44.1109     4191.00000
    44.1241     3938.00000
    44.1372     3757.00000
    44.1503     3424.00000
    44.1635     3363.00000
    44.1766     3299.00000
    44.1897     3344.00000
    44.2029     3549.00000
    44.2160     3535.00000
    44.2291     3468.00000
    44.2422     3512.00000
    44.2554     3301.00000
    44.2685     3139.00000
    44.2816     3124.00000
    44.2948     2987.00000
    44.3079     3123.00000
    44.3210     3227.00000
    44.3342     3421.00000
    44.3473     3642.00000
    44.3604     4180.00000
    44.3735     4550.00000
    44.3867     5107.00000
    44.3998     5539.00000
    44.4129     5426.00000
    44.4261     5292.00000
    44.4392     4901.00000
    44.4523     4473.00000
    44.4655     4145.00000
    44.4786     3961.00000
    44.4917     4019.00000
    44.5048     4216.00000
    44.5180     4088.00000
    44.5311     4069.00000
    44.5442     3817.00000
    44.5574     3667.00000
    44.5705     3392.00000
    44.5836     3269.00000
    44.5968     3063.00000
    44.6099     2973.00000
    44.6230     2917.00000
    44.6362     2818.00000
    44.6493     2805.00000
    44.6624     2904.00000
    44.6755     2677.00000
    44.6887     2707.00000
    44.7018     2756.00000
    44.7149     2759.00000
    44.7281     2723.00000
    44.7412     2714.00000
    44.7543     2726.00000
    44.7675     2732.00000
    44.7806     2841.00000
    44.7937     2706.00000
    44.8068     2782.00000
    44.8200     2672.00000
    44.8331     2697.00000
    44.8462     2796.00000
    44.8594     2713.00000
    44.8725     2580.00000
    44.8856     2782.00000
    44.8988     2797.00000
    44.9119     2651.00000
    44.9250     2681.00000
    44.9381     2688.00000
    44.9513     2658.00000
    44.9644     2626.00000
    44.9775     2625.00000
    44.9907     2604.00000
    45.0038     2549.00000
    45.0169     2698.00000
    45.0301     2733.00000
    45.0432     2593.00000
    45.0563     2724.00000
    45.0695     2725.00000
    45.0826     2711.00000
    45.0957     2696.00000
    45.1088     2728.00000
    45.1220     2688.00000
    45.1351     2730.00000
    45.1482     2719.00000
    45.1614     2767.00000
    45.1745     2710.00000
    45.1876     2605.00000
    45.2008     2687.00000
    45.2139     2730.00000
    45.2270     2813.00000
    45.2401     2791.00000
    45.2533     2724.00000
    45.2664     2734.00000
    45.2795     2742.00000
    45.2927     2807.00000
    45.3058     2763.00000
    45.3189     2751.00000
    45.3321     2804.00000
    45.3452     2820.00000
    45.3583     2940.00000
    45.3714     2875.00000
    45.3846     2985.00000
    45.3977     2947.00000
    45.4108     2954.00000
    45.4240     2962.00000
    45.4371     3014.00000
    45.4502     2979.00000
    45.4634     3069.00000
    45.4765     3114.00000
    45.4896     3248.00000
    45.5028     3462.00000
    45.5159     3870.00000
    45.5290     4574.00000
    45.5421     5571.00000
    45.5553     7206.00000
    45.5684     9378.00000
    45.5815    11064.00000
    45.5947    11607.00000
    45.6078    10224.00000
    45.6209     7706.00000
    45.6341     6309.00000
    45.6472     5180.00000
    45.6603     4964.00000
    45.6734     5519.00000
    45.6866     6279.00000
    45.6997     6976.00000
    45.7128     7182.00000
    45.7260     6614.00000
    45.7391     5500.00000
    45.7522     4492.00000
    45.7654     3786.00000
    45.7785     3423.00000
    45.7916     3038.00000
    45.8047     3024.00000
    45.8179     2885.00000
    45.8310     2869.00000
    45.8441     2771.00000
    45.8573     2781.00000
    45.8704     2753.00000
    45.8835     2713.00000
    45.8967     2733.00000
    45.9098     2822.00000
    45.9229     2741.00000
    45.9361     2814.00000
    45.9492     2739.00000
    45.9623     2767.00000
    45.9754     2801.00000
    45.9886     2836.00000
    46.0017     2813.00000
    46.0148     2798.00000
    46.0280     2791.00000
    46.0411     2749.00000
    46.0542     2896.00000
    46.0674     2768.00000
    46.0805     2873.00000
    46.0936     2938.00000
    46.1067     2776.00000
    46.1199     2826.00000
    46.1330     2929.00000
    46.1461     2879.00000
    46.1593     2973.00000
    46.1724     2879.00000
    46.1855     3003.00000
    46.1987     3000.00000
    46.2118     3040.00000
    46.2249     3149.00000
    46.2380     3310.00000
    46.2512     3688.00000
    46.2643     4144.00000
    46.2774     4987.00000
    46.2906     6010.00000
    46.3037     6801.00000
    46.3168     7213.00000
    46.3300     6583.00000
    46.3431     5442.00000
    46.3562     4647.00000
    46.3694     4033.00000
    46.3825     3967.00000
    46.3956     4108.00000
    46.4087     4416.00000
    46.4219     4850.00000
    46.4350     5165.00000
    46.4481     4945.00000
    46.4613     4310.00000
    46.4744     3852.00000
    46.4875     3469.00000
    46.5007     3239.00000
    46.5138     3144.00000
    46.5269     2971.00000
    46.5400     3017.00000
    46.5532     2891.00000
    46.5663     2940.00000
    46.5794     2809.00000
    46.5926     2921.00000
    46.6057     2907.00000
    46.6188     2823.00000
    46.6320     2843.00000
    46.6451     2855.00000
    46.6582     2795.00000
    46.6713     2822.00000
    46.6845     2802.00000
    46.6976     2783.00000
    46.7107     2719.00000
    46.7239     2872.00000
    46.7370     2846.00000
    46.7501     2878.00000
    46.7633     2863.00000
    46.7764     2859.00000
    46.7895     2887.00000
    46.8027     2950.00000
    46.8158     2957.00000
    46.8289     2965.00000
    46.8420     3037.00000
    46.8552     3105.00000
    46.8683     3206.00000
    46.8814     3170.00000
    46.8946     3422.00000
    46.9077     3635.00000
    46.9208     4070.00000
    46.9340     4664.00000
    46.9471     5481.00000
    46.9602     6585.00000
    46.9733     7377.00000
    46.9865     8345.00000
    46.9996     8726.00000
    47.0127     8507.00000
    47.0259     7768.00000
    47.0390     6573.00000
    47.0521     5655.00000
    47.0653     5288.00000
    47.0784     5305.00000
    47.0915     5515.00000
    47.1046     5586.00000
    47.1178     5898.00000
    47.1309     5977.00000
    47.1440     5593.00000
    47.1572     4968.00000
    47.1703     4270.00000
    47.1834     3759.00000
    47.1966     3416.00000
    47.2097     3290.00000
    47.2228     3211.00000
    47.2359     3167.00000
    47.2491     3129.00000
    47.2622     3078.00000
    47.2753     2993.00000
    47.2885     2996.00000
    47.3016     3040.00000
    47.3147     3115.00000
    47.3279     3146.00000
    47.3410     3258.00000
    47.3541     3097.00000
    47.3673     3203.00000
    47.3804     3236.00000
    47.3935     3217.00000
    47.4066     3245.00000
    47.4198     3422.00000
    47.4329     3397.00000
    47.4460     3384.00000
    47.4592     3360.00000
    47.4723     3392.00000
    47.4854     3538.00000
    47.4986     3628.00000
    47.5117     3735.00000
    47.5248     3835.00000
    47.5379     4019.00000
    47.5511     4350.00000
    47.5642     4746.00000
    47.5773     5265.00000
    47.5905     5946.00000
    47.6036     7408.00000
    47.6167     9037.00000
    47.6299    11601.00000
    47.6430    14950.00000
    47.6561    18420.00000
    47.6692    20421.00000
    47.6824    20025.00000
    47.6955    18246.00000
    47.7086    15061.00000
    47.7218    12904.00000
    47.7349    11105.00000
    47.7480    10140.00000
    47.7612    10542.00000
    47.7743    11425.00000
    47.7874    12356.00000
    47.8005    12342.00000
    47.8137    11565.00000
    47.8268     9973.00000
    47.8399     8410.00000
    47.8531     6983.00000
    47.8662     5736.00000
    47.8793     4945.00000
    47.8925     4557.00000
    47.9056     4044.00000
    47.9187     3883.00000
    47.9319     3777.00000
    47.9450     3485.00000
    47.9581     3346.00000
    47.9712     3334.00000
    47.9844     3322.00000
    47.9975     3249.00000
    48.0106     3180.00000
    48.0238     3177.00000
    48.0369     3217.00000
    48.0500     3217.00000
    48.0632     3168.00000
    48.0763     3164.00000
    48.0894     3296.00000
    48.1025     3223.00000
    48.1157     3303.00000
    48.1288     3297.00000
    48.1419     3429.00000
    48.1551     3480.00000
    48.1682     3441.00000
    48.1813     3673.00000
    48.1945     3794.00000
    48.2076     4069.00000
    48.2207     4665.00000
    48.2338     5763.00000
    48.2470     7396.00000
    48.2601     9246.00000
    48.2732    11208.00000
    48.2864    12397.00000
    48.2995    12790.00000
    48.3126    13002.00000
    48.3258    13214.00000
    48.3389    13006.00000
    48.3520    12465.00000
    48.3652    11793.00000
    48.3783    11095.00000
    48.3914    10473.00000
    48.4045    10028.00000
    48.4177     9503.00000
    48.4308     8782.00000
    48.4439     8716.00000
    48.4571     8476.00000
    48.4702     8299.00000
    48.4833     7556.00000
    48.4965     6823.00000
    48.5096     6159.00000
    48.5227     5418.00000
    48.5358     4836.00000
    48.5490     4314.00000
    48.5621     4118.00000
    48.5752     4316.00000
    48.5884     4433.00000
    48.6015     5118.00000
    48.6146     5950.00000
    48.6278     7358.00000
    48.6409     9434.00000
    48.6540    11554.00000
    48.6671    13154.00000
    48.6803    13345.00000
    48.6934    11699.00000
    48.7065     9582.00000
    48.7197     7738.00000
    48.7328     6556.00000
    48.7459     6318.00000
    48.7591     6258.00000
    48.7722     7042.00000
    48.7853     7867.00000
    48.7985     8237.00000
    48.8116     7959.00000
    48.8247     7306.00000
    48.8378     6166.00000
    48.8510     4995.00000
    48.8641     4402.00000
    48.8772     3844.00000
    48.8904     3669.00000
    48.9035     3293.00000
    48.9166     3251.00000
    48.9298     3223.00000
    48.9429     3200.00000
    48.9560     3080.00000
    48.9691     3019.00000
    48.9823     2986.00000
    48.9954     2927.00000
    49.0085     2922.00000
    49.0217     3026.00000
    49.0348     2960.00000
    49.0479     2831.00000
    49.0611     2874.00000
    49.0742     2845.00000
    49.0873     2920.00000
    49.1004     2843.00000
    49.1136     2869.00000
    49.1267     2804.00000
    49.1398     2952.00000
    49.1530     2929.00000
    49.1661     2972.00000
    49.1792     2929.00000
    49.1924     2859.00000
    49.2055     2914.00000
    49.2186     2925.00000
    49.2318     2840.00000
    49.2449     2893.00000
    49.2580     3033.00000
    49.2711     3033.00000
    49.2843     2961.00000
    49.2974     3052.00000
    49.3105     3213.00000
    49.3237     3281.00000
    49.3368     3402.00000
    49.3499     3502.00000
    49.3631     3449.00000
    49.3762     3531.00000
    49.3893     3348.00000
    49.4024     3269.00000
    49.4156     3168.00000
    49.4287     3280.00000
    49.4418     3202.00000
    49.4550     3302.00000
    49.4681     3299.00000
    49.4812     3399.00000
    49.4944     3499.00000
    49.5075     3496.00000
    49.5206     3493.00000
    49.5337     3572.00000
    49.5469     3495.00000
    49.5600     3555.00000
    49.5731     3701.00000
    49.5863     3469.00000
    49.5994     3392.00000
    49.6125     3425.00000
    49.6257     3341.00000
    49.6388     3402.00000
    49.6519     3455.00000
    49.6651     3400.00000
    49.6782     3522.00000
    49.6913     3642.00000
    49.7044     3664.00000
    49.7176     3671.00000
    49.7307     3739.00000
    49.7438     3796.00000
    49.7570     3959.00000
    49.7701     4199.00000
    49.7832     4351.00000
    49.7964     5010.00000
    49.8095     5655.00000
    49.8226     6969.00000
    49.8357     8652.00000
    49.8489    11599.00000
    49.8620    14840.00000
    49.8751    17527.00000
    49.8883    18916.00000
    49.9014    18366.00000
    49.9145    16553.00000
    49.9277    13471.00000
    49.9408    11141.00000
    49.9539    10028.00000
    49.9670     9580.00000
    49.9802     9962.00000
    49.9933    10758.00000
    50.0064    11478.00000
    50.0196    11857.00000
    50.0327    11313.00000
    50.0458    10235.00000
    50.0590     8682.00000
    50.0721     7151.00000
    50.0852     6376.00000
    50.0984     5523.00000
    50.1115     4853.00000
    50.1246     4483.00000
    50.1377     4266.00000
    50.1509     3992.00000
    50.1640     3924.00000
    50.1771     3739.00000
    50.1903     3795.00000
    50.2034     3748.00000
    50.2165     3813.00000
    50.2297     3939.00000
    50.2428     3948.00000
    50.2559     4457.00000
    50.2690     5004.00000
    50.2822     5542.00000
    50.2953     6592.00000
    50.3084     7790.00000
    50.3216     9108.00000
    50.3347    10501.00000
    50.3478    11344.00000
    50.3610    11592.00000
    50.3741    10661.00000
    50.3872     8871.00000
    50.4003     7876.00000
    50.4135     6964.00000
    50.4266     6465.00000
    50.4397     6637.00000
    50.4529     6819.00000
    50.4660     7187.00000
    50.4791     7459.00000
    50.4923     7498.00000
    50.5054     6956.00000
    50.5185     6076.00000
    50.5317     5335.00000
    50.5448     4773.00000
    50.5579     4246.00000
    50.5710     3845.00000
    50.5842     3525.00000
    50.5973     3384.00000
    50.6104     3300.00000
    50.6236     3280.00000
    50.6367     3098.00000
    50.6498     2991.00000
    50.6630     3052.00000
    50.6761     3005.00000
    50.6892     3050.00000
    50.7023     2996.00000
    50.7155     2935.00000
    50.7286     2859.00000
    50.7417     2979.00000
    50.7549     2871.00000
    50.7680     2871.00000
    50.7811     2905.00000
    50.7943     2810.00000
    50.8074     2815.00000
    50.8205     3036.00000
    50.8336     2762.00000
    50.8468     2872.00000
    50.8599     2855.00000
    50.8730     2825.00000
    50.8862     2818.00000
    50.8993     2883.00000
    50.9124     2933.00000
    50.9256     2958.00000
    50.9387     2885.00000
    50.9518     2904.00000
    50.9649     2862.00000
    50.9781     3009.00000
    50.9912     3021.00000
    51.0043     2917.00000
    51.0175     3003.00000
    51.0306     2964.00000
    51.0437     3004.00000
    51.0569     2957.00000
    51.0700     2976.00000
    51.0831     2970.00000
    51.0963     3137.00000
    51.1094     3219.00000
    51.1225     3309.00000
    51.1356     3376.00000
    51.1488     3642.00000
    51.1619     4037.00000
    51.1750     4896.00000
    51.1882     5840.00000
    51.2013     7354.00000
    51.2144     8550.00000
    51.2276     8831.00000
    51.2407     8783.00000
    51.2538     7492.00000
    51.2669     6240.00000
    51.2801     5342.00000
    51.2932     4914.00000
    51.3063     4626.00000
    51.3195     4761.00000
    51.3326     5302.00000
    51.3457     5804.00000
    51.3589     5935.00000
    51.3720     5980.00000
    51.3851     5547.00000
    51.3982     4865.00000
    51.4114     4486.00000
    51.4245     4034.00000
    51.4376     3900.00000
    51.4508     3920.00000
    51.4639     3813.00000
    51.4770     3729.00000
    51.4902     3451.00000
    51.5033     3384.00000
    51.5164     3238.00000
    51.5296     3082.00000
    51.5427     3201.00000
    51.5558     3085.00000
    51.5689     3003.00000
    51.5821     3226.00000
    51.5952     3165.00000
    51.6083     3170.00000
    51.6215     3088.00000
    51.6346     3040.00000
    51.6477     3069.00000
    51.6609     2946.00000
    51.6740     2877.00000
    51.6871     2871.00000
    51.7002     2862.00000
    51.7134     2876.00000
    51.7265     2802.00000
    51.7396     2877.00000
    51.7528     2827.00000
    51.7659     2821.00000
    51.7790     2972.00000
    51.7922     2780.00000
    51.8053     2838.00000
    51.8184     2816.00000
    51.8315     2896.00000
    51.8447     2853.00000
    51.8578     2814.00000
    51.8709     2820.00000
    51.8841     2772.00000
    51.8972     2693.00000
    51.9103     2844.00000
    51.9235     2822.00000
    51.9366     2894.00000
    51.9497     2822.00000
    51.9628     2844.00000
    51.9760     2819.00000
    51.9891     2847.00000
    52.0022     2880.00000
    52.0154     2851.00000
    52.0285     2753.00000
    52.0416     2856.00000
    52.0548     2717.00000
    52.0679     2803.00000
    52.0810     2847.00000
    52.0942     2867.00000
    52.1073     2872.00000
    52.1204     2743.00000
    52.1335     2818.00000
    52.1467     2921.00000
    52.1598     2892.00000
    52.1729     2856.00000
    52.1861     2998.00000
    52.1992     2968.00000
    52.2123     2942.00000
    52.2255     3034.00000
    52.2386     3026.00000
    52.2517     2967.00000
    52.2648     3007.00000
    52.2780     3075.00000
    52.2911     3173.00000
    52.3042     3150.00000
    52.3174     3179.00000
    52.3305     3261.00000
    52.3436     3405.00000
    52.3568     3511.00000
    52.3699     3756.00000
    52.3830     4383.00000
    52.3961     5112.00000
    52.4093     6138.00000
    52.4224     7186.00000
    52.4355     8447.00000
    52.4487     9809.00000
    52.4618    10332.00000
    52.4749    10261.00000
    52.4881    10009.00000
    52.5012     9363.00000
    52.5143     8169.00000
    52.5275     7144.00000
    52.5406     6248.00000
    52.5537     6075.00000
    52.5668     6051.00000
    52.5800     6368.00000
    52.5931     6784.00000
    52.6062     6854.00000
    52.6194     6835.00000
    52.6325     6472.00000
    52.6456     5850.00000
    52.6588     5251.00000
    52.6719     4588.00000
    52.6850     4324.00000
    52.6981     3851.00000
    52.7113     3820.00000
    52.7244     3967.00000
    52.7375     4090.00000
    52.7507     4397.00000
    52.7638     4804.00000
    52.7769     5132.00000
    52.7901     5507.00000
    52.8032     5862.00000
    52.8163     5972.00000
    52.8294     6196.00000
    52.8426     6277.00000
    52.8557     6058.00000
    52.8688     5774.00000
    52.8820     5438.00000
    52.8951     4972.00000
    52.9082     4700.00000
    52.9214     4608.00000
    52.9345     4507.00000
    52.9476     4512.00000
    52.9608     4535.00000
    52.9739     4325.00000
    52.9870     4332.00000
    53.0001     4334.00000
    53.0133     4257.00000
    53.0264     3837.00000
    53.0395     3507.00000
    53.0527     3327.00000
    53.0658     3083.00000
    53.0789     3009.00000
    53.0921     2862.00000
    53.1052     2781.00000
    53.1183     2886.00000
    53.1314     2755.00000
    53.1446     2760.00000
    53.1577     2808.00000
    53.1708     2705.00000
    53.1840     2810.00000
    53.1971     2772.00000
    53.2102     2692.00000
    53.2234     2851.00000
    53.2365     2712.00000
    53.2496     2833.00000
    53.2627     2800.00000
    53.2759     2828.00000
    53.2890     2775.00000
    53.3021     2867.00000
    53.3153     2865.00000
    53.3284     2768.00000
    53.3415     2870.00000
    53.3547     2940.00000
    53.3678     2818.00000
    53.3809     2823.00000
    53.3941     2854.00000
    53.4072     2941.00000
    53.4203     3018.00000
    53.4334     3191.00000
    53.4466     3370.00000
    53.4597     3475.00000
    53.4728     3765.00000
    53.4860     3933.00000
    53.4991     4211.00000
    53.5122     4216.00000
    53.5254     4199.00000
    53.5385     3803.00000
    53.5516     3586.00000
    53.5647     3368.00000
    53.5779     3295.00000
    53.5910     3234.00000
    53.6041     3247.00000
    53.6173     3267.00000
    53.6304     3402.00000
    53.6435     3329.00000
    53.6567     3396.00000
    53.6698     3266.00000
    53.6829     3206.00000
    53.6960     3134.00000
    53.7092     2992.00000
    53.7223     2874.00000
    53.7354     2800.00000
    53.7486     2914.00000
    53.7617     2817.00000
    53.7748     2832.00000
    53.7880     2868.00000
    53.8011     2783.00000
    53.8142     2725.00000
    53.8274     2702.00000
    53.8405     2630.00000
    53.8536     2675.00000
    53.8667     2771.00000
    53.8799     2617.00000
    53.8930     2680.00000
    53.9061     2689.00000
    53.9193     2751.00000
    53.9324     2725.00000
    53.9455     2668.00000
    53.9587     2772.00000
    53.9718     2747.00000
    53.9849     2671.00000
    53.9980     2805.00000
    54.0112     2715.00000
    54.0243     2756.00000
    54.0374     2797.00000
    54.0506     2711.00000
    54.0637     2771.00000
    54.0768     2797.00000
    54.0900     2822.00000
    54.1031     2787.00000
    54.1162     2770.00000
    54.1293     2861.00000
    54.1425     2982.00000
    54.1556     2943.00000
    54.1687     3042.00000
    54.1819     3041.00000
    54.1950     3123.00000
    54.2081     3033.00000
    54.2213     3168.00000
    54.2344     3131.00000
    54.2475     2960.00000
    54.2607     3021.00000
    54.2738     2999.00000
    54.2869     2953.00000
    54.3000     2968.00000
    54.3132     2896.00000
    54.3263     2875.00000
    54.3394     2914.00000
    54.3526     2804.00000
    54.3657     2906.00000
    54.3788     2990.00000
    54.3920     2812.00000
    54.4051     2902.00000
    54.4182     2785.00000
    54.4313     2785.00000
    54.4445     2711.00000
    54.4576     2696.00000
    54.4707     2663.00000
    54.4839     2795.00000
    54.4970     2685.00000
    54.5101     2772.00000
    54.5233     2651.00000
    54.5364     2716.00000
    54.5495     2642.00000
    54.5626     2721.00000
    54.5758     2777.00000
    54.5889     2774.00000
    54.6020     2773.00000
    54.6152     2708.00000
    54.6283     2598.00000
    54.6414     2693.00000
    54.6546     2725.00000
    54.6677     2743.00000
    54.6808     2778.00000
    54.6940     2655.00000
    54.7071     2746.00000
    54.7202     2773.00000
    54.7333     2736.00000
    54.7465     2803.00000
    54.7596     2739.00000
    54.7727     2804.00000
    54.7859     2775.00000
    54.7990     2664.00000
    54.8121     2731.00000
    54.8253     2690.00000
    54.8384     2699.00000
    54.8515     2730.00000
    54.8646     2801.00000
    54.8778     2813.00000
    54.8909     2720.00000
    54.9040     2804.00000
    54.9172     2824.00000
    54.9303     2843.00000
    54.9434     2809.00000
    54.9566     2906.00000
    54.9697     2852.00000
    54.9828     2959.00000
    54.9959     2957.00000
    55.0091     2944.00000
    55.0222     3047.00000
    55.0353     3069.00000
    55.0485     3010.00000
    55.0616     3022.00000
    55.0747     3014.00000
    55.0879     3105.00000
    55.1010     3288.00000
    55.1141     3318.00000
    55.1272     3437.00000
    55.1404     3526.00000
    55.1535     3803.00000
    55.1666     4213.00000
    55.1798     4941.00000
    55.1929     5620.00000
    55.2060     6682.00000
    55.2192     8541.00000
    55.2323    10169.00000
    55.2454    11445.00000
    55.2586    11945.00000
    55.2717    11318.00000
    55.2848     9522.00000
    55.2979     7972.00000
    55.3111     6773.00000
    55.3242     5981.00000
    55.3373     5834.00000
    55.3505     5716.00000
    55.3636     6163.00000
    55.3767     6897.00000
    55.3899     7594.00000
    55.4030     7770.00000
    55.4161     7538.00000
    55.4292     6962.00000
    55.4424     5920.00000
    55.4555     5085.00000
    55.4686     4531.00000
    55.4818     4102.00000
    55.4949     3840.00000
    55.5080     3530.00000
    55.5212     3675.00000
    55.5343     3515.00000
    55.5474     3636.00000
    55.5605     3659.00000
    55.5737     3613.00000
    55.5868     3408.00000
    55.5999     3278.00000
    55.6131     3181.00000
    55.6262     3142.00000
    55.6393     3062.00000
    55.6525     2954.00000
    55.6656     3055.00000
    55.6787     3075.00000
    55.6918     3049.00000
    55.7050     3009.00000
    55.7181     3061.00000
    55.7312     3151.00000
    55.7444     2929.00000
    55.7575     2948.00000
    55.7706     2969.00000
    55.7838     2915.00000
    55.7969     2746.00000
    55.8100     2839.00000
    55.8232     2984.00000
    55.8363     2965.00000
    55.8494     2845.00000
    55.8625     2913.00000
    55.8757     2841.00000
    55.8888     2925.00000
    55.9019     2935.00000
    55.9151     2849.00000
    55.9282     2866.00000
    55.9413     2894.00000
    55.9545     2972.00000
    55.9676     3013.00000
    55.9807     3076.00000
    55.9938     3018.00000
    56.0070     3092.00000
    56.0201     3142.00000
    56.0332     3182.00000
    56.0464     3358.00000
    56.0595     3567.00000
    56.0726     3651.00000
    56.0858     4124.00000
    56.0989     4461.00000
    56.1120     4957.00000
    56.1251     5735.00000
    56.1383     6021.00000
    56.1514     6528.00000
    56.1645     6574.00000
    56.1777     6721.00000
    56.1908     7086.00000
    56.2039     7827.00000
    56.2171     9277.00000
    56.2302    10489.00000
    56.2433    11929.00000
    56.2565    12895.00000
    56.2696    13403.00000
    56.2827    12775.00000
    56.2958    11743.00000
    56.3090    10124.00000
    56.3221     8732.00000
    56.3352     7475.00000
    56.3484     6804.00000
    56.3615     6645.00000
    56.3746     6988.00000
    56.3878     7394.00000
    56.4009     7694.00000
    56.4140     7672.00000
    56.4271     7678.00000
    56.4403     7027.00000
    56.4534     6319.00000
    56.4665     5608.00000
    56.4797     4830.00000
    56.4928     4309.00000
    56.5059     3821.00000
    56.5191     3625.00000
    56.5322     3421.00000
    56.5453     3435.00000
    56.5584     3326.00000
    56.5716     3147.00000
    56.5847     3150.00000
    56.5978     3033.00000
    56.6110     3168.00000
    56.6241     3102.00000
    56.6372     3140.00000
    56.6504     3081.00000
    56.6635     3223.00000
    56.6766     2993.00000
    56.6898     3059.00000
    56.7029     3195.00000
    56.7160     3214.00000
    56.7291     3281.00000
    56.7423     3091.00000
    56.7554     3333.00000
    56.7685     3351.00000
    56.7817     3350.00000
    56.7948     3517.00000
    56.8079     3634.00000
    56.8211     3914.00000
    56.8342     4456.00000
    56.8473     4799.00000
    56.8604     5463.00000
    56.8736     6394.00000
    56.8867     7117.00000
    56.8998     7795.00000
    56.9130     8328.00000
    56.9261     8809.00000
    56.9392     9527.00000
    56.9524     9677.00000
    56.9655     9889.00000
    56.9786     9795.00000
    56.9917     9279.00000
    57.0049     8448.00000
    57.0180     7734.00000
    57.0311     7018.00000
    57.0443     6906.00000
    57.0574     6737.00000
    57.0705     6694.00000
    57.0837     6920.00000
    57.0968     7248.00000
    57.1099     7519.00000
    57.1231     7620.00000
    57.1362     8043.00000
    57.1493     8433.00000
    57.1624     8592.00000
    57.1756     8625.00000
    57.1887     8033.00000
    57.2018     7076.00000
    57.2150     6254.00000
    57.2281     5453.00000
    57.2412     4930.00000
    57.2544     4546.00000
    57.2675     4213.00000
    57.2806     4306.00000
    57.2937     4344.00000
    57.3069     4690.00000
    57.3200     4914.00000
    57.3331     5071.00000
    57.3463     4941.00000
    57.3594     4688.00000
    57.3725     4371.00000
    57.3857     3898.00000
    57.3988     3666.00000
    57.4119     3418.00000
    57.4250     3311.00000
    57.4382     3216.00000
    57.4513     3142.00000
    57.4644     3063.00000
    57.4776     3111.00000
    57.4907     2960.00000
    57.5038     3080.00000
    57.5170     3040.00000
    57.5301     3077.00000
    57.5432     3006.00000
    57.5564     3008.00000
    57.5695     3119.00000
    57.5826     3096.00000
    57.5957     3057.00000
    57.6089     3114.00000
    57.6220     3153.00000
    57.6351     3225.00000
    57.6483     3269.00000
    57.6614     3250.00000
    57.6745     3525.00000
    57.6877     3638.00000
    57.7008     3848.00000
    57.7139     4141.00000
    57.7270     4610.00000
    57.7402     5135.00000
    57.7533     6221.00000
    57.7664     7307.00000
    57.7796     8301.00000
    57.7927     9140.00000
    57.8058     8833.00000
    57.8190     8054.00000
    57.8321     7181.00000
    57.8452     6191.00000
    57.8583     5494.00000
    57.8715     5180.00000
    57.8846     5047.00000
    57.8977     5565.00000
    57.9109     5877.00000
    57.9240     6619.00000
    57.9371     7117.00000
    57.9503     7277.00000
    57.9634     7068.00000
    57.9765     6294.00000
    57.9897     5545.00000
    58.0028     4835.00000
    58.0159     4311.00000
    58.0290     4041.00000
    58.0422     3958.00000
    58.0553     3820.00000
    58.0684     3810.00000
    58.0816     3868.00000
    58.0947     3890.00000
    58.1078     3711.00000
    58.1210     3737.00000
    58.1341     3676.00000
    58.1472     3473.00000
    58.1603     3340.00000
    58.1735     3328.00000
    58.1866     3366.00000
    58.1997     3249.00000
    58.2129     3352.00000
    58.2260     3436.00000
    58.2391     3490.00000
    58.2523     3596.00000
    58.2654     3752.00000
    58.2785     3923.00000
    58.2916     4295.00000
    58.3048     4621.00000
    58.3179     5587.00000
    58.3310     6148.00000
    58.3442     6942.00000
    58.3573     7592.00000
    58.3704     8282.00000
    58.3836     8731.00000
    58.3967     8474.00000
    58.4098     8139.00000
    58.4230     7025.00000
    58.4361     6265.00000
    58.4492     5615.00000
    58.4623     5246.00000
    58.4755     5259.00000
    58.4886     5444.00000
    58.5017     5635.00000
    58.5149     6231.00000
    58.5280     6762.00000
    58.5411     7207.00000
    58.5543     7643.00000
    58.5674     8238.00000
    58.5805     8779.00000
    58.5936     9428.00000
    58.6068     9603.00000
    58.6199     9699.00000
    58.6330     8947.00000
    58.6462     7564.00000
    58.6593     6436.00000
    58.6724     5744.00000
    58.6856     5116.00000
    58.6987     4799.00000
    58.7118     4900.00000
    58.7249     5104.00000
    58.7381     5717.00000
    58.7512     6097.00000
    58.7643     6767.00000
    58.7775     7166.00000
    58.7906     7594.00000
    58.8037     7776.00000
    58.8169     8152.00000
    58.8300     8479.00000
    58.8431     9255.00000
    58.8562     9641.00000
    58.8694     9616.00000
    58.8825     9070.00000
    58.8956     7906.00000
    58.9088     6629.00000
    58.9219     5912.00000
    58.9350     5342.00000
    58.9482     5103.00000
    58.9613     4964.00000
    58.9744     5128.00000
    58.9876     5546.00000
    59.0007     5801.00000
    59.0138     6043.00000
    59.0269     6309.00000
    59.0401     5964.00000
    59.0532     5395.00000
    59.0663     4777.00000
    59.0795     4317.00000
    59.0926     3927.00000
    59.1057     3551.00000
    59.1189     3521.00000
    59.1320     3339.00000
    59.1451     3166.00000
    59.1582     3054.00000
    59.1714     3055.00000
    59.1845     3119.00000
    59.1976     2999.00000
    59.2108     3056.00000
    59.2239     2972.00000
    59.2370     3112.00000
    59.2502     3037.00000
    59.2633     3031.00000
    59.2764     3012.00000
    59.2895     3081.00000
    59.3027     3100.00000
    59.3158     3025.00000
    59.3289     3012.00000
    59.3421     3064.00000
    59.3552     3132.00000
    59.3683     3090.00000
    59.3815     3134.00000
    59.3946     3320.00000
    59.4077     3394.00000
    59.4208     3517.00000
    59.4340     3920.00000
    59.4471     4398.00000
    59.4602     5018.00000
    59.4734     5400.00000
    59.4865     6140.00000
    59.4996     7064.00000
    59.5128     7721.00000
    59.5259     8115.00000
    59.5390     8449.00000
    59.5522     8170.00000
    59.5653     7503.00000
    59.5784     6824.00000
    59.5915     6060.00000
    59.6047     5462.00000
    59.6178     5158.00000
    59.6309     5122.00000
    59.6441     5124.00000
    59.6572     5227.00000
    59.6703     5812.00000
    59.6835     6152.00000
    59.6966     6452.00000
    59.7097     6780.00000
    59.7228     6932.00000
    59.7360     7154.00000
    59.7491     7049.00000
    59.7622     7309.00000
    59.7754     7720.00000
    59.7885     8084.00000
    59.8016     9101.00000
    59.8148     9947.00000
    59.8279    10983.00000
    59.8410    11178.00000
    59.8541    10846.00000
    59.8673     9608.00000
    59.8804     8044.00000
    59.8935     6862.00000
    59.9067     6196.00000
    59.9198     5882.00000
    59.9329     5703.00000
    59.9461     5823.00000
    59.9592     5892.00000
    59.9723     6205.00000
    59.9855     6826.00000
    59.9986     6934.00000
    60.0117     6947.00000
    60.0248     6461.00000
    60.0380     5543.00000
    60.0511     4855.00000
    60.0642     4247.00000
    60.0774     3890.00000
    60.0905     3460.00000
    60.1036     3393.00000
    60.1168     3268.00000
    60.1299     3197.00000
    60.1430     3129.00000
    60.1561     3118.00000
    60.1693     3133.00000
    60.1824     2976.00000
    60.1955     3090.00000
    60.2087     2990.00000
    60.2218     2936.00000
    60.2349     3053.00000
    60.2481     2964.00000
    60.2612     3016.00000
    60.2743     3110.00000
    60.2874     3104.00000
    60.3006     3127.00000
    60.3137     3151.00000
    60.3268     3161.00000
    60.3400     3221.00000
    60.3531     3286.00000
    60.3662     3343.00000
    60.3794     3283.00000
    60.3925     3364.00000
    60.4056     3476.00000
    60.4188     3629.00000
    60.4319     3776.00000
    60.4450     3926.00000
    60.4581     4302.00000
    60.4713     4785.00000
    60.4844     5266.00000
    60.4975     6206.00000
    60.5107     7641.00000
    60.5238     9560.00000
    60.5369    11586.00000
    60.5501    13344.00000
    60.5632    14362.00000
    60.5763    14377.00000
    60.5894    13335.00000
    60.6026    11655.00000
    60.6157    10129.00000
    60.6288     8661.00000
    60.6420     7638.00000
    60.6551     7111.00000
    60.6682     7118.00000
    60.6814     7508.00000
    60.6945     8386.00000
    60.7076     9293.00000
    60.7207    10084.00000
    60.7339    10589.00000
    60.7470    10222.00000
    60.7601     9345.00000
    60.7733     8590.00000
    60.7864     7540.00000
    60.7995     6813.00000
    60.8127     6205.00000
    60.8258     5459.00000
    60.8389     5041.00000
    60.8521     5085.00000
    60.8652     5002.00000
    60.8783     5157.00000
    60.8914     5361.00000
    60.9046     5453.00000
    60.9177     5471.00000
    60.9308     5602.00000
    60.9440     5563.00000
    60.9571     5581.00000
    60.9702     5337.00000
    60.9834     5043.00000
    60.9965     4708.00000
    61.0096     4291.00000
    61.0227     3958.00000
    61.0359     3797.00000
    61.0490     3729.00000
    61.0621     3755.00000
    61.0753     3677.00000
    61.0884     3624.00000
    61.1015     3734.00000
    61.1147     3725.00000
    61.1278     3675.00000
    61.1409     3617.00000
    61.1540     3499.00000
    61.1672     3205.00000
    61.1803     3096.00000
    61.1934     3063.00000
    61.2066     2917.00000
    61.2197     2806.00000
    61.2328     2723.00000
    61.2460     2733.00000
    61.2591     2857.00000
    61.2722     2704.00000
    61.2854     2681.00000
    61.2985     2641.00000
    61.3116     2745.00000
    61.3247     2656.00000
    61.3379     2718.00000
    61.3510     2634.00000
    61.3641     2648.00000
    61.3773     2600.00000
    61.3904     2725.00000
    61.4035     2581.00000
    61.4167     2707.00000
    61.4298     2533.00000
    61.4429     2616.00000
    61.4560     2683.00000
    61.4692     2726.00000
    61.4823     2631.00000
    61.4954     2659.00000
    61.5086     2595.00000
    61.5217     2667.00000
    61.5348     2626.00000
    61.5480     2660.00000
    61.5611     2622.00000
    61.5742     2563.00000
    61.5873     2609.00000
    61.6005     2558.00000
    61.6136     2598.00000
    61.6267     2638.00000
    61.6399     2610.00000
    61.6530     2616.00000
    61.6661     2624.00000
    61.6793     2584.00000
    61.6924     2563.00000
    61.7055     2515.00000
    61.7187     2555.00000
    61.7318     2522.00000
    61.7449     2559.00000
    61.7580     2643.00000
    61.7712     2511.00000
    61.7843     2575.00000
    61.7974     2646.00000
    61.8106     2564.00000
    61.8237     2517.00000
    61.8368     2575.00000
    61.8500     2579.00000
    61.8631     2561.00000
    61.8762     2567.00000
    61.8893     2547.00000
    61.9025     2609.00000
    61.9156     2547.00000
    61.9287     2584.00000
    61.9419     2639.00000
    61.9550     2561.00000
    61.9681     2553.00000
    61.9813     2592.00000
    61.9944     2608.00000
    62.0075     2651.00000
    62.0206     2625.00000
    62.0338     2568.00000
    62.0469     2603.00000
    62.0600     2610.00000
    62.0732     2461.00000
    62.0863     2588.00000
    62.0994     2491.00000
    62.1126     2470.00000
    62.1257     2505.00000
    62.1388     2550.00000
    62.1520     2586.00000
    62.1651     2486.00000
    62.1782     2460.00000
    62.1913     2587.00000
    62.2045     2602.00000
    62.2176     2620.00000
    62.2307     2590.00000
    62.2439     2506.00000
    62.2570     2572.00000
    62.2701     2475.00000
    62.2833     2545.00000
    62.2964     2427.00000
    62.3095     2577.00000
    62.3226     2615.00000
    62.3358     2550.00000
    62.3489     2607.00000
    62.3620     2582.00000
    62.3752     2547.00000
    62.3883     2582.00000
    62.4014     2461.00000
    62.4146     2544.00000
    62.4277     2584.00000
    62.4408     2569.00000
    62.4539     2583.00000
    62.4671     2523.00000
    62.4802     2539.00000
    62.4933     2561.00000
    62.5065     2505.00000
    62.5196     2594.00000
    62.5327     2537.00000
    62.5459     2470.00000
    62.5590     2494.00000
    62.5721     2535.00000
    62.5852     2589.00000
    62.5984     2557.00000
    62.6115     2464.00000
    62.6246     2527.00000
    62.6378     2605.00000
    62.6509     2500.00000
    62.6640     2410.00000
    62.6772     2570.00000
    62.6903     2438.00000
    62.7034     2472.00000
    62.7166     2526.00000
    62.7297     2538.00000
    62.7428     2490.00000
    62.7559     2477.00000
    62.7691     2584.00000
    62.7822     2485.00000
    62.7953     2500.00000
    62.8085     2464.00000
    62.8216     2572.00000
    62.8347     2526.00000
    62.8479     2521.00000
    62.8610     2512.00000
    62.8741     2518.00000
    62.8872     2570.00000
    62.9004     2485.00000
    62.9135     2528.00000
    62.9266     2593.00000
    62.9398     2619.00000
    62.9529     2520.00000
    62.9660     2422.00000
    62.9792     2508.00000
    62.9923     2572.00000
    63.0054     2508.00000
    63.0185     2507.00000
    63.0317     2470.00000
    63.0448     2481.00000
    63.0579     2539.00000
    63.0711     2477.00000
    63.0842     2508.00000
    63.0973     2535.00000
    63.1105     2548.00000
    63.1236     2596.00000
    63.1367     2628.00000
    63.1499     2519.00000
    63.1630     2559.00000
    63.1761     2577.00000
    63.1892     2607.00000
    63.2024     2683.00000
    63.2155     2706.00000
    63.2286     2610.00000
    63.2418     2615.00000
    63.2549     2740.00000
    63.2680     2686.00000
    63.2812     2811.00000
    63.2943     2827.00000
    63.3074     2957.00000
    63.3205     2858.00000
    63.3337     2947.00000
    63.3468     2940.00000
    63.3599     2952.00000
    63.3731     3065.00000
    63.3862     3234.00000
    63.3993     3391.00000
    63.4125     3551.00000
    63.4256     3910.00000
    63.4387     4109.00000
    63.4518     4083.00000
    63.4650     3889.00000
    63.4781     3734.00000
    63.4912     3535.00000
    63.5044     3254.00000
    63.5175     3146.00000
    63.5306     2959.00000
    63.5438     3120.00000
    63.5569     2989.00000
    63.5700     3058.00000
    63.5831     3189.00000
    63.5963     3298.00000
    63.6094     3291.00000
    63.6225     3263.00000
    63.6357     3326.00000
    63.6488     3130.00000
    63.6619     3058.00000
    63.6751     2964.00000
    63.6882     2944.00000
    63.7013     2904.00000
    63.7145     2837.00000
    63.7276     2863.00000
    63.7407     2872.00000
    63.7538     3007.00000
    63.7670     3191.00000
    63.7801     3317.00000
    63.7932     3491.00000
    63.8064     3746.00000
    63.8195     3955.00000
    63.8326     4066.00000
    63.8458     4222.00000
    63.8589     4151.00000
    63.8720     3831.00000
    63.8851     3775.00000
    63.8983     3399.00000
    63.9114     3291.00000
    63.9245     3271.00000
    63.9377     3096.00000
    63.9508     3143.00000
    63.9639     3216.00000
    63.9771     3362.00000
    63.9902     3585.00000
    64.0033     3670.00000
    64.0164     3691.00000
    64.0296     3889.00000
    64.0427     4043.00000
    64.0558     4057.00000
    64.0690     4167.00000
    64.0821     4012.00000
    64.0952     3922.00000
    64.1084     3870.00000
    64.1215     3630.00000
    64.1346     3423.00000
    64.1478     3325.00000
    64.1609     3053.00000
    64.1740     2957.00000
    64.1871     2995.00000
    64.2003     2910.00000
    64.2134     2983.00000
    64.2265     3044.00000
    64.2397     3033.00000
    64.2528     3239.00000
    64.2659     3191.00000
    64.2791     3124.00000
    64.2922     2997.00000
    64.3053     3026.00000
    64.3184     2970.00000
    64.3316     2677.00000
    64.3447     2715.00000
    64.3578     2590.00000
    64.3710     2682.00000
    64.3841     2539.00000
    64.3972     2497.00000
    64.4104     2464.00000
    64.4235     2511.00000
    64.4366     2504.00000
    64.4498     2536.00000
    64.4629     2561.00000
    64.4760     2509.00000
    64.4891     2530.00000
    64.5023     2530.00000
    64.5154     2500.00000
    64.5285     2503.00000
    64.5417     2508.00000
    64.5548     2507.00000
    64.5679     2584.00000
    64.5811     2521.00000
    64.5942     2601.00000
    64.6073     2541.00000
    64.6204     2511.00000
    64.6336     2569.00000
    64.6467     2670.00000
    64.6598     2656.00000
    64.6730     2609.00000
    64.6861     2854.00000
    64.6992     2736.00000
    64.7124     2682.00000
    64.7255     2784.00000
    64.7386     2849.00000
    64.7517     2777.00000
    64.7649     2754.00000
    64.7780     2840.00000
    64.7911     2737.00000
    64.8043     2618.00000
    64.8174     2796.00000
    64.8305     2686.00000
    64.8437     2735.00000
    64.8568     2736.00000
    64.8699     2731.00000
    64.8830     2656.00000
    64.8962     2760.00000
    64.9093     2691.00000
    64.9224     2756.00000
    64.9356     2699.00000
    64.9487     2792.00000
    64.9618     2622.00000
    64.9750     2661.00000
    64.9881     2586.00000
    65.0012     2512.00000
    65.0144     2517.00000
    65.0275     2565.00000
    65.0406     2548.00000
    65.0537     2507.00000
    65.0669     2582.00000
    65.0800     2449.00000
    65.0931     2509.00000
    65.1063     2431.00000
    65.1194     2454.00000
    65.1325     2495.00000
    65.1457     2455.00000
    65.1588     2419.00000
    65.1719     2371.00000
    65.1850     2404.00000
    65.1982     2416.00000
    65.2113     2419.00000
    65.2244     2343.00000
    65.2376     2478.00000
    65.2507     2435.00000
    65.2638     2548.00000
    65.2770     2517.00000
    65.2901     2430.00000
    65.3032     2474.00000
    65.3163     2390.00000
    65.3295     2470.00000
    65.3426     2460.00000
    65.3557     2418.00000
    65.3689     2407.00000
    65.3820     2445.00000
    65.3951     2587.00000
    65.4083     2327.00000
    65.4214     2386.00000
    65.4345     2460.00000
    65.4476     2463.00000
    65.4608     2393.00000
    65.4739     2394.00000
    65.4870     2435.00000
    65.5002     2445.00000
    65.5133     2513.00000
    65.5264     2381.00000
    65.5396     2429.00000
    65.5527     2406.00000
    65.5658     2353.00000
    65.5790     2457.00000
    65.5921     2466.00000
    65.6052     2414.00000
    65.6183     2348.00000
    65.6315     2392.00000
    65.6446     2438.00000
    65.6577     2389.00000
    65.6709     2439.00000
    65.6840     2509.00000
    65.6971     2390.00000
    65.7103     2430.00000
    65.7234     2361.00000
    65.7365     2455.00000
    65.7496     2426.00000
    65.7628     2566.00000
    65.7759     2517.00000
    65.7890     2448.00000
    65.8022     2438.00000
    65.8153     2490.00000
    65.8284     2436.00000
    65.8416     2464.00000
    65.8547     2481.00000
    65.8678     2405.00000
    65.8810     2380.00000
    65.8941     2462.00000
    65.9072     2495.00000
    65.9203     2440.00000
    65.9335     2344.00000
    65.9466     2421.00000
    65.9597     2504.00000
    65.9729     2410.00000
    65.9860     2432.00000
    65.9991     2372.00000
    66.0123     2409.00000
    66.0254     2395.00000
    66.0385     2484.00000
    66.0516     2282.00000
    66.0648     2394.00000
    66.0779     2542.00000
    66.0910     2418.00000
    66.1042     2437.00000
    66.1173     2475.00000
    66.1304     2367.00000
    66.1436     2390.00000
    66.1567     2386.00000
    66.1698     2479.00000
    66.1829     2455.00000
    66.1961     2329.00000
    66.2092     2399.00000
    66.2223     2460.00000
    66.2355     2462.00000
    66.2486     2515.00000
    66.2617     2589.00000
    66.2749     2611.00000
    66.2880     2630.00000
    66.3011     2580.00000
    66.3142     2574.00000
    66.3274     2426.00000
    66.3405     2474.00000
    66.3536     2454.00000
    66.3668     2419.00000
    66.3799     2497.00000
    66.3930     2441.00000
    66.4062     2453.00000
    66.4193     2393.00000
    66.4324     2572.00000
    66.4455     2420.00000
    66.4587     2458.00000
    66.4718     2424.00000
    66.4849     2511.00000
    66.4981     2429.00000
    66.5112     2517.00000
    66.5243     2454.00000
    66.5375     2462.00000
    66.5506     2438.00000
    66.5637     2504.00000
    66.5769     2472.00000
    66.5900     2539.00000
    66.6031     2596.00000
    66.6162     2585.00000
    66.6294     2568.00000
    66.6425     2531.00000
    66.6556     2547.00000
    66.6688     2390.00000
    66.6819     2527.00000
    66.6950     2438.00000
    66.7082     2498.00000
    66.7213     2532.00000
    66.7344     2431.00000
    66.7476     2458.00000
    66.7607     2461.00000
    66.7738     2432.00000
    66.7869     2450.00000
    66.8001     2535.00000
    66.8132     2558.00000
    66.8263     2466.00000
    66.8395     2455.00000
    66.8526     2436.00000
    66.8657     2362.00000
    66.8789     2459.00000
    66.8920     2439.00000
    66.9051     2376.00000
    66.9182     2415.00000
    66.9314     2397.00000
    66.9445     2368.00000
    66.9576     2380.00000
    66.9708     2427.00000
    66.9839     2429.00000
    66.9970     2389.00000
    67.0102     2362.00000
    67.0233     2361.00000
    67.0364     2483.00000
    67.0495     2404.00000
    67.0627     2411.00000
    67.0758     2388.00000
    67.0889     2494.00000
    67.1021     2486.00000
    67.1152     2444.00000
    67.1283     2395.00000
    67.1415     2327.00000
    67.1546     2437.00000
    67.1677     2476.00000
    67.1808     2423.00000
    67.1940     2402.00000
    67.2071     2380.00000
    67.2202     2288.00000
    67.2334     2391.00000
    67.2465     2406.00000
    67.2596     2437.00000
    67.2728     2511.00000
    67.2859     2373.00000
    67.2990     2440.00000
    67.3121     2384.00000
    67.3253     2499.00000
    67.3384     2436.00000
    67.3515     2484.00000
    67.3647     2496.00000
    67.3778     2513.00000
    67.3909     2491.00000
    67.4041     2534.00000
    67.4172     2403.00000
    67.4303     2477.00000
    67.4435     2452.00000
    67.4566     2381.00000
    67.4697     2409.00000
    67.4828     2430.00000
    67.4960     2457.00000
    67.5091     2445.00000
    67.5222     2475.00000
    67.5354     2402.00000
    67.5485     2541.00000
    67.5616     2479.00000
    67.5748     2521.00000
    67.5879     2549.00000
    67.6010     2390.00000
    67.6142     2509.00000
    67.6273     2461.00000
    67.6404     2456.00000
    67.6535     2348.00000
    67.6667     2405.00000
    67.6798     2494.00000
    67.6929     2508.00000
    67.7061     2455.00000
    67.7192     2552.00000
    67.7323     2434.00000
    67.7455     2474.00000
    67.7586     2440.00000
    67.7717     2414.00000
    67.7848     2511.00000
    67.7980     2396.00000
    67.8111     2505.00000
    67.8242     2486.00000
    67.8374     2561.00000
    67.8505     2553.00000
    67.8636     2591.00000
    67.8768     2624.00000
    67.8899     2732.00000
    67.9030     2685.00000
    67.9161     2673.00000
    67.9293     2788.00000
    67.9424     2889.00000
    67.9555     3142.00000
    67.9687     3398.00000
    67.9818     3552.00000
    67.9949     3757.00000
    68.0081     3862.00000
    68.0212     3863.00000
    68.0343     3578.00000
    68.0474     3473.00000
    68.0606     3366.00000
    68.0737     3297.00000
    68.0868     3323.00000
    68.1000     3273.00000
    68.1131     3303.00000
    68.1262     3276.00000
    68.1394     3199.00000
    68.1525     3118.00000
    68.1656     3261.00000
    68.1787     3191.00000
    68.1919     3344.00000
    68.2050     3420.00000
    68.2181     3282.00000
    68.2313     3332.00000
    68.2444     3276.00000
    68.2575     3293.00000
    68.2707     3369.00000
    68.2838     3547.00000
    68.2969     3728.00000
    68.3101     4170.00000
    68.3232     4543.00000
    68.3363     5091.00000
    68.3494     5264.00000
    68.3626     5080.00000
    68.3757     4801.00000
    68.3888     4400.00000
    68.4020     3917.00000
    68.4151     3582.00000
    68.4282     3281.00000
    68.4414     3019.00000
    68.4545     2874.00000
    68.4676     3029.00000
    68.4807     3026.00000
    68.4939     3107.00000
    68.5070     3403.00000
    68.5201     3547.00000
    68.5333     3817.00000
    68.5464     3808.00000
    68.5595     3705.00000
    68.5727     3526.00000
    68.5858     3254.00000
    68.5989     3178.00000
    68.6120     2927.00000
    68.6252     2673.00000
    68.6383     2732.00000
    68.6514     2667.00000
    68.6646     2490.00000
    68.6777     2689.00000
    68.6908     2652.00000
    68.7040     2520.00000
    68.7171     2503.00000
    68.7302     2609.00000
    68.7434     2505.00000
    68.7565     2534.00000
    68.7696     2633.00000
    68.7827     2493.00000
    68.7959     2499.00000
    68.8090     2553.00000
    68.8221     2521.00000
    68.8353     2465.00000
    68.8484     2523.00000
    68.8615     2504.00000
    68.8747     2581.00000
    68.8878     2573.00000
    68.9009     2540.00000
    68.9140     2489.00000
    68.9272     2576.00000
    68.9403     2632.00000
    68.9534     2518.00000
    68.9666     2619.00000
    68.9797     2662.00000
    68.9928     2754.00000
    69.0060     2628.00000
    69.0191     2703.00000
    69.0322     2767.00000
    69.0453     2714.00000
    69.0585     2743.00000
    69.0716     2819.00000
    69.0847     2862.00000
    69.0979     3076.00000
    69.1110     3226.00000
    69.1241     3364.00000
    69.1373     3738.00000
    69.1504     4126.00000
    69.1635     4477.00000
    69.1767     4588.00000
    69.1898     4646.00000
    69.2029     4592.00000
    69.2160     4398.00000
    69.2292     4204.00000
    69.2423     3970.00000
    69.2554     4056.00000
    69.2686     3671.00000
    69.2817     3531.00000
    69.2948     3374.00000
    69.3080     3430.00000
    69.3211     3366.00000
    69.3342     3382.00000
    69.3473     3429.00000
    69.3605     3638.00000
    69.3736     3687.00000
    69.3867     3803.00000
    69.3999     3761.00000
    69.4130     3629.00000
    69.4261     3521.00000
    69.4393     3407.00000
    69.4524     3540.00000
    69.4655     3591.00000
    69.4786     3591.00000
    69.4918     3469.00000
    69.5049     3458.00000
    69.5180     3512.00000
    69.5312     3388.00000
    69.5443     3316.00000
    69.5574     3236.00000
    69.5706     3124.00000
    69.5837     3096.00000
    69.5968     2995.00000
    69.6099     3075.00000
    69.6231     3078.00000
    69.6362     3296.00000
    69.6493     3166.00000
    69.6625     3473.00000
    69.6756     3715.00000
    69.6887     4055.00000
    69.7019     4469.00000
    69.7150     4742.00000
    69.7281     5376.00000
    69.7413     5944.00000
    69.7544     6532.00000
    69.7675     7090.00000
    69.7806     7403.00000
    69.7938     7618.00000
    69.8069     7357.00000
    69.8200     6919.00000
    69.8332     6408.00000
    69.8463     5679.00000
    69.8594     5208.00000
    69.8726     4839.00000
    69.8857     4504.00000
    69.8988     4280.00000
    69.9119     4338.00000
    69.9251     4366.00000
    69.9382     4724.00000
    69.9513     5062.00000
    69.9645     5246.00000
    69.9776     5417.00000
    69.9907     5677.00000
    70.0039     5447.00000
    70.0170     5300.00000
    70.0301     4773.00000
    70.0433     4434.00000
    70.0564     4195.00000
    70.0695     3795.00000
    70.0826     3589.00000
    70.0958     3314.00000
    70.1089     3287.00000
    70.1220     3177.00000
    70.1352     3057.00000
    70.1483     3067.00000
    70.1614     2964.00000
    70.1746     3029.00000
    70.1877     3007.00000
    70.2008     3160.00000
    70.2139     2960.00000
    70.2271     2905.00000
    70.2402     3014.00000
    70.2533     2928.00000
    70.2665     3012.00000
    70.2796     3011.00000
    70.2927     3147.00000
    70.3059     3158.00000
    70.3190     3202.00000
    70.3321     3425.00000
    70.3452     3554.00000
    70.3584     3911.00000
    70.3715     4497.00000
    70.3846     4674.00000
    70.3978     4901.00000
    70.4109     5220.00000
    70.4240     5110.00000
    70.4372     5090.00000
    70.4503     4558.00000
    70.4634     4238.00000
    70.4765     3962.00000
    70.4897     3699.00000
    70.5028     3379.00000
    70.5159     3361.00000
    70.5291     3581.00000
    70.5422     3674.00000
    70.5553     3787.00000
    70.5685     4046.00000
    70.5816     4350.00000
    70.5947     4747.00000
    70.6078     4880.00000
    70.6210     5248.00000
    70.6341     5432.00000
    70.6472     5306.00000
    70.6604     5179.00000
    70.6735     4984.00000
    70.6866     4955.00000
    70.6998     4774.00000
    70.7129     4582.00000
    70.7260     4420.00000
    70.7392     4175.00000
    70.7523     4064.00000
    70.7654     4007.00000
    70.7785     3687.00000
    70.7917     3530.00000
    70.8048     3375.00000
    70.8179     3569.00000
    70.8311     3651.00000
    70.8442     3587.00000
    70.8573     3774.00000
    70.8705     3610.00000
    70.8836     3787.00000
    70.8967     3692.00000
    70.9099     3608.00000
    70.9230     3651.00000
    70.9361     3575.00000
    70.9492     3424.00000
    70.9624     3400.00000
    70.9755     3287.00000
    70.9886     3388.00000
    71.0018     3651.00000
    71.0149     3866.00000
    71.0280     4236.00000
    71.0412     4828.00000
    71.0543     5086.00000
    71.0674     5110.00000
    71.0805     4772.00000
    71.0937     4166.00000
    71.1068     3697.00000
    71.1199     3425.00000
    71.1331     3174.00000
    71.1462     3117.00000
    71.1593     3055.00000
    71.1725     2974.00000
    71.1856     2904.00000
    71.1987     3123.00000
    71.2118     3096.00000
    71.2250     3280.00000
    71.2381     3529.00000
    71.2512     3712.00000
    71.2644     3833.00000
    71.2775     3741.00000
    71.2906     3647.00000
    71.3038     3273.00000
    71.3169     2989.00000
    71.3300     3004.00000
    71.3431     2930.00000
    71.3563     2934.00000
    71.3694     3018.00000
    71.3825     2925.00000
    71.3957     2810.00000
    71.4088     2848.00000
    71.4219     2961.00000
    71.4351     2850.00000
    71.4482     2840.00000
    71.4613     2845.00000
    71.4744     3028.00000
    71.4876     3147.00000
    71.5007     3153.00000
    71.5138     3408.00000
    71.5270     3774.00000
    71.5401     4061.00000
    71.5532     4441.00000
    71.5664     4606.00000
    71.5795     4806.00000
    71.5926     4906.00000
    71.6058     4799.00000
    71.6189     4534.00000
    71.6320     4333.00000
    71.6451     4003.00000
    71.6583     3919.00000
    71.6714     3746.00000
    71.6845     3481.00000
    71.6977     3403.00000
    71.7108     3399.00000
    71.7239     3391.00000
    71.7371     3371.00000
    71.7502     3423.00000
    71.7633     3569.00000
    71.7764     3728.00000
    71.7896     3760.00000
    71.8027     3743.00000
    71.8158     3667.00000
    71.8290     3419.00000
    71.8421     3320.00000
    71.8552     3251.00000
    71.8684     3100.00000
    71.8815     3177.00000
    71.8946     3023.00000
    71.9078     2965.00000
    71.9209     2761.00000
    71.9340     2790.00000
    71.9471     2712.00000
    71.9603     2741.00000
    71.9734     2647.00000
    71.9865     2692.00000
    71.9997     2715.00000
    72.0128     2604.00000
    72.0259     2727.00000
    72.0391     2619.00000
    72.0522     2541.00000
    72.0653     2543.00000
    72.0784     2507.00000
    72.0916     2562.00000
    72.1047     2617.00000
    72.1178     2602.00000
    72.1310     2590.00000
    72.1441     2536.00000
    72.1572     2539.00000
    72.1704     2626.00000
    72.1835     2530.00000
    72.1966     2549.00000
    72.2097     2526.00000
    72.2229     2649.00000
    72.2360     2694.00000
    72.2491     2712.00000
    72.2623     2582.00000
    72.2754     2660.00000
    72.2885     2811.00000
    72.3017     2899.00000
    72.3148     2962.00000
    72.3279     3158.00000
    72.3410     3371.00000
    72.3542     3588.00000
    72.3673     3865.00000
    72.3804     4124.00000
    72.3936     4301.00000
    72.4067     4383.00000
    72.4198     4089.00000
    72.4330     3777.00000
    72.4461     3585.00000
    72.4592     3310.00000
    72.4724     3053.00000
    72.4855     3021.00000
    72.4986     2933.00000
    72.5117     3015.00000
    72.5249     2954.00000
    72.5380     2955.00000
    72.5511     2965.00000
    72.5643     3234.00000
    72.5774     3217.00000
    72.5905     3291.00000
    72.6037     3394.00000
    72.6168     3408.00000
    72.6299     3302.00000
    72.6430     3177.00000
    72.6562     3115.00000
    72.6693     3034.00000
    72.6824     2862.00000
    72.6956     2636.00000
    72.7087     2711.00000
    72.7218     2643.00000
    72.7350     2629.00000
    72.7481     2764.00000
    72.7612     2737.00000
    72.7743     2649.00000
    72.7875     2759.00000
    72.8006     2670.00000
    72.8137     2780.00000
    72.8269     2928.00000
    72.8400     2958.00000
    72.8531     3237.00000
    72.8663     3449.00000
    72.8794     3604.00000
    72.8925     3967.00000
    72.9057     4199.00000
    72.9188     4208.00000
    72.9319     4379.00000
    72.9450     4336.00000
    72.9582     4058.00000
    72.9713     3906.00000
    72.9844     3582.00000
    72.9976     3309.00000
    73.0107     3164.00000
    73.0238     3063.00000
    73.0370     3124.00000
    73.0501     3069.00000
    73.0632     3193.00000
    73.0763     3336.00000
    73.0895     3295.00000
    73.1026     3491.00000
    73.1157     3652.00000
    73.1289     3788.00000
    73.1420     3818.00000
    73.1551     3851.00000
    73.1683     3973.00000
    73.1814     4107.00000
    73.1945     4083.00000
    73.2076     3947.00000
    73.2208     3946.00000
    73.2339     3896.00000
    73.2470     3738.00000
    73.2602     3843.00000
    73.2733     3615.00000
    73.2864     3515.00000
    73.2996     3334.00000
    73.3127     3169.00000
    73.3258     3100.00000
    73.3390     3156.00000
    73.3521     3168.00000
    73.3652     3173.00000
    73.3783     3224.00000
    73.3915     3405.00000
    73.4046     3527.00000
    73.4177     3664.00000
    73.4309     3637.00000
    73.4440     3717.00000
    73.4571     3594.00000
    73.4703     3617.00000
    73.4834     3446.00000
    73.4965     3224.00000
    73.5096     3071.00000
    73.5228     3022.00000
    73.5359     3049.00000
    73.5490     3129.00000
    73.5622     3115.00000
    73.5753     3005.00000
    73.5884     3156.00000
    73.6016     3291.00000
    73.6147     3523.00000
    73.6278     3924.00000
    73.6409     4540.00000
    73.6541     4780.00000
    73.6672     5240.00000
    73.6803     5703.00000
    73.6935     5797.00000
    73.7066     5688.00000
    73.7197     5686.00000
    73.7329     5644.00000
    73.7460     5580.00000
    73.7591     5480.00000
    73.7722     5383.00000
    73.7854     4875.00000
    73.7985     4399.00000
    73.8116     4009.00000
    73.8248     3879.00000
    73.8379     3778.00000
    73.8510     3673.00000
    73.8642     3917.00000
    73.8773     3861.00000
    73.8904     4095.00000
    73.9035     4144.00000
    73.9167     4152.00000
    73.9298     4154.00000
    73.9429     4076.00000
    73.9561     4154.00000
    73.9692     3913.00000
    73.9823     3905.00000
    73.9955     3702.00000
    74.0086     3449.00000
    74.0217     3177.00000
    74.0349     3076.00000
    74.0480     2905.00000
    74.0611     2853.00000
    74.0742     2618.00000
    74.0874     2583.00000
    74.1005     2672.00000
    74.1136     2634.00000
    74.1268     2609.00000
    74.1399     2601.00000
    74.1530     2644.00000
    74.1662     2464.00000
    74.1793     2524.00000
    74.1924     2475.00000
    74.2056     2506.00000
    74.2187     2495.00000
    74.2318     2468.00000
    74.2449     2451.00000
    74.2581     2434.00000
    74.2712     2510.00000
    74.2843     2436.00000
    74.2975     2565.00000
    74.3106     2425.00000
    74.3237     2423.00000
    74.3369     2464.00000
    74.3500     2433.00000
    74.3631     2465.00000
    74.3762     2496.00000
    74.3894     2488.00000
    74.4025     2471.00000
    74.4156     2469.00000
    74.4288     2465.00000
    74.4419     2418.00000
    74.4550     2426.00000
    74.4682     2447.00000
    74.4813     2469.00000
    74.4944     2404.00000
    74.5075     2412.00000
    74.5207     2366.00000
    74.5338     2437.00000
    74.5469     2392.00000
    74.5601     2387.00000
    74.5732     2528.00000
    74.5863     2505.00000
    74.5995     2388.00000
    74.6126     2328.00000
    74.6257     2445.00000
    74.6388     2372.00000
    74.6520     2440.00000
    74.6651     2480.00000
    74.6782     2517.00000
    74.6914     2402.00000
    74.7045     2456.00000
    74.7176     2376.00000
    74.7308     2347.00000
    74.7439     2414.00000
    74.7570     2383.00000
    74.7701     2557.00000
    74.7833     2471.00000
    74.7964     2423.00000
    74.8095     2474.00000
    74.8227     2433.00000
    74.8358     2430.00000
    74.8489     2447.00000
    74.8621     2410.00000
    74.8752     2387.00000
    74.8883     2389.00000
    74.9015     2383.00000
    74.9146     2394.00000
    74.9277     2370.00000
    74.9408     2456.00000
    74.9540     2519.00000
    74.9671     2429.00000
    74.9802     2493.00000
    74.9934     2416.00000
    75.0065     2416.00000
    75.0196     2394.00000
    75.0328     2463.00000
    75.0459     2430.00000
    75.0590     2403.00000
    75.0722     2399.00000
    75.0853     2410.00000
    75.0984     2348.00000
    75.1115     2406.00000
    75.1247     2404.00000
    75.1378     2336.00000
    75.1509     2474.00000
    75.1641     2402.00000
    75.1772     2410.00000
    75.1903     2459.00000
    75.2035     2583.00000
    75.2166     2590.00000
    75.2297     2470.00000
    75.2428     2482.00000
    75.2560     2474.00000
    75.2691     2449.00000
    75.2822     2531.00000
    75.2954     2517.00000
    75.3085     2476.00000
    75.3216     2499.00000
    75.3348     2506.00000
    75.3479     2554.00000
    75.3610     2511.00000
    75.3741     2537.00000
    75.3873     2521.00000
    75.4004     2481.00000
    75.4135     2448.00000
    75.4267     2568.00000
    75.4398     2533.00000
    75.4529     2572.00000
    75.4661     2524.00000
    75.4792     2460.00000
    75.4923     2574.00000
    75.5054     2482.00000
    75.5186     2480.00000
    75.5317     2586.00000
    75.5448     2530.00000
    75.5580     2587.00000
    75.5711     2506.00000
    75.5842     2457.00000
    75.5974     2553.00000
    75.6105     2537.00000
    75.6236     2490.00000
    75.6367     2490.00000
    75.6499     2485.00000
    75.6630     2579.00000
    75.6761     2555.00000
    75.6893     2451.00000
    75.7024     2493.00000
    75.7155     2525.00000
    75.7287     2548.00000
    75.7418     2455.00000
    75.7549     2536.00000
    75.7681     2550.00000
    75.7812     2605.00000
    75.7943     2624.00000
    75.8074     2722.00000
    75.8206     2616.00000
    75.8337     2779.00000
    75.8468     2767.00000
    75.8600     2814.00000
    75.8731     2749.00000
    75.8862     2800.00000
    75.8994     2900.00000
    75.9125     2970.00000
    75.9256     3082.00000
    75.9387     3089.00000
    75.9519     2960.00000
    75.9650     3067.00000
    75.9781     3217.00000
    75.9913     3202.00000
    76.0044     3237.00000
    76.0175     3397.00000
    76.0307     3463.00000
    76.0438     3585.00000
    76.0569     3705.00000
    76.0701     3870.00000
    76.0832     4240.00000
    76.0963     4411.00000
    76.1094     4779.00000
    76.1226     4728.00000
    76.1357     4814.00000
    76.1488     4871.00000
    76.1620     4686.00000
    76.1751     4489.00000
    76.1882     4237.00000
    76.2014     4014.00000
    76.2145     3682.00000
    76.2276     3590.00000
    76.2407     3498.00000
    76.2539     3401.00000
    76.2670     3273.00000
    76.2801     3274.00000
    76.2933     3410.00000
    76.3064     3412.00000
    76.3195     3700.00000
    76.3327     3680.00000
    76.3458     3713.00000
    76.3589     3672.00000
    76.3720     3532.00000
    76.3852     3462.00000
    76.3983     3377.00000
    76.4114     3263.00000
    76.4246     3188.00000
    76.4377     3095.00000
    76.4508     2953.00000
    76.4640     2831.00000
    76.4771     2710.00000
    76.4902     2811.00000
    76.5033     2774.00000
    76.5165     2840.00000
    76.5296     2774.00000
    76.5427     2730.00000
    76.5559     2678.00000
    76.5690     2899.00000
    76.5821     2915.00000
    76.5953     3065.00000
    76.6084     3287.00000
    76.6215     3432.00000
    76.6347     3491.00000
    76.6478     3736.00000
    76.6609     3922.00000
    76.6740     4162.00000
    76.6872     4399.00000
    76.7003     4326.00000
    76.7134     4567.00000
    76.7266     4444.00000
    76.7397     4394.00000
    76.7528     4244.00000
    76.7660     4141.00000
    76.7791     3841.00000
    76.7922     3634.00000
    76.8053     3392.00000
    76.8185     3278.00000
    76.8316     3222.00000
    76.8447     3248.00000
    76.8579     3299.00000
    76.8710     3286.00000
    76.8841     3423.00000
    76.8973     3380.00000
    76.9104     3325.00000
    76.9235     3375.00000
    76.9366     3542.00000
    76.9498     3496.00000
    76.9629     3363.00000
    76.9760     3457.00000
    76.9892     3297.00000
    77.0023     3156.00000
    77.0154     2982.00000
    77.0286     2855.00000
    77.0417     2754.00000
    77.0548     2709.00000
    77.0679     2693.00000
    77.0811     2595.00000
    77.0942     2620.00000
    77.1073     2595.00000
    77.1205     2652.00000
    77.1336     2527.00000
    77.1467     2531.00000
    77.1599     2551.00000
    77.1730     2497.00000
    77.1861     2518.00000
    77.1993     2537.00000
    77.2124     2469.00000
    77.2255     2524.00000
    77.2386     2438.00000
    77.2518     2517.00000
    77.2649     2503.00000
    77.2780     2452.00000
    77.2912     2489.00000
    77.3043     2474.00000
    77.3174     2564.00000
    77.3306     2563.00000
    77.3437     2610.00000
    77.3568     2583.00000
    77.3699     2651.00000
    77.3831     2583.00000
    77.3962     2722.00000
    77.4093     2853.00000
    77.4225     2825.00000
    77.4356     2970.00000
    77.4487     3069.00000
    77.4619     3266.00000
    77.4750     3140.00000
    77.4881     3148.00000
    77.5013     3152.00000
    77.5144     3079.00000
    77.5275     2889.00000
    77.5406     2911.00000
    77.5538     2862.00000
    77.5669     2821.00000
    77.5800     2690.00000
    77.5932     2648.00000
    77.6063     2546.00000
    77.6194     2619.00000
    77.6326     2597.00000
    77.6457     2650.00000
    77.6588     2781.00000
    77.6719     2777.00000
    77.6851     2707.00000
    77.6982     2804.00000
    77.7113     2891.00000
    77.7245     2820.00000
    77.7376     2801.00000
    77.7507     2801.00000
    77.7639     2719.00000
    77.7770     2735.00000
    77.7901     2673.00000
    77.8032     2522.00000
    77.8164     2626.00000
    77.8295     2585.00000
    77.8426     2497.00000
    77.8558     2491.00000
    77.8689     2491.00000
    77.8820     2536.00000
    77.8952     2723.00000
    77.9083     2521.00000
    77.9214     2649.00000
    77.9345     2833.00000
    77.9477     2805.00000
    77.9608     2866.00000
    77.9739     2902.00000
    77.9871     2924.00000
    78.0002     2901.00000
    78.0133     2801.00000
    78.0265     2809.00000
    78.0396     2695.00000
    78.0527     2665.00000
    78.0658     2711.00000
    78.0790     2668.00000
    78.0921     2680.00000
    78.1052     2818.00000
    78.1184     2863.00000
    78.1315     2895.00000
    78.1446     3062.00000
    78.1578     3206.00000
    78.1709     3296.00000
    78.1840     3466.00000
    78.1972     3446.00000
    78.2103     3478.00000
    78.2234     3534.00000
    78.2365     3546.00000
    78.2497     3475.00000
    78.2628     3517.00000
    78.2759     3501.00000
    78.2891     3456.00000
    78.3022     3541.00000
    78.3153     3410.00000
    78.3285     3434.00000
    78.3416     3348.00000
    78.3547     3350.00000
    78.3679     3342.00000
    78.3810     3379.00000
    78.3941     3480.00000
    78.4072     3681.00000
    78.4204     3665.00000
    78.4335     4102.00000
    78.4466     4166.00000
    78.4598     4182.00000
    78.4729     4317.00000
    78.4860     4399.00000
    78.4992     4231.00000
    78.5123     4304.00000
    78.5254     4088.00000
    78.5385     4026.00000
    78.5517     4228.00000
    78.5648     4206.00000
    78.5779     4210.00000
    78.5911     4274.00000
    78.6042     4256.00000
    78.6173     4298.00000
    78.6305     4305.00000
    78.6436     4277.00000
    78.6567     4162.00000
    78.6698     4205.00000
    78.6830     4227.00000
    78.6961     3988.00000
    78.7092     4034.00000
    78.7224     3833.00000
    78.7355     3706.00000
    78.7486     3618.00000
    78.7618     3519.00000
    78.7749     3365.00000
    78.7880     3299.00000
    78.8011     3249.00000
    78.8143     3321.00000
    78.8274     3376.00000
    78.8405     3415.00000
    78.8537     3337.00000
    78.8668     3461.00000
    78.8799     3272.00000
    78.8931     3160.00000
    78.9062     3152.00000
    78.9193     3130.00000
    78.9324     3000.00000
    78.9456     3096.00000
    78.9587     2874.00000
    78.9718     2797.00000
    78.9850     2881.00000
    78.9981     2798.00000
    79.0112     2726.00000
    79.0244     2830.00000
    79.0375     2649.00000
    79.0506     2789.00000
    79.0638     2700.00000
    79.0769     2753.00000
    79.0900     2812.00000
    79.1031     2772.00000
    79.1163     2901.00000
    79.1294     2905.00000
    79.1425     2932.00000
    79.1557     3066.00000
    79.1688     3275.00000
    79.1819     3394.00000
    79.1951     3597.00000
    79.2082     3782.00000
    79.2213     4018.00000
    79.2345     4039.00000
    79.2476     3994.00000
    79.2607     3863.00000
    79.2738     3670.00000
    79.2870     3565.00000
    79.3001     3370.00000
    79.3132     3225.00000
    79.3264     3079.00000
    79.3395     3092.00000
    79.3526     3227.00000
    79.3658     3205.00000
    79.3789     3165.00000
    79.3920     3281.00000
    79.4051     3367.00000
    79.4183     3403.00000
    79.4314     3441.00000
    79.4445     3532.00000
    79.4577     3460.00000
    79.4708     3546.00000
    79.4839     3420.00000
    79.4971     3440.00000
    79.5102     3190.00000
    79.5233     3096.00000
    79.5364     3140.00000
    79.5496     3198.00000
    79.5627     2895.00000
    79.5758     3031.00000
    79.5890     2898.00000
    79.6021     2902.00000
    79.6152     2846.00000
    79.6284     2970.00000
    79.6415     2923.00000
    79.6546     2936.00000
    79.6677     2840.00000
    79.6809     3009.00000
    79.6940     3004.00000
    79.7071     2996.00000
    79.7203     3024.00000
    79.7334     3183.00000
    79.7465     2999.00000
    79.7597     3234.00000
    79.7728     3358.00000
    79.7859     3506.00000
    79.7990     3647.00000
    79.8122     3727.00000
    79.8253     4214.00000
    79.8384     4408.00000
    79.8516     4746.00000
    79.8647     4890.00000
    79.8778     4983.00000
    79.8910     4870.00000
    79.9041     4774.00000
    79.9172     4377.00000
    79.9304     4158.00000
    79.9435     4048.00000
    79.9566     3709.00000
    79.9697     3726.00000
    79.9829     3650.00000
    79.9960     3466.00000
    80.0091     3567.00000
    80.0223     3474.00000
    80.0354     3540.00000
    80.0485     3649.00000
    80.0617     3943.00000
    80.0748     4201.00000
    80.0879     4417.00000
    80.1010     4709.00000
    80.1142     5127.00000
    80.1273     5399.00000
    80.1404     5639.00000
    80.1536     5896.00000
    80.1667     5615.00000
    80.1798     5704.00000
    80.1930     5402.00000
    80.2061     5374.00000
    80.2192     5280.00000
    80.2323     5334.00000
    80.2455     5377.00000
    80.2586     5560.00000
    80.2717     5804.00000
    80.2849     5777.00000
    80.2980     5681.00000
    80.3111     5265.00000
    80.3243     5179.00000
    80.3374     5000.00000
    80.3505     4984.00000
    80.3637     4885.00000
    80.3768     5267.00000
    80.3899     5412.00000
    80.4030     5466.00000
    80.4162     5529.00000
    80.4293     5322.00000
    80.4424     5015.00000
    80.4556     4923.00000
    80.4687     4907.00000
    80.4818     4983.00000
    80.4950     5026.00000
    80.5081     4986.00000
    80.5212     4947.00000
    80.5343     4924.00000
    80.5475     4848.00000
    80.5606     4513.00000
    80.5737     4297.00000
    80.5869     3940.00000
    80.6000     3958.00000
    80.6131     3831.00000
    80.6263     3770.00000
    80.6394     3686.00000
    80.6525     3673.00000
    80.6656     3596.00000
    80.6788     3496.00000
    80.6919     3448.00000
    80.7050     3411.00000
    80.7182     3596.00000
    80.7313     3555.00000
    80.7444     3546.00000
    80.7576     3706.00000
    80.7707     3700.00000
    80.7838     3593.00000
    80.7970     3728.00000
    80.8101     3553.00000
    80.8232     3582.00000
    80.8363     3595.00000
    80.8495     3537.00000
    80.8626     3456.00000
    80.8757     3366.00000
    80.8889     3507.00000
    80.9020     3393.00000
    80.9151     3304.00000
    80.9283     3423.00000
    80.9414     3319.00000
    80.9545     3462.00000
    80.9676     3270.00000
    80.9808     3205.00000
    80.9939     3105.00000
    81.0070     3027.00000
    81.0202     3013.00000
    81.0333     3062.00000
    81.0464     2961.00000
    81.0596     2930.00000
    81.0727     2965.00000
    81.0858     2880.00000
    81.0989     2957.00000
    81.1121     2838.00000
    81.1252     2784.00000
    81.1383     2873.00000
    81.1515     2940.00000
    81.1646     2876.00000
    81.1777     2884.00000
    81.1909     2886.00000
    81.2040     2892.00000
    81.2171     2816.00000
    81.2302     2724.00000
    81.2434     2687.00000
    81.2565     2643.00000
    81.2696     2604.00000
    81.2828     2573.00000
    81.2959     2632.00000
    81.3090     2463.00000
    81.3222     2642.00000
    81.3353     2561.00000
    81.3484     2467.00000
    81.3616     2569.00000
    81.3747     2487.00000
    81.3878     2521.00000
    81.4009     2499.00000
    81.4141     2568.00000
    81.4272     2562.00000
    81.4403     2616.00000
    81.4535     2661.00000
    81.4666     2611.00000
    81.4797     2623.00000
    81.4929     2595.00000
    81.5060     2597.00000
    81.5191     2639.00000
    81.5322     2699.00000
    81.5454     2644.00000
    81.5585     2572.00000
    81.5716     2718.00000
    81.5848     2873.00000
    81.5979     2809.00000
    81.6110     2959.00000
    81.6242     3047.00000
    81.6373     3100.00000
    81.6504     3191.00000
    81.6636     3252.00000
    81.6767     3512.00000
    81.6898     3565.00000
    81.7029     3699.00000
    81.7161     3619.00000
    81.7292     3647.00000
    81.7423     3671.00000
    81.7555     3687.00000
    81.7686     3562.00000
    81.7817     3489.00000
    81.7949     3221.00000
    81.8080     3053.00000
    81.8211     3039.00000
    81.8342     3072.00000
    81.8474     3030.00000
    81.8605     2999.00000
    81.8736     2953.00000
    81.8868     2917.00000
    81.8999     2998.00000
    81.9130     3090.00000
    81.9262     3139.00000
    81.9393     3267.00000
    81.9524     3255.00000
    81.9655     3376.00000
    81.9787     3395.00000
    81.9918     3352.00000
    82.0049     3394.00000
    82.0181     3276.00000
    82.0312     3404.00000
    82.0443     3238.00000
    82.0575     3233.00000
    82.0706     3053.00000
    82.0837     3130.00000
    82.0968     3003.00000
    82.1100     3088.00000
    82.1231     2841.00000
    82.1362     2890.00000
    82.1494     2840.00000
    82.1625     2792.00000
    82.1756     2655.00000
    82.1888     2855.00000
    82.2019     2647.00000
    82.2150     2798.00000
    82.2281     2737.00000
    82.2413     2738.00000
    82.2544     2843.00000
    82.2675     2802.00000
    82.2807     2887.00000
    82.2938     2819.00000
    82.3069     3008.00000
    82.3201     2891.00000
    82.3332     2870.00000
    82.3463     2842.00000
    82.3595     3045.00000
    82.3726     3094.00000
    82.3857     3232.00000
    82.3988     3274.00000
    82.4120     3444.00000
    82.4251     3517.00000
    82.4382     3825.00000
    82.4514     3739.00000
    82.4645     3686.00000
    82.4776     3299.00000
    82.4908     3037.00000
    82.5039     2955.00000
    82.5170     2804.00000
    82.5302     2683.00000
    82.5433     2777.00000
    82.5564     2616.00000
    82.5695     2821.00000
    82.5827     2741.00000
    82.5958     2782.00000
    82.6089     2770.00000
    82.6221     2712.00000
    82.6352     2716.00000
    82.6483     2901.00000
    82.6615     2957.00000
    82.6746     2987.00000
    82.6877     3039.00000
    82.7008     3088.00000
    82.7140     2976.00000
    82.7271     2935.00000
    82.7402     2776.00000
    82.7534     2583.00000
    82.7665     2611.00000
    82.7796     2625.00000
    82.7928     2639.00000
    82.8059     2482.00000
    82.8190     2525.00000
    82.8321     2488.00000
    82.8453     2457.00000
    82.8584     2563.00000
    82.8715     2490.00000
    82.8847     2524.00000
    82.8978     2498.00000
    82.9109     2542.00000
    82.9241     2659.00000
    82.9372     2543.00000
    82.9503     2507.00000
    82.9634     2491.00000
    82.9766     2559.00000
    82.9897     2647.00000
    83.0028     2759.00000
    83.0160     2667.00000
    83.0291     2700.00000
    83.0422     2815.00000
    83.0554     2675.00000
    83.0685     2716.00000
    83.0816     2744.00000
    83.0947     2759.00000
    83.1079     2881.00000
    83.1210     2734.00000
    83.1341     2734.00000
    83.1473     2805.00000
    83.1604     2718.00000
    83.1735     2677.00000
    83.1867     2720.00000
    83.1998     2718.00000
    83.2129     2714.00000
    83.2261     2742.00000
    83.2392     2786.00000
    83.2523     2752.00000
    83.2654     2811.00000
    83.2786     2704.00000
    83.2917     2927.00000
    83.3048     3023.00000
    83.3180     3085.00000
    83.3311     3265.00000
    83.3442     3375.00000
    83.3574     3354.00000
    83.3705     3545.00000
    83.3836     3423.00000
    83.3967     3425.00000
    83.4099     3265.00000
    83.4230     3140.00000
    83.4361     2965.00000
    83.4493     2993.00000
    83.4624     2780.00000
    83.4755     2768.00000
    83.4887     2660.00000
    83.5018     2706.00000
    83.5149     2695.00000
    83.5281     2679.00000
    83.5412     2669.00000
    83.5543     2617.00000
    83.5674     2736.00000
    83.5806     2731.00000
    83.5937     2819.00000
    83.6068     2897.00000
    83.6200     2802.00000
    83.6331     2750.00000
    83.6462     2904.00000
    83.6594     2828.00000
    83.6725     2694.00000
    83.6856     2728.00000
    83.6987     2532.00000
    83.7119     2523.00000
    83.7250     2593.00000
    83.7381     2455.00000
    83.7513     2549.00000
    83.7644     2513.00000
    83.7775     2596.00000
    83.7907     2443.00000
    83.8038     2538.00000
    83.8169     2467.00000
    83.8300     2428.00000
    83.8432     2417.00000
    83.8563     2457.00000
    83.8694     2434.00000
    83.8826     2503.00000
    83.8957     2482.00000
    83.9088     2406.00000
    83.9220     2471.00000
    83.9351     2410.00000
    83.9482     2326.00000
    83.9613     2432.00000
    83.9745     2376.00000
    83.9876     2376.00000
    84.0007     2523.00000
    84.0139     2449.00000
    84.0270     2484.00000
    84.0401     2396.00000
    84.0533     2335.00000
    84.0664     2490.00000
    84.0795     2411.00000
    84.0927     2349.00000
    84.1058     2444.00000
    84.1189     2404.00000
    84.1320     2452.00000
    84.1452     2513.00000
    84.1583     2418.00000
    84.1714     2411.00000
    84.1846     2515.00000
    84.1977     2462.00000
    84.2108     2426.00000
    84.2240     2526.00000
    84.2371     2549.00000
    84.2502     2446.00000
    84.2633     2576.00000
    84.2765     2557.00000
    84.2896     2489.00000
    84.3027     2625.00000
    84.3159     2555.00000
    84.3290     2587.00000
    84.3421     2493.00000
    84.3553     2581.00000
    84.3684     2669.00000
    84.3815     2606.00000
    84.3946     2625.00000
    84.4078     2595.00000
    84.4209     2524.00000
    84.4340     2561.00000
    84.4472     2511.00000
    84.4603     2454.00000
    84.4734     2464.00000
    84.4866     2497.00000
    84.4997     2506.00000
    84.5128     2534.00000
    84.5260     2493.00000
    84.5391     2500.00000
    84.5522     2560.00000
    84.5653     2612.00000
    84.5785     2471.00000
    84.5916     2469.00000
    84.6047     2551.00000
    84.6179     2596.00000
    84.6310     2517.00000
    84.6441     2480.00000
    84.6573     2585.00000
    84.6704     2539.00000
    84.6835     2574.00000
    84.6966     2546.00000
    84.7098     2559.00000
    84.7229     2534.00000
    84.7360     2560.00000
    84.7492     2461.00000
    84.7623     2536.00000
    84.7754     2375.00000
    84.7886     2466.00000
    84.8017     2534.00000
    84.8148     2480.00000
    84.8279     2461.00000
    84.8411     2445.00000
    84.8542     2508.00000
    84.8673     2515.00000
    84.8805     2462.00000
    84.8936     2506.00000
    84.9067     2572.00000
    84.9199     2651.00000
    84.9330     2633.00000
    84.9461     2628.00000
    84.9593     2677.00000
    84.9724     2627.00000
    84.9855     2711.00000
    84.9986     2799.00000
    85.0118     2883.00000
    85.0249     2842.00000
    85.0380     2887.00000
    85.0512     2926.00000
    85.0643     2932.00000
    85.0774     3004.00000
    85.0906     3050.00000
    85.1037     3002.00000
    85.1168     3106.00000
    85.1299     3128.00000
    85.1431     3295.00000
    85.1562     3367.00000
    85.1693     3299.00000
    85.1825     3233.00000
    85.1956     3324.00000
    85.2087     3261.00000
    85.2219     3189.00000
    85.2350     3350.00000
    85.2481     3555.00000
    85.2612     3448.00000
    85.2744     3662.00000
    85.2875     3808.00000
    85.3006     3968.00000
    85.3138     4062.00000
    85.3269     4083.00000
    85.3400     4209.00000
    85.3532     4339.00000
    85.3663     4511.00000
    85.3794     4411.00000
    85.3925     4273.00000
    85.4057     4125.00000
    85.4188     3977.00000
    85.4319     3829.00000
    85.4451     3772.00000
    85.4582     3570.00000
    85.4713     3472.00000
    85.4845     3309.00000
    85.4976     3464.00000
    85.5107     3350.00000
    85.5238     3313.00000
    85.5370     3265.00000
    85.5501     3219.00000
    85.5632     3223.00000
    85.5764     3316.00000
    85.5895     3193.00000
    85.6026     3315.00000
    85.6158     3215.00000
    85.6289     3305.00000
    85.6420     3322.00000
    85.6552     3290.00000
    85.6683     3223.00000
    85.6814     2986.00000
    85.6945     2927.00000
    85.7077     2891.00000
    85.7208     2851.00000
    85.7339     2802.00000
    85.7471     2785.00000
    85.7602     2752.00000
    85.7733     2754.00000
    85.7865     2617.00000
    85.7996     2591.00000
    85.8127     2521.00000
    85.8259     2580.00000
    85.8390     2494.00000
    85.8521     2616.00000
    85.8652     2602.00000
    85.8784     2618.00000
    85.8915     2609.00000
    85.9046     2465.00000
    85.9178     2538.00000
    85.9309     2508.00000
    85.9440     2625.00000
    85.9572     2684.00000
    85.9703     2578.00000
    85.9834     2699.00000
    85.9965     2747.00000
    86.0097     2773.00000
    86.0228     2950.00000
    86.0359     3073.00000
    86.0491     3038.00000
    86.0622     3079.00000
    86.0753     3076.00000
    86.0885     3128.00000
    86.1016     2932.00000
    86.1147     2931.00000
    86.1278     2819.00000
    86.1410     2909.00000
    86.1541     2782.00000
    86.1672     2690.00000
    86.1804     2666.00000
    86.1935     2633.00000
    86.2066     2669.00000
    86.2198     2747.00000
    86.2329     2621.00000
    86.2460     2623.00000
    86.2591     2634.00000
    86.2723     2720.00000
    86.2854     2753.00000
    86.2985     2669.00000
    86.3117     2772.00000
    86.3248     2838.00000
    86.3379     2711.00000
    86.3511     2881.00000
    86.3642     2727.00000
    86.3773     2777.00000
    86.3904     2714.00000
    86.4036     2716.00000
    86.4167     2714.00000
    86.4298     2650.00000
    86.4430     2649.00000
    86.4561     2711.00000
    86.4692     2749.00000
    86.4824     2737.00000
    86.4955     2822.00000
    86.5086     2788.00000
    86.5218     2901.00000
    86.5349     2960.00000
    86.5480     3109.00000
    86.5611     3177.00000
    86.5743     3244.00000
    86.5874     3301.00000
    86.6005     3259.00000
    86.6137     3292.00000
    86.6268     3231.00000
    86.6399     3017.00000
    86.6531     2875.00000
    86.6662     2853.00000
    86.6793     2796.00000
    86.6925     2743.00000
    86.7056     2732.00000
    86.7187     2612.00000
    86.7318     2746.00000
    86.7450     2718.00000
    86.7581     2679.00000
    86.7712     2729.00000
    86.7844     2783.00000
    86.7975     2834.00000
    86.8106     2894.00000
    86.8238     2896.00000
    86.8369     2921.00000
    86.8500     2891.00000
    86.8631     2867.00000
    86.8763     3003.00000
    86.8894     2907.00000
    86.9025     2871.00000
    86.9157     2886.00000
    86.9288     2846.00000
    86.9419     2823.00000
    86.9551     2832.00000
    86.9682     2837.00000
    86.9813     2727.00000
    86.9944     2868.00000
    87.0076     2835.00000
    87.0207     3046.00000
    87.0338     3177.00000
    87.0470     3221.00000
    87.0601     3363.00000
    87.0732     3291.00000
    87.0864     3480.00000
    87.0995     3429.00000
    87.1126     3369.00000
    87.1257     3497.00000
    87.1389     3421.00000
    87.1520     3210.00000
    87.1651     3105.00000
    87.1783     2878.00000
    87.1914     2850.00000
    87.2045     2900.00000
    87.2177     2700.00000
    87.2308     2769.00000
    87.2439     2780.00000
    87.2570     2699.00000
    87.2702     2765.00000
    87.2833     2843.00000
    87.2964     2804.00000
    87.3096     2823.00000
    87.3227     2861.00000
    87.3358     2938.00000
    87.3490     2952.00000
    87.3621     2982.00000
    87.3752     3038.00000
    87.3884     3070.00000
    87.4015     2927.00000
    87.4146     2860.00000
    87.4277     2800.00000
    87.4409     2889.00000
    87.4540     2814.00000
    87.4671     2840.00000
    87.4803     2716.00000
    87.4934     2828.00000
    87.5065     2790.00000
    87.5197     2811.00000
    87.5328     2902.00000
    87.5459     2897.00000
    87.5590     2854.00000
    87.5722     2938.00000
    87.5853     3093.00000
    87.5984     3274.00000
    87.6116     3460.00000
    87.6247     3499.00000
    87.6378     3584.00000
    87.6510     3635.00000
    87.6641     3449.00000
    87.6772     3314.00000
    87.6904     3186.00000
    87.7035     3049.00000
    87.7166     2926.00000
    87.7297     2963.00000
    87.7429     2794.00000
    87.7560     2878.00000
    87.7691     2757.00000
    87.7823     2819.00000
    87.7954     2816.00000
    87.8085     2917.00000
    87.8217     2801.00000
    87.8348     2733.00000
    87.8479     2908.00000
    87.8610     2825.00000
    87.8742     2892.00000
    87.8873     2876.00000
    87.9004     3174.00000
    87.9136     3136.00000
    87.9267     3243.00000
    87.9398     3161.00000
    87.9530     3212.00000
    87.9661     3185.00000
    87.9792     3195.00000
    87.9923     3296.00000
    88.0055     3383.00000
    88.0186     3374.00000
    88.0317     3535.00000
    88.0449     3785.00000
    88.0580     3777.00000
    88.0711     3742.00000
    88.0843     3841.00000
    88.0974     3684.00000
    88.1105     3608.00000
    88.1236     3700.00000
    88.1368     3226.00000
    88.1499     3178.00000
    88.1630     2989.00000
    88.1762     2984.00000
    88.1893     2922.00000
    88.2024     2790.00000
    88.2156     2870.00000
    88.2287     2887.00000
    88.2418     2997.00000
    88.2550     2970.00000
    88.2681     2948.00000
    88.2812     3120.00000
    88.2943     3224.00000
    88.3075     3309.00000
    88.3206     3290.00000
    88.3337     3289.00000
    88.3469     3418.00000
    88.3600     3377.00000
    88.3731     3251.00000
    88.3863     3273.00000
    88.3994     3170.00000
    88.4125     3006.00000
    88.4256     2942.00000
    88.4388     2944.00000
    88.4519     2769.00000
    88.4650     2686.00000
    88.4782     2802.00000
    88.4913     2651.00000
    88.5044     2658.00000
    88.5176     2605.00000
    88.5307     2633.00000
    88.5438     2539.00000
    88.5569     2652.00000
    88.5701     2665.00000
    88.5832     2634.00000
    88.5963     2707.00000
    88.6095     2595.00000
    88.6226     2685.00000
    88.6357     2619.00000
    88.6489     2612.00000
    88.6620     2693.00000
    88.6751     2636.00000
    88.6882     2678.00000
    88.7014     2575.00000
    88.7145     2681.00000
    88.7276     2638.00000
    88.7408     2616.00000
    88.7539     2649.00000
    88.7670     2711.00000
    88.7802     2676.00000
    88.7933     2865.00000
    88.8064     2921.00000
    88.8196     2947.00000
    88.8327     2944.00000
    88.8458     3106.00000
    88.8589     3306.00000
    88.8721     3182.00000
    88.8852     3265.00000
    88.8983     3312.00000
    88.9115     3205.00000
    88.9246     3192.00000
    88.9377     3036.00000
    88.9509     2989.00000
    88.9640     2874.00000
    88.9771     2804.00000
    88.9902     2726.00000
    89.0034     2852.00000
    89.0165     2755.00000
    89.0296     2793.00000
    89.0428     2736.00000
    89.0559     2748.00000
    89.0690     2681.00000
    89.0822     2718.00000
    89.0953     2711.00000
    89.1084     2854.00000
    89.1216     2825.00000
    89.1347     2892.00000
    89.1478     2965.00000
    89.1609     2947.00000
    89.1741     2956.00000
    89.1872     3070.00000
    89.2003     3047.00000
    89.2135     2880.00000
    89.2266     2923.00000
    89.2397     2947.00000
    89.2529     3014.00000
    89.2660     2948.00000
    89.2791     2989.00000
    89.2922     2950.00000
    89.3054     2932.00000
    89.3185     2828.00000
    89.3316     2845.00000
    89.3448     2712.00000
    89.3579     2708.00000
    89.3710     2629.00000
    89.3842     2578.00000
    89.3973     2627.00000
    89.4104     2626.00000
    89.4235     2522.00000
    89.4367     2579.00000
    89.4498     2608.00000
    89.4629     2498.00000
    89.4761     2728.00000
    89.4892     2689.00000
    89.5023     2579.00000
    89.5155     2643.00000
    89.5286     2707.00000
    89.5417     2676.00000
    89.5548     2681.00000
    89.5680     2794.00000
    89.5811     2739.00000
    89.5942     2781.00000
    89.6074     2784.00000
    89.6205     2796.00000
    89.6336     2731.00000
    89.6468     2811.00000
    89.6599     2816.00000
    89.6730     2786.00000
    89.6861     3011.00000
    89.6993     3141.00000
    89.7124     3270.00000
    89.7255     3377.00000
    89.7387     3513.00000
    89.7518     3656.00000
    89.7649     3724.00000
    89.7781     3585.00000
    89.7912     3566.00000
    89.8043     3358.00000
    89.8175     3387.00000
    89.8306     3284.00000
    89.8437     3266.00000
    89.8568     3149.00000
    89.8700     3138.00000
    89.8831     3118.00000
    89.8962     3299.00000
    89.9094     3344.00000
    89.9225     3384.00000
    89.9356     3353.00000
    89.9488     3522.00000
    89.9619     3584.00000
    89.9750     3728.00000
    89.9882     3759.00000
    90.0013     3681.00000
    90.0144     3726.00000
    90.0275     3710.00000
    90.0407     3717.00000
    90.0538     3753.00000
    90.0669     3518.00000
    90.0801     3303.00000
    90.0932     3298.00000
    90.1063     3145.00000
    90.1195     3143.00000
    90.1326     3072.00000
    90.1457     2955.00000
    90.1588     2941.00000
    90.1720     3047.00000
    90.1851     3084.00000
    90.1982     3207.00000
    90.2114     3304.00000
    90.2245     3316.00000
    90.2376     3356.00000
    90.2508     3386.00000
    90.2639     3583.00000
    90.2770     3545.00000
    90.2901     3580.00000
    90.3033     3488.00000
    90.3164     3542.00000
    90.3295     3327.00000
    90.3427     3120.00000
    90.3558     3017.00000
    90.3689     2948.00000
    90.3821     2871.00000
    90.3952     2764.00000
    90.4083     2745.00000
    90.4214     2777.00000
    90.4346     2678.00000
    90.4477     2687.00000
    90.4608     2717.00000
    90.4740     2710.00000
    90.4871     2714.00000
    90.5002     2787.00000
    90.5134     2875.00000
    90.5265     2850.00000
    90.5396     2938.00000
    90.5527     3014.00000
    90.5659     3066.00000
    90.5790     3090.00000
    90.5921     3108.00000
    90.6053     3151.00000
    90.6184     3004.00000
    90.6315     3023.00000
    90.6447     2906.00000
    90.6578     2915.00000
    90.6709     2950.00000
    90.6841     2958.00000
    90.6972     3021.00000
    90.7103     3071.00000
    90.7234     2936.00000
    90.7366     3061.00000
    90.7497     3171.00000
    90.7628     3104.00000
    90.7760     3069.00000
    90.7891     3059.00000
    90.8022     2902.00000
    90.8154     2953.00000
    90.8285     2878.00000
    90.8416     2756.00000
    90.8548     2830.00000
    90.8679     2800.00000
    90.8810     2711.00000
    90.8941     2696.00000
    90.9073     2719.00000
    90.9204     2761.00000
    90.9335     2790.00000
    90.9467     2840.00000
    90.9598     2884.00000
    90.9729     2853.00000
    90.9861     2882.00000
    90.9992     2911.00000
    91.0123     3091.00000
    91.0254     3010.00000
    91.0386     3270.00000
    91.0517     3349.00000
    91.0648     3412.00000
    91.0780     3494.00000
    91.0911     3383.00000
    91.1042     3608.00000
    91.1174     3600.00000
    91.1305     3436.00000
    91.1436     3615.00000
    91.1567     3415.00000
    91.1699     3539.00000
    91.1830     3484.00000
    91.1961     3313.00000
    91.2093     3312.00000
    91.2224     3197.00000
    91.2355     3089.00000
    91.2487     2995.00000
    91.2618     2958.00000
    91.2749     2852.00000
    91.2880     2870.00000
    91.3012     2929.00000
    91.3143     2925.00000
    91.3274     3022.00000
    91.3406     3206.00000
    91.3537     3141.00000
    91.3668     3208.00000
    91.3800     3312.00000
    91.3931     3383.00000
    91.4062     3512.00000
    91.4193     3603.00000
    91.4325     3707.00000
    91.4456     3855.00000
    91.4587     3909.00000
    91.4719     4147.00000
    91.4850     4118.00000
    91.4981     4131.00000
    91.5113     4186.00000
    91.5244     4071.00000
    91.5375     3779.00000
    91.5507     3514.00000
    91.5638     3452.00000
    91.5769     3295.00000
    91.5900     3066.00000
    91.6032     3079.00000
    91.6163     3006.00000
    91.6294     2969.00000
    91.6426     2883.00000
    91.6557     2905.00000
    91.6688     2955.00000
    91.6820     2871.00000
    91.6951     3064.00000
    91.7082     2978.00000
    91.7213     3133.00000
    91.7345     3219.00000
    91.7476     3352.00000
    91.7607     3246.00000
    91.7739     3271.00000
    91.7870     3357.00000
    91.8001     3358.00000
    91.8133     3280.00000
    91.8264     3158.00000
    91.8395     3101.00000
    91.8526     2967.00000
    91.8658     2915.00000
    91.8789     2786.00000
    91.8920     2837.00000
    91.9052     2840.00000
    91.9183     2761.00000
    91.9314     2776.00000
    91.9446     2778.00000
    91.9577     2730.00000
    91.9708     2720.00000
    91.9840     2696.00000
    91.9971     2760.00000
    92.0102     2798.00000
    92.0233     2920.00000
    92.0365     2920.00000
    92.0496     2929.00000
    92.0627     3021.00000
    92.0759     3024.00000
    92.0890     2960.00000
    92.1021     2995.00000
    92.1153     2933.00000
    92.1284     2988.00000
    92.1415     3000.00000
    92.1546     2956.00000
    92.1678     2926.00000
    92.1809     2929.00000
    92.1940     2886.00000
    92.2072     2922.00000
    92.2203     3026.00000
    92.2334     2864.00000
    92.2466     2938.00000
    92.2597     2912.00000
    92.2728     2961.00000
    92.2859     3001.00000
    92.2991     3035.00000
    92.3122     3089.00000
    92.3253     3101.00000
    92.3385     3201.00000
    92.3516     3292.00000
    92.3647     3436.00000
    92.3779     3414.00000
    92.3910     3633.00000
    92.4041     3633.00000
    92.4173     3893.00000
    92.4304     3824.00000
    92.4435     3649.00000
    92.4566     3599.00000
    92.4698     3476.00000
    92.4829     3343.00000
    92.4960     3233.00000
    92.5092     3242.00000
    92.5223     2990.00000
    92.5354     3115.00000
    92.5486     2937.00000
    92.5617     2852.00000
    92.5748     2828.00000
    92.5879     2811.00000
    92.6011     2880.00000
    92.6142     2791.00000
    92.6273     2914.00000
    92.6405     2912.00000
    92.6536     2909.00000
    92.6667     2900.00000
    92.6799     2905.00000
    92.6930     2941.00000
    92.7061     3029.00000
    92.7192     2958.00000
    92.7324     2968.00000
    92.7455     2989.00000
    92.7586     2903.00000
    92.7718     2898.00000
    92.7849     2879.00000
    92.7980     2741.00000
    92.8112     2716.00000
    92.8243     2522.00000
    92.8374     2622.00000
    92.8505     2524.00000
    92.8637     2534.00000
    92.8768     2542.00000
    92.8899     2501.00000
    92.9031     2505.00000
    92.9162     2530.00000
    92.9293     2589.00000
    92.9425     2553.00000
    92.9556     2571.00000
    92.9687     2494.00000
    92.9819     2458.00000
    92.9950     2532.00000
    93.0081     2434.00000
    93.0212     2488.00000
    93.0344     2445.00000
    93.0475     2402.00000
    93.0606     2367.00000
    93.0738     2385.00000
    93.0869     2432.00000
    93.1000     2434.00000
    93.1132     2407.00000
    93.1263     2423.00000
    93.1394     2392.00000
    93.1525     2476.00000
    93.1657     2380.00000
    93.1788     2448.00000
    93.1919     2405.00000
    93.2051     2401.00000
    93.2182     2403.00000
    93.2313     2436.00000
    93.2445     2413.00000
    93.2576     2492.00000
    93.2707     2501.00000
    93.2839     2437.00000
    93.2970     2387.00000
    93.3101     2531.00000
    93.3232     2432.00000
    93.3364     2393.00000
    93.3495     2415.00000
    93.3626     2552.00000
    93.3758     2439.00000
    93.3889     2479.00000
    93.4020     2587.00000
    93.4152     2575.00000
    93.4283     2632.00000
    93.4414     2816.00000
    93.4545     2796.00000
    93.4677     2881.00000
    93.4808     3051.00000
    93.4939     3067.00000
    93.5071     3101.00000
    93.5202     3189.00000
    93.5333     3269.00000
    93.5465     3198.00000
    93.5596     2956.00000
    93.5727     2815.00000
    93.5858     2814.00000
    93.5990     2705.00000
    93.6121     2772.00000
    93.6252     2784.00000
    93.6384     2812.00000
    93.6515     2757.00000
    93.6646     2792.00000
    93.6778     2818.00000
    93.6909     2730.00000
    93.7040     2778.00000
    93.7171     2913.00000
    93.7303     2879.00000
    93.7434     2927.00000
    93.7565     3003.00000
    93.7697     3022.00000
    93.7828     2965.00000
    93.7959     3008.00000
    93.8091     2994.00000
    93.8222     2893.00000
    93.8353     2905.00000
    93.8484     2888.00000
    93.8616     2875.00000
    93.8747     2774.00000
    93.8878     2769.00000
    93.9010     2615.00000
    93.9141     2700.00000
    93.9272     2575.00000
    93.9404     2688.00000
    93.9535     2637.00000
    93.9666     2633.00000
    93.9798     2666.00000
    93.9929     2671.00000
    94.0060     2762.00000
    94.0191     2565.00000
    94.0323     2563.00000
    94.0454     2557.00000
    94.0585     2593.00000
    94.0717     2683.00000
    94.0848     2688.00000
    94.0979     2590.00000
    94.1111     2611.00000
    94.1242     2595.00000
    94.1373     2677.00000
    94.1505     2654.00000
    94.1636     2640.00000
    94.1767     2719.00000
    94.1898     2716.00000
    94.2030     2856.00000
    94.2161     2841.00000
    94.2292     3087.00000
    94.2424     2950.00000
    94.2555     2993.00000
    94.2686     3075.00000
    94.2818     3034.00000
    94.2949     3102.00000
    94.3080     2990.00000
    94.3211     3082.00000
    94.3343     2997.00000
    94.3474     2965.00000
    94.3605     3023.00000
    94.3737     3107.00000
    94.3868     3149.00000
    94.3999     3124.00000
    94.4131     3221.00000
    94.4262     3183.00000
    94.4393     3160.00000
    94.4524     3229.00000
    94.4656     3165.00000
    94.4787     3112.00000
    94.4918     2889.00000
    94.5050     2973.00000
    94.5181     2872.00000
    94.5312     2886.00000
    94.5444     2864.00000
    94.5575     2767.00000
    94.5706     2797.00000
    94.5837     2884.00000
    94.5969     2842.00000
    94.6100     2760.00000
    94.6231     2771.00000
    94.6363     2892.00000
    94.6494     2688.00000
    94.6625     2860.00000
    94.6757     2753.00000
    94.6888     2777.00000
    94.7019     2897.00000
    94.7150     2801.00000
    94.7282     2773.00000
    94.7413     2855.00000
    94.7544     2852.00000
    94.7676     2798.00000
    94.7807     2694.00000
    94.7938     2691.00000
    94.8070     2586.00000
    94.8201     2563.00000
    94.8332     2538.00000
    94.8464     2548.00000
    94.8595     2418.00000
    94.8726     2489.00000
    94.8857     2429.00000
    94.8989     2508.00000
    94.9120     2403.00000
    94.9251     2487.00000
    94.9383     2428.00000
    94.9514     2395.00000
    94.9645     2413.00000
    94.9777     2497.00000
    94.9908     2524.00000
    95.0039     2477.00000
    95.0170     2497.00000
    95.0302     2387.00000
    95.0433     2457.00000
    95.0564     2618.00000
    95.0696     2458.00000
    95.0827     2417.00000
    95.0958     2452.00000
    95.1090     2486.00000
    95.1221     2427.00000
    95.1352     2415.00000
    95.1484     2437.00000
    95.1615     2514.00000
    95.1746     2350.00000
    95.1877     2467.00000
    95.2009     2437.00000
    95.2140     2443.00000
    95.2271     2363.00000
    95.2403     2422.00000
    95.2534     2503.00000
    95.2665     2396.00000
    95.2797     2391.00000
    95.2928     2338.00000
    95.3059     2435.00000
    95.3190     2437.00000
    95.3322     2378.00000
    95.3453     2293.00000
    95.3584     2425.00000
    95.3716     2380.00000
    95.3847     2370.00000
    95.3978     2419.00000
    95.4110     2432.00000
    95.4241     2443.00000
    95.4372     2401.00000
    95.4503     2443.00000
    95.4635     2421.00000
    95.4766     2471.00000
    95.4897     2455.00000
    95.5029     2398.00000
    95.5160     2414.00000
    95.5291     2421.00000
    95.5423     2414.00000
    95.5554     2421.00000
    95.5685     2494.00000
    95.5816     2483.00000
    95.5948     2418.00000
    95.6079     2462.00000
    95.6210     2435.00000
    95.6342     2443.00000
    95.6473     2567.00000
    95.6604     2496.00000
    95.6736     2412.00000
    95.6867     2481.00000
    95.6998     2587.00000
    95.7130     2499.00000
    95.7261     2561.00000
    95.7392     2626.00000
    95.7523     2533.00000
    95.7655     2612.00000
    95.7786     2598.00000
    95.7917     2587.00000
    95.8049     2577.00000
    95.8180     2531.00000
    95.8311     2518.00000
    95.8443     2418.00000
    95.8574     2426.00000
    95.8705     2508.00000
    95.8836     2566.00000
    95.8968     2460.00000
    95.9099     2384.00000
    95.9230     2469.00000
    95.9362     2398.00000
    95.9493     2459.00000
    95.9624     2500.00000
    95.9756     2459.00000
    95.9887     2495.00000
    96.0018     2458.00000
    96.0149     2544.00000
    96.0281     2472.00000
    96.0412     2447.00000
    96.0543     2531.00000
    96.0675     2455.00000
    96.0806     2582.00000
    96.0937     2592.00000
    96.1069     2573.00000
    96.1200     2629.00000
    96.1331     2457.00000
    96.1463     2528.00000
    96.1594     2514.00000
    96.1725     2575.00000
    96.1856     2576.00000
    96.1988     2533.00000
    96.2119     2579.00000
    96.2250     2673.00000
    96.2382     2745.00000
    96.2513     2786.00000
    96.2644     2839.00000
    96.2776     2967.00000
    96.2907     3156.00000
    96.3038     3237.00000
    96.3169     3351.00000
    96.3301     3370.00000
    96.3432     3589.00000
    96.3563     3502.00000
    96.3695     3556.00000
    96.3826     3490.00000
    96.3957     3351.00000
    96.4089     3334.00000
    96.4220     3199.00000
    96.4351     3305.00000
    96.4482     3262.00000
    96.4614     3253.00000
    96.4745     3277.00000
    96.4876     3178.00000
    96.5008     3306.00000
    96.5139     3360.00000
    96.5270     3430.00000
    96.5402     3455.00000
    96.5533     3443.00000
    96.5664     3429.00000
    96.5796     3365.00000
    96.5927     3444.00000
    96.6058     3338.00000
    96.6189     3243.00000
    96.6321     3265.00000
    96.6452     3263.00000
    96.6583     3181.00000
    96.6715     3117.00000
    96.6846     3205.00000
    96.6977     3082.00000
    96.7109     3151.00000
    96.7240     3039.00000
    96.7371     3158.00000
    96.7502     2871.00000
    96.7634     2952.00000
    96.7765     2884.00000
    96.7896     2900.00000
    96.8028     2872.00000
    96.8159     2800.00000
    96.8290     2906.00000
    96.8422     2819.00000
    96.8553     2916.00000
    96.8684     2894.00000
    96.8815     2899.00000
    96.8947     2865.00000
    96.9078     2832.00000
    96.9209     2695.00000
    96.9341     2666.00000
    96.9472     2669.00000
    96.9603     2654.00000
    96.9735     2516.00000
    96.9866     2647.00000
    96.9997     2551.00000
    97.0128     2684.00000
    97.0260     2571.00000
    97.0391     2583.00000
    97.0522     2547.00000
    97.0654     2582.00000
    97.0785     2597.00000
    97.0916     2563.00000
    97.1048     2550.00000
    97.1179     2640.00000
    97.1310     2524.00000
    97.1442     2570.00000
    97.1573     2516.00000
    97.1704     2562.00000
    97.1835     2644.00000
    97.1967     2649.00000
    97.2098     2678.00000
    97.2229     2766.00000
    97.2361     2771.00000
    97.2492     2826.00000
    97.2623     2929.00000
    97.2755     2985.00000
    97.2886     3043.00000
    97.3017     3144.00000
    97.3148     3219.00000
    97.3280     3324.00000
    97.3411     3389.00000
    97.3542     3344.00000
    97.3674     3487.00000
    97.3805     3388.00000
    97.3936     3421.00000
    97.4068     3288.00000
    97.4199     3170.00000
    97.4330     3200.00000
    97.4462     3146.00000
    97.4593     3147.00000
    97.4724     2973.00000
    97.4855     2811.00000
    97.4987     2895.00000
    97.5118     2885.00000
    97.5249     2785.00000
    97.5381     2766.00000
    97.5512     2697.00000
    97.5643     2716.00000
    97.5775     2694.00000
    97.5906     2786.00000
    97.6037     2737.00000
    97.6168     2720.00000
    97.6300     2840.00000
    97.6431     2895.00000
    97.6562     2900.00000
    97.6694     2901.00000
    97.6825     2926.00000
    97.6956     2904.00000
    97.7088     2929.00000
    97.7219     2902.00000
    97.7350     3017.00000
    97.7481     2823.00000
    97.7613     2837.00000
    97.7744     2827.00000
    97.7875     2688.00000
    97.8007     2617.00000
    97.8138     2670.00000
    97.8269     2702.00000
    97.8401     2648.00000
    97.8532     2604.00000
    97.8663     2623.00000
    97.8794     2518.00000
    97.8926     2434.00000
    97.9057     2552.00000
    97.9188     2511.00000
    97.9320     2542.00000
    97.9451     2511.00000
    97.9582     2503.00000
    97.9714     2533.00000
    97.9845     2658.00000
    97.9976     2531.00000
    98.0107     2522.00000
    98.0239     2551.00000
    98.0370     2523.00000
    98.0501     2675.00000
    98.0633     2630.00000
    98.0764     2699.00000
    98.0895     2666.00000
    98.1027     2662.00000
    98.1158     2787.00000
    98.1289     2833.00000
    98.1421     2917.00000
    98.1552     2943.00000
    98.1683     2978.00000
    98.1814     2984.00000
    98.1946     3033.00000
    98.2077     3041.00000
    98.2208     3040.00000
    98.2340     3062.00000
    98.2471     3081.00000
    98.2602     3239.00000
    98.2734     3208.00000
    98.2865     3159.00000
    98.2996     3216.00000
    98.3128     3192.00000
    98.3259     3191.00000
    98.3390     3284.00000
    98.3521     3302.00000
    98.3653     3429.00000
    98.3784     3444.00000
    98.3915     3504.00000
    98.4047     3665.00000
    98.4178     3755.00000
    98.4309     3781.00000
    98.4441     3809.00000
    98.4572     3643.00000
    98.4703     3806.00000
    98.4834     3573.00000
    98.4966     3623.00000
    98.5097     3713.00000
    98.5228     3525.00000
    98.5360     3381.00000
    98.5491     3251.00000
    98.5622     3235.00000
    98.5754     3317.00000
    98.5885     3203.00000
    98.6016     3109.00000
    98.6147     3218.00000
    98.6279     3180.00000
    98.6410     3151.00000
    98.6541     3218.00000
    98.6673     3153.00000
    98.6804     3339.00000
    98.6935     3410.00000
    98.7067     3340.00000
    98.7198     3443.00000
    98.7329     3625.00000
    98.7460     3664.00000
    98.7592     3699.00000
    98.7723     3887.00000
    98.7854     4010.00000
    98.7986     4214.00000
    98.8117     4138.00000
    98.8248     4180.00000
    98.8380     4269.00000
    98.8511     4102.00000
    98.8642     4112.00000
    98.8773     4084.00000
    98.8905     4019.00000
    98.9036     4158.00000
    98.9167     4149.00000
    98.9299     3964.00000
    98.9430     4239.00000
    98.9561     4233.00000
    98.9693     4447.00000
    98.9824     4570.00000
    98.9955     4639.00000
    99.0087     4659.00000
    99.0218     4606.00000
    99.0349     4589.00000
    99.0480     4399.00000
    99.0612     4488.00000
    99.0743     4186.00000
    99.0874     4127.00000
    99.1006     3976.00000
    99.1137     3946.00000
    99.1268     3874.00000
    99.1400     3745.00000
    99.1531     3678.00000
    99.1662     3631.00000
    99.1793     3563.00000
    99.1925     3541.00000
    99.2056     3472.00000
    99.2187     3334.00000
    99.2319     3211.00000
    99.2450     3324.00000
    99.2581     3284.00000
    99.2713     3396.00000
    99.2844     3341.00000
    99.2975     3465.00000
    99.3107     3525.00000
    99.3238     3482.00000
    99.3369     3475.00000
    99.3500     3460.00000
    99.3632     3493.00000
    99.3763     3267.00000
    99.3894     3327.00000
    99.4026     3286.00000
    99.4157     3276.00000
    99.4288     3141.00000
    99.4420     3114.00000
    99.4551     3120.00000
    99.4682     2922.00000
    99.4813     2880.00000
    99.4945     2846.00000
    99.5076     2773.00000
    99.5207     2644.00000
    99.5339     2794.00000
    99.5470     2745.00000
    99.5601     2707.00000
    99.5733     2631.00000
    99.5864     2655.00000
    99.5995     2700.00000
    99.6126     2691.00000
    99.6258     2691.00000
    99.6389     2883.00000
    99.6520     2682.00000
    99.6652     2824.00000
    99.6783     2896.00000
    99.6914     2972.00000
    99.7046     3047.00000
    99.7177     3142.00000
    99.7308     3233.00000
    99.7439     3275.00000
    99.7571     3396.00000
    99.7702     3492.00000
    99.7833     3450.00000
    99.7965     3127.00000
    99.8096     3177.00000
    99.8227     3174.00000
    99.8359     3022.00000
    99.8490     3052.00000
    99.8621     3002.00000
    99.8753     2960.00000
    99.8884     2827.00000
    99.9015     3045.00000
    99.9146     2978.00000
    99.9278     2970.00000
    99.9409     2879.00000
    99.9540     2951.00000
    99.9672     2788.00000
    99.9803     2816.00000
    99.9934     2871.00000
