! Initial file:   D:\ZAKARY_OUAIL\MA_THESE\Deuxième_année_de_thèse\DRX\Manips_DRX\1st_NaTaO2F2_XRK900\NaTaO2F2-Lent_280°C.xrdml
! Initial format:  58
! WAVE (A):      1.54060     1.54060     1.00000
! REM : data have been multiplied by     1.0000
! X_data : 2 Theta (deg.)                                                                                                                                                                                                                                                  
! Y_data : Intensity (arb. units)                                                                                                                                                                                                                                          
!     X         Y
!--------------------------------------------------------------------------------
    10.0116     6236.00000
    10.0247     6241.00000
    10.0379     6270.00000
    10.0510     6231.00000
    10.0641     6356.00000
    10.0772     6151.00000
    10.0904     6375.00000
    10.1035     6232.00000
    10.1166     6136.00000
    10.1298     6185.00000
    10.1429     6281.00000
    10.1560     6330.00000
    10.1692     6233.00000
    10.1823     6327.00000
    10.1954     6173.00000
    10.2086     6062.00000
    10.2217     6111.00000
    10.2348     6265.00000
    10.2479     6235.00000
    10.2611     6120.00000
    10.2742     6197.00000
    10.2873     6219.00000
    10.3005     6277.00000
    10.3136     6426.00000
    10.3267     6312.00000
    10.3399     6108.00000
    10.3530     6214.00000
    10.3661     6182.00000
    10.3792     6177.00000
    10.3924     6197.00000
    10.4055     6257.00000
    10.4186     6143.00000
    10.4318     6194.00000
    10.4449     6041.00000
    10.4580     5994.00000
    10.4712     6089.00000
    10.4843     6077.00000
    10.4974     6021.00000
    10.5105     6029.00000
    10.5237     6191.00000
    10.5368     6131.00000
    10.5499     6099.00000
    10.5631     6010.00000
    10.5762     6112.00000
    10.5893     6099.00000
    10.6025     5940.00000
    10.6156     6037.00000
    10.6287     6097.00000
    10.6418     6055.00000
    10.6550     6118.00000
    10.6681     6046.00000
    10.6812     6048.00000
    10.6944     6081.00000
    10.7075     5922.00000
    10.7206     5957.00000
    10.7338     5999.00000
    10.7469     6014.00000
    10.7600     6308.00000
    10.7732     6333.00000
    10.7863     6293.00000
    10.7994     6171.00000
    10.8125     6262.00000
    10.8257     6262.00000
    10.8388     6252.00000
    10.8519     6436.00000
    10.8651     6223.00000
    10.8782     6452.00000
    10.8913     6539.00000
    10.9045     6413.00000
    10.9176     6778.00000
    10.9307     6860.00000
    10.9438     7188.00000
    10.9570     7543.00000
    10.9701     7948.00000
    10.9832     8671.00000
    10.9964     9530.00000
    11.0095    10836.00000
    11.0226    12601.00000
    11.0358    16081.00000
    11.0489    20752.00000
    11.0620    25950.00000
    11.0751    33148.00000
    11.0883    40987.00000
    11.1014    46983.00000
    11.1145    48688.00000
    11.1277    46210.00000
    11.1408    40605.00000
    11.1539    33300.00000
    11.1671    25553.00000
    11.1802    19484.00000
    11.1933    14397.00000
    11.2065    10666.00000
    11.2196     8837.00000
    11.2327     7581.00000
    11.2458     7044.00000
    11.2590     6739.00000
    11.2721     6663.00000
    11.2852     6490.00000
    11.2984     6308.00000
    11.3115     6221.00000
    11.3246     6237.00000
    11.3378     6052.00000
    11.3509     6000.00000
    11.3640     6015.00000
    11.3771     5797.00000
    11.3903     6025.00000
    11.4034     5867.00000
    11.4165     5967.00000
    11.4297     5952.00000
    11.4428     5844.00000
    11.4559     5870.00000
    11.4691     5796.00000
    11.4822     5831.00000
    11.4953     5846.00000
    11.5084     5837.00000
    11.5216     5896.00000
    11.5347     5801.00000
    11.5478     5953.00000
    11.5610     5817.00000
    11.5741     5719.00000
    11.5872     5801.00000
    11.6004     5815.00000
    11.6135     5840.00000
    11.6266     5671.00000
    11.6398     5727.00000
    11.6529     5734.00000
    11.6660     5847.00000
    11.6791     5778.00000
    11.6923     5735.00000
    11.7054     5772.00000
    11.7185     5767.00000
    11.7317     5733.00000
    11.7448     5788.00000
    11.7579     5740.00000
    11.7711     5718.00000
    11.7842     5855.00000
    11.7973     5710.00000
    11.8104     5680.00000
    11.8236     5566.00000
    11.8367     5817.00000
    11.8498     5676.00000
    11.8630     5578.00000
    11.8761     5636.00000
    11.8892     5571.00000
    11.9024     5561.00000
    11.9155     5603.00000
    11.9286     5622.00000
    11.9417     5717.00000
    11.9549     5572.00000
    11.9680     5549.00000
    11.9811     5508.00000
    11.9943     5574.00000
    12.0074     5577.00000
    12.0205     5586.00000
    12.0337     5621.00000
    12.0468     5729.00000
    12.0599     5595.00000
    12.0731     5570.00000
    12.0862     5668.00000
    12.0993     5514.00000
    12.1124     5529.00000
    12.1256     5677.00000
    12.1387     5608.00000
    12.1518     5553.00000
    12.1650     5602.00000
    12.1781     5639.00000
    12.1912     5620.00000
    12.2044     5499.00000
    12.2175     5474.00000
    12.2306     5541.00000
    12.2437     5483.00000
    12.2569     5444.00000
    12.2700     5506.00000
    12.2831     5379.00000
    12.2963     5445.00000
    12.3094     5440.00000
    12.3225     5477.00000
    12.3357     5507.00000
    12.3488     5478.00000
    12.3619     5378.00000
    12.3750     5424.00000
    12.3882     5414.00000
    12.4013     5390.00000
    12.4144     5392.00000
    12.4276     5323.00000
    12.4407     5401.00000
    12.4538     5362.00000
    12.4670     5443.00000
    12.4801     5323.00000
    12.4932     5426.00000
    12.5063     5588.00000
    12.5195     5367.00000
    12.5326     5532.00000
    12.5457     5407.00000
    12.5589     5446.00000
    12.5720     5325.00000
    12.5851     5415.00000
    12.5983     5227.00000
    12.6114     5347.00000
    12.6245     5375.00000
    12.6377     5435.00000
    12.6508     5430.00000
    12.6639     5296.00000
    12.6770     5439.00000
    12.6902     5334.00000
    12.7033     5218.00000
    12.7164     5320.00000
    12.7296     5231.00000
    12.7427     5305.00000
    12.7558     5354.00000
    12.7690     5388.00000
    12.7821     5311.00000
    12.7952     5437.00000
    12.8083     5336.00000
    12.8215     5303.00000
    12.8346     5350.00000
    12.8477     5241.00000
    12.8609     5234.00000
    12.8740     5172.00000
    12.8871     5247.00000
    12.9003     5183.00000
    12.9134     5303.00000
    12.9265     5216.00000
    12.9396     5253.00000
    12.9528     5421.00000
    12.9659     5247.00000
    12.9790     5280.00000
    12.9922     5356.00000
    13.0053     5342.00000
    13.0184     5248.00000
    13.0316     5303.00000
    13.0447     5264.00000
    13.0578     5345.00000
    13.0710     5141.00000
    13.0841     5309.00000
    13.0972     5331.00000
    13.1103     5294.00000
    13.1235     5269.00000
    13.1366     5083.00000
    13.1497     5334.00000
    13.1629     5276.00000
    13.1760     5098.00000
    13.1891     5062.00000
    13.2023     5206.00000
    13.2154     5270.00000
    13.2285     5286.00000
    13.2416     5208.00000
    13.2548     5194.00000
    13.2679     5172.00000
    13.2810     5266.00000
    13.2942     5268.00000
    13.3073     5121.00000
    13.3204     5230.00000
    13.3336     5171.00000
    13.3467     5295.00000
    13.3598     5046.00000
    13.3729     5178.00000
    13.3861     4996.00000
    13.3992     5218.00000
    13.4123     5129.00000
    13.4255     5174.00000
    13.4386     5187.00000
    13.4517     5112.00000
    13.4649     5092.00000
    13.4780     5235.00000
    13.4911     5196.00000
    13.5043     5197.00000
    13.5174     5110.00000
    13.5305     5222.00000
    13.5436     5000.00000
    13.5568     5200.00000
    13.5699     5148.00000
    13.5830     5142.00000
    13.5962     5067.00000
    13.6093     5149.00000
    13.6224     5064.00000
    13.6356     5212.00000
    13.6487     5209.00000
    13.6618     5101.00000
    13.6749     5108.00000
    13.6881     5025.00000
    13.7012     5002.00000
    13.7143     5166.00000
    13.7275     4916.00000
    13.7406     4942.00000
    13.7537     4917.00000
    13.7669     5083.00000
    13.7800     5042.00000
    13.7931     5132.00000
    13.8062     5010.00000
    13.8194     4908.00000
    13.8325     5063.00000
    13.8456     5087.00000
    13.8588     5048.00000
    13.8719     5023.00000
    13.8850     5125.00000
    13.8982     5235.00000
    13.9113     5025.00000
    13.9244     4944.00000
    13.9376     4958.00000
    13.9507     5099.00000
    13.9638     5006.00000
    13.9769     5049.00000
    13.9901     5048.00000
    14.0032     5078.00000
    14.0163     4958.00000
    14.0295     5072.00000
    14.0426     4942.00000
    14.0557     5000.00000
    14.0689     4900.00000
    14.0820     4973.00000
    14.0951     5026.00000
    14.1082     5053.00000
    14.1214     4844.00000
    14.1345     5098.00000
    14.1476     5057.00000
    14.1608     4872.00000
    14.1739     5007.00000
    14.1870     4916.00000
    14.2002     4953.00000
    14.2133     4953.00000
    14.2264     4915.00000
    14.2395     4996.00000
    14.2527     4796.00000
    14.2658     4951.00000
    14.2789     4919.00000
    14.2921     4830.00000
    14.3052     5035.00000
    14.3183     5022.00000
    14.3315     4733.00000
    14.3446     4931.00000
    14.3577     4928.00000
    14.3708     4817.00000
    14.3840     4806.00000
    14.3971     4936.00000
    14.4102     4828.00000
    14.4234     4863.00000
    14.4365     4862.00000
    14.4496     4931.00000
    14.4628     4761.00000
    14.4759     4844.00000
    14.4890     4741.00000
    14.5022     4857.00000
    14.5153     4817.00000
    14.5284     4894.00000
    14.5415     4810.00000
    14.5547     4817.00000
    14.5678     4865.00000
    14.5809     4951.00000
    14.5941     4837.00000
    14.6072     4908.00000
    14.6203     4795.00000
    14.6335     4914.00000
    14.6466     4755.00000
    14.6597     4946.00000
    14.6728     4743.00000
    14.6860     4897.00000
    14.6991     4824.00000
    14.7122     4825.00000
    14.7254     4824.00000
    14.7385     4775.00000
    14.7516     4897.00000
    14.7648     4881.00000
    14.7779     4740.00000
    14.7910     4837.00000
    14.8041     4701.00000
    14.8173     4822.00000
    14.8304     4646.00000
    14.8435     4973.00000
    14.8567     4777.00000
    14.8698     4730.00000
    14.8829     4902.00000
    14.8961     4738.00000
    14.9092     4798.00000
    14.9223     4737.00000
    14.9355     4859.00000
    14.9486     4614.00000
    14.9617     4817.00000
    14.9748     4750.00000
    14.9880     4875.00000
    15.0011     4853.00000
    15.0142     4703.00000
    15.0274     4898.00000
    15.0405     4762.00000
    15.0536     4730.00000
    15.0668     4730.00000
    15.0799     4733.00000
    15.0930     4671.00000
    15.1061     4781.00000
    15.1193     4790.00000
    15.1324     4751.00000
    15.1455     4643.00000
    15.1587     4748.00000
    15.1718     4701.00000
    15.1849     4761.00000
    15.1981     4711.00000
    15.2112     4747.00000
    15.2243     4804.00000
    15.2374     4663.00000
    15.2506     4825.00000
    15.2637     4751.00000
    15.2768     4565.00000
    15.2900     4758.00000
    15.3031     4784.00000
    15.3162     4710.00000
    15.3294     4653.00000
    15.3425     4759.00000
    15.3556     4646.00000
    15.3688     4600.00000
    15.3819     4759.00000
    15.3950     4676.00000
    15.4081     4763.00000
    15.4213     4903.00000
    15.4344     4622.00000
    15.4475     4609.00000
    15.4607     4609.00000
    15.4738     4617.00000
    15.4869     4730.00000
    15.5001     4657.00000
    15.5132     4624.00000
    15.5263     4601.00000
    15.5394     4622.00000
    15.5526     4695.00000
    15.5657     4638.00000
    15.5788     4643.00000
    15.5920     4754.00000
    15.6051     4796.00000
    15.6182     4591.00000
    15.6314     4600.00000
    15.6445     4603.00000
    15.6576     4553.00000
    15.6707     4626.00000
    15.6839     4637.00000
    15.6970     4643.00000
    15.7101     4552.00000
    15.7233     4617.00000
    15.7364     4579.00000
    15.7495     4617.00000
    15.7627     4750.00000
    15.7758     4634.00000
    15.7889     4574.00000
    15.8021     4607.00000
    15.8152     4697.00000
    15.8283     4541.00000
    15.8414     4547.00000
    15.8546     4567.00000
    15.8677     4539.00000
    15.8808     4514.00000
    15.8940     4689.00000
    15.9071     4550.00000
    15.9202     4595.00000
    15.9334     4603.00000
    15.9465     4651.00000
    15.9596     4688.00000
    15.9727     4632.00000
    15.9859     4571.00000
    15.9990     4634.00000
    16.0121     4668.00000
    16.0253     4686.00000
    16.0384     4628.00000
    16.0515     4638.00000
    16.0647     4597.00000
    16.0778     4792.00000
    16.0909     4756.00000
    16.1040     4655.00000
    16.1172     4644.00000
    16.1303     4846.00000
    16.1434     4651.00000
    16.1566     4744.00000
    16.1697     4630.00000
    16.1828     4621.00000
    16.1960     4832.00000
    16.2091     4802.00000
    16.2222     4723.00000
    16.2353     4649.00000
    16.2485     4804.00000
    16.2616     4710.00000
    16.2747     4771.00000
    16.2879     4671.00000
    16.3010     4652.00000
    16.3141     4680.00000
    16.3273     4734.00000
    16.3404     4761.00000
    16.3535     4797.00000
    16.3667     4658.00000
    16.3798     4737.00000
    16.3929     4689.00000
    16.4060     4692.00000
    16.4192     4605.00000
    16.4323     4657.00000
    16.4454     4613.00000
    16.4586     4581.00000
    16.4717     4566.00000
    16.4848     4752.00000
    16.4980     4586.00000
    16.5111     4592.00000
    16.5242     4653.00000
    16.5373     4711.00000
    16.5505     4774.00000
    16.5636     4592.00000
    16.5767     4533.00000
    16.5899     4450.00000
    16.6030     4476.00000
    16.6161     4490.00000
    16.6293     4493.00000
    16.6424     4571.00000
    16.6555     4469.00000
    16.6686     4517.00000
    16.6818     4528.00000
    16.6949     4407.00000
    16.7080     4544.00000
    16.7212     4404.00000
    16.7343     4463.00000
    16.7474     4416.00000
    16.7606     4529.00000
    16.7737     4413.00000
    16.7868     4420.00000
    16.8000     4522.00000
    16.8131     4551.00000
    16.8262     4507.00000
    16.8393     4444.00000
    16.8525     4363.00000
    16.8656     4463.00000
    16.8787     4489.00000
    16.8919     4473.00000
    16.9050     4454.00000
    16.9181     4441.00000
    16.9313     4421.00000
    16.9444     4613.00000
    16.9575     4439.00000
    16.9706     4306.00000
    16.9838     4450.00000
    16.9969     4499.00000
    17.0100     4409.00000
    17.0232     4480.00000
    17.0363     4546.00000
    17.0494     4554.00000
    17.0626     4487.00000
    17.0757     4485.00000
    17.0888     4445.00000
    17.1019     4497.00000
    17.1151     4365.00000
    17.1282     4433.00000
    17.1413     4672.00000
    17.1545     4573.00000
    17.1676     4548.00000
    17.1807     4498.00000
    17.1939     4507.00000
    17.2070     4482.00000
    17.2201     4613.00000
    17.2333     4602.00000
    17.2464     4531.00000
    17.2595     4605.00000
    17.2726     4527.00000
    17.2858     4497.00000
    17.2989     4497.00000
    17.3120     4400.00000
    17.3252     4452.00000
    17.3383     4385.00000
    17.3514     4465.00000
    17.3646     4467.00000
    17.3777     4412.00000
    17.3908     4399.00000
    17.4039     4422.00000
    17.4171     4367.00000
    17.4302     4357.00000
    17.4433     4445.00000
    17.4565     4321.00000
    17.4696     4406.00000
    17.4827     4279.00000
    17.4959     4349.00000
    17.5090     4319.00000
    17.5221     4349.00000
    17.5352     4358.00000
    17.5484     4471.00000
    17.5615     4275.00000
    17.5746     4457.00000
    17.5878     4357.00000
    17.6009     4356.00000
    17.6140     4462.00000
    17.6272     4377.00000
    17.6403     4439.00000
    17.6534     4446.00000
    17.6666     4385.00000
    17.6797     4394.00000
    17.6928     4538.00000
    17.7059     4565.00000
    17.7191     4545.00000
    17.7322     4454.00000
    17.7453     4541.00000
    17.7585     4589.00000
    17.7716     4463.00000
    17.7847     4458.00000
    17.7979     4266.00000
    17.8110     4306.00000
    17.8241     4342.00000
    17.8372     4331.00000
    17.8504     4339.00000
    17.8635     4287.00000
    17.8766     4140.00000
    17.8898     4197.00000
    17.9029     4240.00000
    17.9160     4280.00000
    17.9292     4170.00000
    17.9423     4268.00000
    17.9554     4219.00000
    17.9685     4233.00000
    17.9817     4319.00000
    17.9948     4221.00000
    18.0079     4116.00000
    18.0211     4091.00000
    18.0342     4380.00000
    18.0473     4179.00000
    18.0605     4208.00000
    18.0736     4194.00000
    18.0867     4290.00000
    18.0998     4121.00000
    18.1130     4188.00000
    18.1261     4233.00000
    18.1392     4207.00000
    18.1524     4152.00000
    18.1655     4142.00000
    18.1786     4165.00000
    18.1918     4100.00000
    18.2049     4156.00000
    18.2180     4152.00000
    18.2312     4249.00000
    18.2443     4393.00000
    18.2574     4253.00000
    18.2705     4205.00000
    18.2837     4222.00000
    18.2968     4179.00000
    18.3099     4137.00000
    18.3231     4200.00000
    18.3362     4127.00000
    18.3493     4266.00000
    18.3625     4188.00000
    18.3756     4140.00000
    18.3887     4200.00000
    18.4018     4218.00000
    18.4150     4160.00000
    18.4281     4283.00000
    18.4412     4028.00000
    18.4544     4105.00000
    18.4675     4023.00000
    18.4806     4085.00000
    18.4938     4113.00000
    18.5069     4109.00000
    18.5200     4075.00000
    18.5331     4085.00000
    18.5463     4165.00000
    18.5594     4187.00000
    18.5725     4230.00000
    18.5857     4301.00000
    18.5988     4220.00000
    18.6119     4243.00000
    18.6251     4181.00000
    18.6382     4293.00000
    18.6513     4335.00000
    18.6645     4236.00000
    18.6776     4198.00000
    18.6907     4099.00000
    18.7038     4161.00000
    18.7170     4280.00000
    18.7301     4161.00000
    18.7432     4065.00000
    18.7564     4079.00000
    18.7695     4089.00000
    18.7826     4041.00000
    18.7958     4136.00000
    18.8089     4151.00000
    18.8220     4250.00000
    18.8351     4100.00000
    18.8483     4110.00000
    18.8614     4034.00000
    18.8745     3980.00000
    18.8877     4080.00000
    18.9008     4152.00000
    18.9139     4214.00000
    18.9271     4135.00000
    18.9402     4361.00000
    18.9533     4305.00000
    18.9664     4466.00000
    18.9796     4405.00000
    18.9927     4525.00000
    19.0058     4520.00000
    19.0190     4416.00000
    19.0321     4430.00000
    19.0452     4514.00000
    19.0584     4573.00000
    19.0715     4483.00000
    19.0846     4619.00000
    19.0978     4540.00000
    19.1109     4680.00000
    19.1240     4505.00000
    19.1371     4467.00000
    19.1503     4531.00000
    19.1634     4457.00000
    19.1765     4491.00000
    19.1897     4562.00000
    19.2028     4623.00000
    19.2159     4660.00000
    19.2291     4528.00000
    19.2422     4451.00000
    19.2553     4521.00000
    19.2684     4719.00000
    19.2816     4594.00000
    19.2947     4559.00000
    19.3078     4503.00000
    19.3210     4592.00000
    19.3341     4812.00000
    19.3472     4928.00000
    19.3604     4900.00000
    19.3735     4978.00000
    19.3866     5097.00000
    19.3997     5133.00000
    19.4129     5153.00000
    19.4260     5513.00000
    19.4391     5627.00000
    19.4523     5955.00000
    19.4654     6290.00000
    19.4785     6420.00000
    19.4917     7083.00000
    19.5048     8066.00000
    19.5179     9515.00000
    19.5311    11849.00000
    19.5442    15230.00000
    19.5573    20620.00000
    19.5704    30075.00000
    19.5836    44921.00000
    19.5967    66441.00000
    19.6098    90456.00000
    19.6230   111344.00000
    19.6361   122962.00000
    19.6492   118780.00000
    19.6624   109824.00000
    19.6755   100411.00000
    19.6886    85319.00000
    19.7017    65926.00000
    19.7149    48013.00000
    19.7280    34637.00000
    19.7411    24481.00000
    19.7543    17381.00000
    19.7674    12594.00000
    19.7805     9805.00000
    19.7937     7927.00000
    19.8068     6899.00000
    19.8199     6415.00000
    19.8330     5931.00000
    19.8462     5641.00000
    19.8593     5488.00000
    19.8724     5253.00000
    19.8856     4920.00000
    19.8987     4742.00000
    19.9118     4725.00000
    19.9250     4724.00000
    19.9381     4467.00000
    19.9512     4466.00000
    19.9643     4510.00000
    19.9775     4536.00000
    19.9906     4463.00000
    20.0037     4408.00000
    20.0169     4237.00000
    20.0300     4292.00000
    20.0431     4306.00000
    20.0563     4322.00000
    20.0694     4231.00000
    20.0825     4430.00000
    20.0957     4273.00000
    20.1088     4320.00000
    20.1219     4441.00000
    20.1350     4383.00000
    20.1482     4530.00000
    20.1613     4444.00000
    20.1744     4368.00000
    20.1876     4492.00000
    20.2007     4333.00000
    20.2138     4406.00000
    20.2270     4237.00000
    20.2401     4264.00000
    20.2532     4297.00000
    20.2663     4110.00000
    20.2795     4115.00000
    20.2926     4243.00000
    20.3057     4168.00000
    20.3189     4169.00000
    20.3320     4139.00000
    20.3451     3987.00000
    20.3583     4072.00000
    20.3714     3960.00000
    20.3845     4230.00000
    20.3976     4144.00000
    20.4108     4095.00000
    20.4239     4122.00000
    20.4370     4013.00000
    20.4502     4026.00000
    20.4633     4024.00000
    20.4764     4113.00000
    20.4896     3956.00000
    20.5027     4094.00000
    20.5158     4064.00000
    20.5290     4028.00000
    20.5421     3862.00000
    20.5552     4062.00000
    20.5683     4075.00000
    20.5815     3954.00000
    20.5946     4086.00000
    20.6077     3976.00000
    20.6209     4100.00000
    20.6340     3963.00000
    20.6471     4018.00000
    20.6603     3847.00000
    20.6734     3944.00000
    20.6865     3893.00000
    20.6996     3860.00000
    20.7128     3917.00000
    20.7259     3911.00000
    20.7390     3904.00000
    20.7522     4072.00000
    20.7653     4003.00000
    20.7784     3955.00000
    20.7916     4057.00000
    20.8047     3990.00000
    20.8178     4059.00000
    20.8309     3884.00000
    20.8441     3915.00000
    20.8572     4021.00000
    20.8703     3874.00000
    20.8835     3843.00000
    20.8966     3992.00000
    20.9097     3897.00000
    20.9229     3905.00000
    20.9360     3979.00000
    20.9491     3856.00000
    20.9623     4002.00000
    20.9754     3774.00000
    20.9885     3820.00000
    21.0016     3886.00000
    21.0148     3963.00000
    21.0279     3866.00000
    21.0410     3965.00000
    21.0542     3909.00000
    21.0673     3878.00000
    21.0804     3959.00000
    21.0936     3924.00000
    21.1067     3863.00000
    21.1198     3667.00000
    21.1329     3874.00000
    21.1461     3794.00000
    21.1592     3686.00000
    21.1723     3888.00000
    21.1855     3819.00000
    21.1986     3787.00000
    21.2117     3861.00000
    21.2249     3919.00000
    21.2380     3826.00000
    21.2511     3900.00000
    21.2642     3907.00000
    21.2774     3903.00000
    21.2905     3927.00000
    21.3036     3955.00000
    21.3168     3951.00000
    21.3299     3875.00000
    21.3430     3792.00000
    21.3562     3877.00000
    21.3693     3840.00000
    21.3824     3868.00000
    21.3956     3854.00000
    21.4087     3836.00000
    21.4218     3731.00000
    21.4349     3860.00000
    21.4481     3792.00000
    21.4612     3791.00000
    21.4743     3824.00000
    21.4875     3788.00000
    21.5006     3893.00000
    21.5137     3773.00000
    21.5269     3917.00000
    21.5400     3861.00000
    21.5531     3893.00000
    21.5662     3720.00000
    21.5794     3798.00000
    21.5925     3783.00000
    21.6056     3928.00000
    21.6188     3812.00000
    21.6319     3873.00000
    21.6450     3823.00000
    21.6582     3728.00000
    21.6713     3769.00000
    21.6844     3960.00000
    21.6975     3977.00000
    21.7107     3878.00000
    21.7238     3880.00000
    21.7369     4013.00000
    21.7501     4050.00000
    21.7632     4120.00000
    21.7763     4087.00000
    21.7895     4083.00000
    21.8026     4231.00000
    21.8157     4082.00000
    21.8288     3958.00000
    21.8420     3995.00000
    21.8551     3965.00000
    21.8682     3882.00000
    21.8814     3885.00000
    21.8945     3959.00000
    21.9076     3916.00000
    21.9208     3910.00000
    21.9339     3926.00000
    21.9470     3962.00000
    21.9602     3919.00000
    21.9733     3944.00000
    21.9864     4059.00000
    21.9995     3896.00000
    22.0127     3909.00000
    22.0258     4004.00000
    22.0389     3849.00000
    22.0521     3740.00000
    22.0652     3833.00000
    22.0783     3884.00000
    22.0915     3805.00000
    22.1046     3832.00000
    22.1177     3980.00000
    22.1308     3895.00000
    22.1440     3801.00000
    22.1571     3909.00000
    22.1702     4017.00000
    22.1834     3941.00000
    22.1965     4180.00000
    22.2096     4254.00000
    22.2228     4456.00000
    22.2359     4684.00000
    22.2490     5286.00000
    22.2621     6039.00000
    22.2753     7385.00000
    22.2884     9463.00000
    22.3015    12741.00000
    22.3147    15952.00000
    22.3278    18236.00000
    22.3409    18219.00000
    22.3541    17254.00000
    22.3672    16210.00000
    22.3803    14922.00000
    22.3935    12918.00000
    22.4066    10721.00000
    22.4197     8594.00000
    22.4328     7032.00000
    22.4460     5766.00000
    22.4591     4850.00000
    22.4722     4338.00000
    22.4854     4158.00000
    22.4985     4007.00000
    22.5116     4023.00000
    22.5248     4026.00000
    22.5379     4034.00000
    22.5510     3873.00000
    22.5641     3928.00000
    22.5773     3866.00000
    22.5904     3807.00000
    22.6035     3888.00000
    22.6167     3779.00000
    22.6298     3813.00000
    22.6429     3772.00000
    22.6561     3732.00000
    22.6692     3717.00000
    22.6823     3797.00000
    22.6954     3810.00000
    22.7086     3815.00000
    22.7217     3729.00000
    22.7348     3777.00000
    22.7480     3819.00000
    22.7611     3755.00000
    22.7742     3855.00000
    22.7874     3721.00000
    22.8005     3775.00000
    22.8136     3977.00000
    22.8268     3813.00000
    22.8399     3663.00000
    22.8530     3884.00000
    22.8661     3813.00000
    22.8793     3824.00000
    22.8924     3755.00000
    22.9055     3834.00000
    22.9187     3726.00000
    22.9318     3763.00000
    22.9449     3760.00000
    22.9581     3602.00000
    22.9712     3805.00000
    22.9843     3625.00000
    22.9974     3688.00000
    23.0106     3634.00000
    23.0237     3605.00000
    23.0368     3658.00000
    23.0500     3547.00000
    23.0631     3647.00000
    23.0762     3746.00000
    23.0894     3611.00000
    23.1025     3596.00000
    23.1156     3632.00000
    23.1287     3676.00000
    23.1419     3693.00000
    23.1550     3605.00000
    23.1681     3589.00000
    23.1813     3683.00000
    23.1944     3610.00000
    23.2075     3555.00000
    23.2207     3479.00000
    23.2338     3626.00000
    23.2469     3625.00000
    23.2601     3718.00000
    23.2732     3690.00000
    23.2863     3682.00000
    23.2994     3520.00000
    23.3126     3639.00000
    23.3257     3654.00000
    23.3388     3651.00000
    23.3520     3723.00000
    23.3651     3726.00000
    23.3782     3697.00000
    23.3914     3688.00000
    23.4045     3709.00000
    23.4176     3639.00000
    23.4307     3696.00000
    23.4439     3747.00000
    23.4570     3829.00000
    23.4701     3762.00000
    23.4833     3653.00000
    23.4964     3670.00000
    23.5095     3809.00000
    23.5227     3863.00000
    23.5358     3975.00000
    23.5489     3924.00000
    23.5620     3858.00000
    23.5752     3839.00000
    23.5883     3889.00000
    23.6014     3838.00000
    23.6146     3899.00000
    23.6277     3830.00000
    23.6408     3762.00000
    23.6540     3903.00000
    23.6671     3871.00000
    23.6802     3841.00000
    23.6933     3845.00000
    23.7065     3802.00000
    23.7196     3833.00000
    23.7327     3919.00000
    23.7459     3965.00000
    23.7590     3838.00000
    23.7721     3907.00000
    23.7853     4019.00000
    23.7984     3881.00000
    23.8115     3992.00000
    23.8247     3886.00000
    23.8378     3985.00000
    23.8509     3992.00000
    23.8640     4148.00000
    23.8772     4082.00000
    23.8903     4118.00000
    23.9034     4243.00000
    23.9166     4221.00000
    23.9297     4198.00000
    23.9428     4330.00000
    23.9560     4336.00000
    23.9691     4491.00000
    23.9822     4479.00000
    23.9953     4547.00000
    24.0085     4594.00000
    24.0216     4679.00000
    24.0347     4895.00000
    24.0479     5062.00000
    24.0610     5425.00000
    24.0741     5849.00000
    24.0873     6400.00000
    24.1004     7845.00000
    24.1135    10123.00000
    24.1266    14189.00000
    24.1398    20461.00000
    24.1529    28164.00000
    24.1660    36875.00000
    24.1792    42506.00000
    24.1923    44406.00000
    24.2054    42408.00000
    24.2186    39247.00000
    24.2317    35885.00000
    24.2448    32393.00000
    24.2580    28619.00000
    24.2711    25055.00000
    24.2842    22785.00000
    24.2973    23665.00000
    24.3105    29212.00000
    24.3236    35779.00000
    24.3367    39923.00000
    24.3499    44586.00000
    24.3630    47981.00000
    24.3761    47131.00000
    24.3893    42227.00000
    24.4024    37054.00000
    24.4155    32755.00000
    24.4286    28521.00000
    24.4418    22238.00000
    24.4549    16830.00000
    24.4680    12765.00000
    24.4812     9581.00000
    24.4943     7408.00000
    24.5074     6081.00000
    24.5206     5229.00000
    24.5337     4843.00000
    24.5468     4633.00000
    24.5599     4439.00000
    24.5731     4170.00000
    24.5862     4026.00000
    24.5993     4105.00000
    24.6125     4021.00000
    24.6256     3945.00000
    24.6387     3947.00000
    24.6519     3912.00000
    24.6650     3814.00000
    24.6781     3852.00000
    24.6913     3822.00000
    24.7044     3816.00000
    24.7175     3765.00000
    24.7306     3745.00000
    24.7438     3826.00000
    24.7569     3808.00000
    24.7700     3736.00000
    24.7832     3817.00000
    24.7963     3765.00000
    24.8094     3628.00000
    24.8226     3809.00000
    24.8357     3672.00000
    24.8488     3761.00000
    24.8619     3712.00000
    24.8751     3694.00000
    24.8882     3575.00000
    24.9013     3766.00000
    24.9145     3616.00000
    24.9276     3745.00000
    24.9407     3857.00000
    24.9539     3922.00000
    24.9670     3840.00000
    24.9801     3911.00000
    24.9932     3840.00000
    25.0064     3653.00000
    25.0195     3692.00000
    25.0326     3725.00000
    25.0458     3704.00000
    25.0589     3673.00000
    25.0720     3557.00000
    25.0852     3693.00000
    25.0983     3569.00000
    25.1114     3510.00000
    25.1246     3577.00000
    25.1377     3584.00000
    25.1508     3500.00000
    25.1639     3572.00000
    25.1771     3699.00000
    25.1902     3402.00000
    25.2033     3546.00000
    25.2165     3529.00000
    25.2296     3625.00000
    25.2427     3469.00000
    25.2559     3488.00000
    25.2690     3453.00000
    25.2821     3562.00000
    25.2952     3487.00000
    25.3084     3588.00000
    25.3215     3502.00000
    25.3346     3674.00000
    25.3478     3671.00000
    25.3609     3461.00000
    25.3740     3615.00000
    25.3872     3678.00000
    25.4003     3552.00000
    25.4134     3648.00000
    25.4265     3654.00000
    25.4397     3659.00000
    25.4528     3574.00000
    25.4659     3510.00000
    25.4791     3440.00000
    25.4922     3463.00000
    25.5053     3514.00000
    25.5185     3615.00000
    25.5316     3515.00000
    25.5447     3526.00000
    25.5579     3564.00000
    25.5710     3615.00000
    25.5841     3533.00000
    25.5972     3471.00000
    25.6104     3479.00000
    25.6235     3507.00000
    25.6366     3438.00000
    25.6498     3505.00000
    25.6629     3398.00000
    25.6760     3506.00000
    25.6892     3408.00000
    25.7023     3568.00000
    25.7154     3476.00000
    25.7285     3468.00000
    25.7417     3532.00000
    25.7548     3630.00000
    25.7679     3497.00000
    25.7811     3390.00000
    25.7942     3434.00000
    25.8073     3592.00000
    25.8205     3471.00000
    25.8336     3429.00000
    25.8467     3325.00000
    25.8598     3337.00000
    25.8730     3430.00000
    25.8861     3421.00000
    25.8992     3387.00000
    25.9124     3499.00000
    25.9255     3413.00000
    25.9386     3353.00000
    25.9518     3486.00000
    25.9649     3314.00000
    25.9780     3506.00000
    25.9911     3408.00000
    26.0043     3541.00000
    26.0174     3507.00000
    26.0305     3508.00000
    26.0437     3492.00000
    26.0568     3618.00000
    26.0699     3634.00000
    26.0831     3464.00000
    26.0962     3661.00000
    26.1093     3599.00000
    26.1225     3493.00000
    26.1356     3695.00000
    26.1487     3632.00000
    26.1618     3704.00000
    26.1750     3729.00000
    26.1881     3662.00000
    26.2012     3701.00000
    26.2144     3625.00000
    26.2275     3563.00000
    26.2406     3653.00000
    26.2538     3553.00000
    26.2669     3513.00000
    26.2800     3676.00000
    26.2931     3626.00000
    26.3063     3443.00000
    26.3194     3631.00000
    26.3325     3614.00000
    26.3457     3589.00000
    26.3588     3581.00000
    26.3719     3418.00000
    26.3851     3514.00000
    26.3982     3522.00000
    26.4113     3352.00000
    26.4244     3382.00000
    26.4376     3470.00000
    26.4507     3390.00000
    26.4638     3605.00000
    26.4770     3509.00000
    26.4901     3494.00000
    26.5032     3421.00000
    26.5164     3363.00000
    26.5295     3393.00000
    26.5426     3387.00000
    26.5558     3406.00000
    26.5689     3444.00000
    26.5820     3384.00000
    26.5951     3346.00000
    26.6083     3421.00000
    26.6214     3437.00000
    26.6345     3379.00000
    26.6477     3391.00000
    26.6608     3442.00000
    26.6739     3384.00000
    26.6871     3451.00000
    26.7002     3511.00000
    26.7133     3434.00000
    26.7264     3530.00000
    26.7396     3564.00000
    26.7527     3541.00000
    26.7658     3568.00000
    26.7790     3613.00000
    26.7921     3652.00000
    26.8052     3693.00000
    26.8184     3647.00000
    26.8315     3677.00000
    26.8446     3660.00000
    26.8577     3668.00000
    26.8709     3551.00000
    26.8840     3692.00000
    26.8971     3702.00000
    26.9103     3615.00000
    26.9234     3772.00000
    26.9365     3564.00000
    26.9497     3551.00000
    26.9628     3615.00000
    26.9759     3651.00000
    26.9891     3679.00000
    27.0022     3707.00000
    27.0153     3689.00000
    27.0284     3666.00000
    27.0416     3554.00000
    27.0547     3572.00000
    27.0678     3628.00000
    27.0810     3668.00000
    27.0941     3662.00000
    27.1072     3710.00000
    27.1204     3667.00000
    27.1335     3559.00000
    27.1466     3667.00000
    27.1597     3584.00000
    27.1729     3684.00000
    27.1860     3699.00000
    27.1991     3621.00000
    27.2123     3642.00000
    27.2254     3526.00000
    27.2385     3714.00000
    27.2517     3736.00000
    27.2648     3755.00000
    27.2779     3727.00000
    27.2910     3675.00000
    27.3042     3706.00000
    27.3173     3675.00000
    27.3304     3832.00000
    27.3436     3805.00000
    27.3567     3925.00000
    27.3698     3710.00000
    27.3830     3980.00000
    27.3961     4080.00000
    27.4092     4316.00000
    27.4224     4269.00000
    27.4355     4389.00000
    27.4486     4625.00000
    27.4617     4660.00000
    27.4749     4811.00000
    27.4880     5098.00000
    27.5011     5458.00000
    27.5143     5760.00000
    27.5274     6074.00000
    27.5405     6652.00000
    27.5537     7193.00000
    27.5668     8072.00000
    27.5799     9977.00000
    27.5930    12462.00000
    27.6062    17304.00000
    27.6193    25693.00000
    27.6324    38191.00000
    27.6456    54974.00000
    27.6587    74533.00000
    27.6718    84605.00000
    27.6850    83416.00000
    27.6981    76015.00000
    27.7112    69651.00000
    27.7243    64204.00000
    27.7375    59822.00000
    27.7506    52599.00000
    27.7637    42644.00000
    27.7769    32974.00000
    27.7900    24565.00000
    27.8031    17805.00000
    27.8163    12773.00000
    27.8294     9623.00000
    27.8425     7760.00000
    27.8556     6573.00000
    27.8688     5846.00000
    27.8819     5497.00000
    27.8950     5022.00000
    27.9082     4709.00000
    27.9213     4585.00000
    27.9344     4286.00000
    27.9476     4246.00000
    27.9607     4123.00000
    27.9738     4127.00000
    27.9870     3947.00000
    28.0001     3871.00000
    28.0132     3863.00000
    28.0263     3829.00000
    28.0395     3799.00000
    28.0526     3819.00000
    28.0657     3878.00000
    28.0789     3644.00000
    28.0920     3681.00000
    28.1051     3644.00000
    28.1183     3718.00000
    28.1314     3638.00000
    28.1445     3621.00000
    28.1576     3678.00000
    28.1708     3749.00000
    28.1839     3750.00000
    28.1970     3917.00000
    28.2102     3893.00000
    28.2233     3912.00000
    28.2364     3880.00000
    28.2496     3838.00000
    28.2627     3771.00000
    28.2758     3682.00000
    28.2889     3809.00000
    28.3021     3764.00000
    28.3152     3623.00000
    28.3283     3634.00000
    28.3415     3620.00000
    28.3546     3653.00000
    28.3677     3669.00000
    28.3809     3565.00000
    28.3940     3623.00000
    28.4071     3552.00000
    28.4203     3434.00000
    28.4334     3526.00000
    28.4465     3560.00000
    28.4596     3629.00000
    28.4728     3662.00000
    28.4859     3626.00000
    28.4990     3627.00000
    28.5122     3546.00000
    28.5253     3624.00000
    28.5384     3524.00000
    28.5516     3557.00000
    28.5647     3649.00000
    28.5778     3525.00000
    28.5909     3572.00000
    28.6041     3501.00000
    28.6172     3612.00000
    28.6303     3453.00000
    28.6435     3633.00000
    28.6566     3519.00000
    28.6697     3534.00000
    28.6829     3591.00000
    28.6960     3500.00000
    28.7091     3490.00000
    28.7222     3495.00000
    28.7354     3637.00000
    28.7485     3498.00000
    28.7616     3542.00000
    28.7748     3532.00000
    28.7879     3469.00000
    28.8010     3530.00000
    28.8142     3591.00000
    28.8273     3563.00000
    28.8404     3480.00000
    28.8536     3582.00000
    28.8667     3585.00000
    28.8798     3594.00000
    28.8929     3585.00000
    28.9061     3603.00000
    28.9192     3626.00000
    28.9323     3573.00000
    28.9455     3627.00000
    28.9586     3683.00000
    28.9717     3714.00000
    28.9849     3842.00000
    28.9980     3850.00000
    29.0111     3974.00000
    29.0242     4030.00000
    29.0374     4126.00000
    29.0505     4197.00000
    29.0636     4280.00000
    29.0768     4565.00000
    29.0899     4676.00000
    29.1030     4744.00000
    29.1162     5275.00000
    29.1293     5928.00000
    29.1424     7230.00000
    29.1555     9623.00000
    29.1687    13690.00000
    29.1818    19706.00000
    29.1949    26309.00000
    29.2081    31085.00000
    29.2212    33101.00000
    29.2343    31168.00000
    29.2475    27547.00000
    29.2606    25877.00000
    29.2737    25420.00000
    29.2869    24408.00000
    29.3000    23737.00000
    29.3131    22761.00000
    29.3262    22106.00000
    29.3394    21990.00000
    29.3525    22269.00000
    29.3656    21582.00000
    29.3788    20206.00000
    29.3919    18101.00000
    29.4050    15829.00000
    29.4182    14273.00000
    29.4313    13136.00000
    29.4444    12113.00000
    29.4575    10444.00000
    29.4707     8524.00000
    29.4838     6857.00000
    29.4969     5648.00000
    29.5101     4767.00000
    29.5232     4202.00000
    29.5363     3982.00000
    29.5495     3957.00000
    29.5626     3679.00000
    29.5757     3822.00000
    29.5888     3660.00000
    29.6020     3493.00000
    29.6151     3606.00000
    29.6282     3501.00000
    29.6414     3498.00000
    29.6545     3532.00000
    29.6676     3441.00000
    29.6808     3479.00000
    29.6939     3457.00000
    29.7070     3353.00000
    29.7201     3306.00000
    29.7333     3373.00000
    29.7464     3351.00000
    29.7595     3413.00000
    29.7727     3393.00000
    29.7858     3428.00000
    29.7989     3327.00000
    29.8121     3396.00000
    29.8252     3249.00000
    29.8383     3335.00000
    29.8515     3194.00000
    29.8646     3287.00000
    29.8777     3417.00000
    29.8908     3371.00000
    29.9040     3391.00000
    29.9171     3452.00000
    29.9302     3279.00000
    29.9434     3450.00000
    29.9565     3353.00000
    29.9696     3358.00000
    29.9828     3335.00000
    29.9959     3337.00000
    30.0090     3320.00000
    30.0221     3178.00000
    30.0353     3371.00000
    30.0484     3277.00000
    30.0615     3164.00000
    30.0747     3249.00000
    30.0878     3166.00000
    30.1009     3293.00000
    30.1141     3273.00000
    30.1272     3298.00000
    30.1403     3274.00000
    30.1535     3312.00000
    30.1666     3303.00000
    30.1797     3281.00000
    30.1928     3218.00000
    30.2060     3256.00000
    30.2191     3282.00000
    30.2322     3314.00000
    30.2454     3245.00000
    30.2585     3295.00000
    30.2716     3376.00000
    30.2848     3437.00000
    30.2979     3292.00000
    30.3110     3336.00000
    30.3241     3410.00000
    30.3373     3316.00000
    30.3504     3287.00000
    30.3635     3309.00000
    30.3767     3282.00000
    30.3898     3236.00000
    30.4029     3272.00000
    30.4161     3251.00000
    30.4292     3288.00000
    30.4423     3258.00000
    30.4554     3214.00000
    30.4686     3237.00000
    30.4817     3237.00000
    30.4948     3365.00000
    30.5080     3248.00000
    30.5211     3296.00000
    30.5342     3188.00000
    30.5474     3171.00000
    30.5605     3300.00000
    30.5736     3158.00000
    30.5868     3212.00000
    30.5999     3224.00000
    30.6130     3233.00000
    30.6261     3269.00000
    30.6393     3214.00000
    30.6524     3288.00000
    30.6655     3217.00000
    30.6787     3136.00000
    30.6918     3160.00000
    30.7049     3207.00000
    30.7181     3148.00000
    30.7312     3202.00000
    30.7443     3198.00000
    30.7574     3268.00000
    30.7706     3196.00000
    30.7837     3242.00000
    30.7968     3306.00000
    30.8100     3127.00000
    30.8231     3058.00000
    30.8362     3270.00000
    30.8494     3129.00000
    30.8625     3124.00000
    30.8756     3222.00000
    30.8887     3164.00000
    30.9019     3184.00000
    30.9150     3119.00000
    30.9281     3250.00000
    30.9413     3164.00000
    30.9544     3101.00000
    30.9675     3251.00000
    30.9807     3254.00000
    30.9938     3197.00000
    31.0069     3240.00000
    31.0200     3152.00000
    31.0332     3115.00000
    31.0463     3123.00000
    31.0594     3181.00000
    31.0726     3209.00000
    31.0857     3148.00000
    31.0988     3134.00000
    31.1120     3140.00000
    31.1251     3166.00000
    31.1382     3045.00000
    31.1514     3230.00000
    31.1645     3195.00000
    31.1776     3224.00000
    31.1907     3145.00000
    31.2039     3085.00000
    31.2170     3118.00000
    31.2301     3152.00000
    31.2433     3107.00000
    31.2564     3212.00000
    31.2695     3077.00000
    31.2827     3071.00000
    31.2958     3130.00000
    31.3089     3068.00000
    31.3220     3181.00000
    31.3352     3060.00000
    31.3483     3183.00000
    31.3614     3119.00000
    31.3746     3118.00000
    31.3877     3132.00000
    31.4008     3139.00000
    31.4140     3096.00000
    31.4271     3188.00000
    31.4402     3024.00000
    31.4533     3133.00000
    31.4665     3164.00000
    31.4796     3081.00000
    31.4927     3075.00000
    31.5059     3102.00000
    31.5190     3239.00000
    31.5321     3114.00000
    31.5453     3065.00000
    31.5584     3176.00000
    31.5715     3052.00000
    31.5847     3233.00000
    31.5978     3110.00000
    31.6109     3086.00000
    31.6240     3076.00000
    31.6372     2983.00000
    31.6503     3187.00000
    31.6634     3072.00000
    31.6766     3098.00000
    31.6897     3164.00000
    31.7028     3194.00000
    31.7160     3179.00000
    31.7291     3172.00000
    31.7422     3172.00000
    31.7553     3187.00000
    31.7685     3010.00000
    31.7816     3214.00000
    31.7947     3131.00000
    31.8079     3212.00000
    31.8210     3182.00000
    31.8341     3208.00000
    31.8473     3109.00000
    31.8604     3160.00000
    31.8735     3168.00000
    31.8866     3180.00000
    31.8998     3156.00000
    31.9129     3093.00000
    31.9260     3221.00000
    31.9392     3123.00000
    31.9523     3253.00000
    31.9654     3026.00000
    31.9786     3167.00000
    31.9917     3116.00000
    32.0048     3109.00000
    32.0180     3103.00000
    32.0311     3115.00000
    32.0442     3179.00000
    32.0573     3249.00000
    32.0705     3084.00000
    32.0836     3325.00000
    32.0967     3133.00000
    32.1099     3238.00000
    32.1230     3183.00000
    32.1361     3117.00000
    32.1493     3237.00000
    32.1624     3197.00000
    32.1755     3148.00000
    32.1886     3198.00000
    32.2018     3311.00000
    32.2149     3236.00000
    32.2280     3278.00000
    32.2412     3280.00000
    32.2543     3153.00000
    32.2674     3216.00000
    32.2806     3220.00000
    32.2937     3257.00000
    32.3068     3324.00000
    32.3199     3172.00000
    32.3331     3261.00000
    32.3462     3300.00000
    32.3593     3281.00000
    32.3725     3398.00000
    32.3856     3429.00000
    32.3987     3560.00000
    32.4119     3542.00000
    32.4250     3552.00000
    32.4381     3600.00000
    32.4512     3631.00000
    32.4644     3691.00000
    32.4775     3817.00000
    32.4906     3882.00000
    32.5038     4003.00000
    32.5169     4134.00000
    32.5300     4346.00000
    32.5432     5326.00000
    32.5563     6750.00000
    32.5694     9508.00000
    32.5826    13944.00000
    32.5957    19277.00000
    32.6088    20871.00000
    32.6219    19226.00000
    32.6351    16059.00000
    32.6482    13372.00000
    32.6613    12323.00000
    32.6745    13199.00000
    32.6876    13376.00000
    32.7007    12658.00000
    32.7139    10510.00000
    32.7270     8459.00000
    32.7401     6645.00000
    32.7532     5398.00000
    32.7664     4709.00000
    32.7795     4383.00000
    32.7926     4046.00000
    32.8058     3827.00000
    32.8189     3714.00000
    32.8320     3626.00000
    32.8452     3535.00000
    32.8583     3491.00000
    32.8714     3472.00000
    32.8845     3393.00000
    32.8977     3471.00000
    32.9108     3428.00000
    32.9239     3610.00000
    32.9371     3544.00000
    32.9502     3488.00000
    32.9633     3429.00000
    32.9765     3641.00000
    32.9896     3746.00000
    33.0027     3679.00000
    33.0159     3879.00000
    33.0290     3952.00000
    33.0421     3991.00000
    33.0552     4142.00000
    33.0684     4245.00000
    33.0815     4428.00000
    33.0946     4414.00000
    33.1078     4522.00000
    33.1209     4863.00000
    33.1340     5532.00000
    33.1472     6529.00000
    33.1603     8141.00000
    33.1734    11498.00000
    33.1865    16655.00000
    33.1997    23542.00000
    33.2128    30610.00000
    33.2259    35021.00000
    33.2391    34791.00000
    33.2522    31310.00000
    33.2653    26269.00000
    33.2785    23048.00000
    33.2916    22210.00000
    33.3047    21706.00000
    33.3178    21028.00000
    33.3310    18704.00000
    33.3441    15283.00000
    33.3572    11990.00000
    33.3704     9084.00000
    33.3835     7113.00000
    33.3966     6027.00000
    33.4098     5509.00000
    33.4229     5109.00000
    33.4360     4988.00000
    33.4492     4994.00000
    33.4623     5056.00000
    33.4754     4869.00000
    33.4885     5428.00000
    33.5017     5825.00000
    33.5148     6284.00000
    33.5279     7760.00000
    33.5411     9743.00000
    33.5542    13203.00000
    33.5673    17464.00000
    33.5805    21858.00000
    33.5936    26814.00000
    33.6067    29856.00000
    33.6198    30564.00000
    33.6330    29146.00000
    33.6461    25521.00000
    33.6592    22702.00000
    33.6724    20846.00000
    33.6855    19972.00000
    33.6986    19462.00000
    33.7118    18410.00000
    33.7249    17020.00000
    33.7380    16393.00000
    33.7511    17020.00000
    33.7643    18042.00000
    33.7774    17699.00000
    33.7905    15923.00000
    33.8037    13591.00000
    33.8168    11158.00000
    33.8299    10202.00000
    33.8431    10160.00000
    33.8562    10237.00000
    33.8693    10039.00000
    33.8825     8750.00000
    33.8956     7195.00000
    33.9087     5985.00000
    33.9218     4860.00000
    33.9350     4257.00000
    33.9481     3989.00000
    33.9612     3731.00000
    33.9744     3648.00000
    33.9875     3460.00000
    34.0006     3446.00000
    34.0138     3445.00000
    34.0269     3344.00000
    34.0400     3349.00000
    34.0531     3279.00000
    34.0663     3281.00000
    34.0794     3158.00000
    34.0925     3227.00000
    34.1057     3257.00000
    34.1188     3250.00000
    34.1319     3249.00000
    34.1451     3270.00000
    34.1582     3163.00000
    34.1713     3124.00000
    34.1844     3310.00000
    34.1976     3138.00000
    34.2107     3327.00000
    34.2238     3163.00000
    34.2370     3178.00000
    34.2501     3250.00000
    34.2632     3256.00000
    34.2764     3297.00000
    34.2895     3208.00000
    34.3026     3247.00000
    34.3158     3241.00000
    34.3289     3427.00000
    34.3420     3405.00000
    34.3551     3293.00000
    34.3683     3362.00000
    34.3814     3373.00000
    34.3945     3504.00000
    34.4077     3604.00000
    34.4208     3658.00000
    34.4339     3557.00000
    34.4471     3668.00000
    34.4602     3758.00000
    34.4733     4246.00000
    34.4864     4730.00000
    34.4996     5785.00000
    34.5127     7719.00000
    34.5258    10564.00000
    34.5390    13048.00000
    34.5521    14254.00000
    34.5652    13501.00000
    34.5784    11687.00000
    34.5915    10239.00000
    34.6046     9122.00000
    34.6177     9194.00000
    34.6309     9636.00000
    34.6440     9205.00000
    34.6571     8317.00000
    34.6703     7152.00000
    34.6834     5992.00000
    34.6965     4961.00000
    34.7097     4233.00000
    34.7228     3848.00000
    34.7359     3551.00000
    34.7491     3446.00000
    34.7622     3411.00000
    34.7753     3332.00000
    34.7884     3254.00000
    34.8016     3341.00000
    34.8147     3304.00000
    34.8278     3319.00000
    34.8410     3344.00000
    34.8541     3509.00000
    34.8672     3560.00000
    34.8804     3496.00000
    34.8935     3527.00000
    34.9066     3385.00000
    34.9197     3219.00000
    34.9329     3249.00000
    34.9460     3222.00000
    34.9591     3357.00000
    34.9723     3319.00000
    34.9854     3315.00000
    34.9985     3104.00000
    35.0117     3127.00000
    35.0248     3069.00000
    35.0379     3148.00000
    35.0510     3054.00000
    35.0642     3006.00000
    35.0773     2960.00000
    35.0904     2943.00000
    35.1036     3026.00000
    35.1167     2940.00000
    35.1298     3052.00000
    35.1430     2942.00000
    35.1561     3045.00000
    35.1692     2997.00000
    35.1824     2916.00000
    35.1955     2944.00000
    35.2086     2993.00000
    35.2217     2927.00000
    35.2349     2876.00000
    35.2480     3054.00000
    35.2611     2961.00000
    35.2743     2943.00000
    35.2874     2876.00000
    35.3005     2970.00000
    35.3137     3111.00000
    35.3268     2953.00000
    35.3399     2952.00000
    35.3530     2984.00000
    35.3662     2950.00000
    35.3793     2953.00000
    35.3924     3000.00000
    35.4056     2892.00000
    35.4187     2892.00000
    35.4318     3011.00000
    35.4450     2940.00000
    35.4581     2927.00000
    35.4712     2871.00000
    35.4843     2956.00000
    35.4975     3031.00000
    35.5106     2913.00000
    35.5237     2907.00000
    35.5369     3060.00000
    35.5500     3033.00000
    35.5631     2952.00000
    35.5763     3032.00000
    35.5894     3013.00000
    35.6025     2972.00000
    35.6156     2914.00000
    35.6288     2952.00000
    35.6419     2994.00000
    35.6550     3018.00000
    35.6682     2912.00000
    35.6813     2908.00000
    35.6944     2969.00000
    35.7076     2946.00000
    35.7207     2906.00000
    35.7338     2912.00000
    35.7470     2955.00000
    35.7601     2931.00000
    35.7732     3016.00000
    35.7863     2897.00000
    35.7995     2961.00000
    35.8126     2894.00000
    35.8257     2982.00000
    35.8389     2969.00000
    35.8520     2932.00000
    35.8651     2994.00000
    35.8783     2955.00000
    35.8914     2967.00000
    35.9045     2967.00000
    35.9176     2965.00000
    35.9308     2952.00000
    35.9439     2878.00000
    35.9570     2945.00000
    35.9702     3088.00000
    35.9833     2919.00000
    35.9964     2863.00000
    36.0096     2949.00000
    36.0227     2911.00000
    36.0358     2954.00000
    36.0489     3016.00000
    36.0621     2924.00000
    36.0752     2858.00000
    36.0883     2940.00000
    36.1015     2965.00000
    36.1146     2986.00000
    36.1277     2938.00000
    36.1409     2987.00000
    36.1540     2958.00000
    36.1671     2932.00000
    36.1802     2907.00000
    36.1934     3022.00000
    36.2065     2954.00000
    36.2196     2908.00000
    36.2328     2975.00000
    36.2459     3004.00000
    36.2590     3000.00000
    36.2722     2962.00000
    36.2853     3031.00000
    36.2984     2907.00000
    36.3116     2935.00000
    36.3247     2930.00000
    36.3378     2997.00000
    36.3509     2890.00000
    36.3641     2830.00000
    36.3772     2864.00000
    36.3903     2978.00000
    36.4035     2886.00000
    36.4166     3087.00000
    36.4297     2997.00000
    36.4429     2984.00000
    36.4560     3061.00000
    36.4691     2985.00000
    36.4822     2991.00000
    36.4954     3083.00000
    36.5085     3066.00000
    36.5216     3057.00000
    36.5348     3041.00000
    36.5479     3161.00000
    36.5610     3211.00000
    36.5742     3475.00000
    36.5873     3446.00000
    36.6004     3743.00000
    36.6135     4095.00000
    36.6267     5239.00000
    36.6398     6653.00000
    36.6529     8288.00000
    36.6661     9016.00000
    36.6792     9219.00000
    36.6923     8436.00000
    36.7055     6907.00000
    36.7186     6092.00000
    36.7317     5853.00000
    36.7449     6016.00000
    36.7580     6315.00000
    36.7711     6279.00000
    36.7842     5886.00000
    36.7974     5059.00000
    36.8105     4247.00000
    36.8236     3782.00000
    36.8368     3555.00000
    36.8499     3362.00000
    36.8630     3252.00000
    36.8762     3190.00000
    36.8893     3135.00000
    36.9024     3088.00000
    36.9155     3079.00000
    36.9287     2925.00000
    36.9418     3084.00000
    36.9549     3029.00000
    36.9681     3006.00000
    36.9812     3040.00000
    36.9943     2929.00000
    37.0075     3108.00000
    37.0206     3020.00000
    37.0337     3120.00000
    37.0468     3142.00000
    37.0600     3120.00000
    37.0731     3145.00000
    37.0862     3230.00000
    37.0994     3248.00000
    37.1125     3198.00000
    37.1256     3351.00000
    37.1388     3356.00000
    37.1519     3521.00000
    37.1650     3982.00000
    37.1782     4470.00000
    37.1913     5346.00000
    37.2044     6662.00000
    37.2175     8051.00000
    37.2307     9400.00000
    37.2438    10069.00000
    37.2569    10154.00000
    37.2701     9137.00000
    37.2832     8267.00000
    37.2963     7589.00000
    37.3095     7134.00000
    37.3226     6719.00000
    37.3357     6760.00000
    37.3488     6762.00000
    37.3620     6235.00000
    37.3751     5692.00000
    37.3882     4792.00000
    37.4014     4097.00000
    37.4145     3527.00000
    37.4276     3391.00000
    37.4408     3270.00000
    37.4539     3121.00000
    37.4670     3209.00000
    37.4801     3209.00000
    37.4933     3103.00000
    37.5064     3280.00000
    37.5195     3344.00000
    37.5327     3626.00000
    37.5458     3572.00000
    37.5589     3543.00000
    37.5721     3454.00000
    37.5852     3450.00000
    37.5983     3295.00000
    37.6115     3145.00000
    37.6246     3335.00000
    37.6377     3369.00000
    37.6508     3411.00000
    37.6640     3262.00000
    37.6771     3088.00000
    37.6902     3029.00000
    37.7034     2986.00000
    37.7165     2917.00000
    37.7296     2980.00000
    37.7428     2847.00000
    37.7559     2876.00000
    37.7690     2845.00000
    37.7821     2888.00000
    37.7953     2898.00000
    37.8084     2900.00000
    37.8215     2775.00000
    37.8347     2865.00000
    37.8478     2750.00000
    37.8609     2844.00000
    37.8741     2784.00000
    37.8872     2770.00000
    37.9003     2790.00000
    37.9134     2805.00000
    37.9266     2748.00000
    37.9397     2832.00000
    37.9528     2849.00000
    37.9660     2736.00000
    37.9791     2757.00000
    37.9922     2770.00000
    38.0054     2761.00000
    38.0185     2692.00000
    38.0316     2762.00000
    38.0448     2744.00000
    38.0579     2752.00000
    38.0710     2770.00000
    38.0841     2707.00000
    38.0973     2814.00000
    38.1104     2832.00000
    38.1235     2763.00000
    38.1367     2962.00000
    38.1498     2740.00000
    38.1629     2778.00000
    38.1761     2748.00000
    38.1892     2713.00000
    38.2023     2797.00000
    38.2154     2707.00000
    38.2286     2779.00000
    38.2417     2776.00000
    38.2548     2820.00000
    38.2680     2754.00000
    38.2811     2666.00000
    38.2942     2697.00000
    38.3074     2674.00000
    38.3205     2818.00000
    38.3336     2795.00000
    38.3467     2729.00000
    38.3599     2827.00000
    38.3730     2712.00000
    38.3861     2710.00000
    38.3993     2746.00000
    38.4124     2786.00000
    38.4255     2774.00000
    38.4387     2747.00000
    38.4518     2755.00000
    38.4649     2712.00000
    38.4781     2816.00000
    38.4912     2641.00000
    38.5043     2830.00000
    38.5174     2788.00000
    38.5306     2725.00000
    38.5437     2773.00000
    38.5568     2788.00000
    38.5700     2811.00000
    38.5831     2823.00000
    38.5962     2740.00000
    38.6094     2740.00000
    38.6225     2759.00000
    38.6356     2718.00000
    38.6487     2760.00000
    38.6619     2720.00000
    38.6750     2655.00000
    38.6881     2756.00000
    38.7013     2732.00000
    38.7144     2764.00000
    38.7275     2711.00000
    38.7407     2733.00000
    38.7538     2757.00000
    38.7669     2642.00000
    38.7800     2710.00000
    38.7932     2785.00000
    38.8063     2719.00000
    38.8194     2809.00000
    38.8326     2880.00000
    38.8457     2771.00000
    38.8588     2900.00000
    38.8720     2752.00000
    38.8851     2727.00000
    38.8982     2691.00000
    38.9114     2717.00000
    38.9245     2731.00000
    38.9376     2819.00000
    38.9507     2747.00000
    38.9639     2787.00000
    38.9770     2819.00000
    38.9901     2886.00000
    39.0033     2837.00000
    39.0164     2832.00000
    39.0295     2785.00000
    39.0427     2771.00000
    39.0558     2725.00000
    39.0689     2703.00000
    39.0820     2824.00000
    39.0952     2860.00000
    39.1083     2718.00000
    39.1214     2609.00000
    39.1346     2753.00000
    39.1477     2793.00000
    39.1608     2689.00000
    39.1740     2811.00000
    39.1871     2768.00000
    39.2002     2749.00000
    39.2133     2751.00000
    39.2265     2665.00000
    39.2396     2675.00000
    39.2527     2709.00000
    39.2659     2797.00000
    39.2790     2738.00000
    39.2921     2804.00000
    39.3053     2698.00000
    39.3184     2715.00000
    39.3315     2672.00000
    39.3446     2822.00000
    39.3578     2810.00000
    39.3709     2749.00000
    39.3840     2824.00000
    39.3972     2792.00000
    39.4103     2739.00000
    39.4234     2926.00000
    39.4366     2855.00000
    39.4497     2861.00000
    39.4628     2889.00000
    39.4760     2937.00000
    39.4891     2986.00000
    39.5022     2904.00000
    39.5153     3204.00000
    39.5285     3259.00000
    39.5416     3538.00000
    39.5547     3766.00000
    39.5679     4046.00000
    39.5810     4402.00000
    39.5941     4597.00000
    39.6073     4603.00000
    39.6204     4609.00000
    39.6335     4316.00000
    39.6466     4137.00000
    39.6598     4026.00000
    39.6729     3935.00000
    39.6860     3924.00000
    39.6992     3861.00000
    39.7123     3844.00000
    39.7254     3776.00000
    39.7386     3595.00000
    39.7517     3489.00000
    39.7648     3418.00000
    39.7779     3389.00000
    39.7911     3389.00000
    39.8042     3447.00000
    39.8173     3838.00000
    39.8305     4385.00000
    39.8436     5182.00000
    39.8567     6197.00000
    39.8699     7465.00000
    39.8830     8051.00000
    39.8961     7513.00000
    39.9092     6856.00000
    39.9224     6074.00000
    39.9355     5486.00000
    39.9486     5288.00000
    39.9618     5510.00000
    39.9749     5623.00000
    39.9880     5757.00000
    40.0012     5258.00000
    40.0143     4959.00000
    40.0274     4283.00000
    40.0406     3790.00000
    40.0537     3616.00000
    40.0668     3412.00000
    40.0799     3285.00000
    40.0931     3184.00000
    40.1062     3117.00000
    40.1193     3252.00000
    40.1325     3137.00000
    40.1456     3166.00000
    40.1587     3282.00000
    40.1719     3243.00000
    40.1850     3169.00000
    40.1981     3385.00000
    40.2112     3522.00000
    40.2244     3900.00000
    40.2375     4366.00000
    40.2506     5271.00000
    40.2638     6698.00000
    40.2769     8538.00000
    40.2900    10066.00000
    40.3032    10616.00000
    40.3163     9735.00000
    40.3294     8013.00000
    40.3425     6680.00000
    40.3557     5896.00000
    40.3688     5973.00000
    40.3819     6257.00000
    40.3951     6763.00000
    40.4082     6839.00000
    40.4213     6236.00000
    40.4345     5484.00000
    40.4476     4636.00000
    40.4607     4123.00000
    40.4739     3614.00000
    40.4870     3383.00000
    40.5001     3153.00000
    40.5132     3249.00000
    40.5264     3214.00000
    40.5395     3134.00000
    40.5526     3193.00000
    40.5658     3005.00000
    40.5789     3133.00000
    40.5920     3109.00000
    40.6052     3041.00000
    40.6183     3122.00000
    40.6314     3043.00000
    40.6445     3104.00000
    40.6577     3295.00000
    40.6708     3102.00000
    40.6839     3287.00000
    40.6971     3304.00000
    40.7102     3462.00000
    40.7233     3570.00000
    40.7365     3733.00000
    40.7496     4154.00000
    40.7627     4778.00000
    40.7758     5724.00000
    40.7890     6658.00000
    40.8021     8166.00000
    40.8152     9818.00000
    40.8284    11007.00000
    40.8415    11568.00000
    40.8546    10657.00000
    40.8678     9312.00000
    40.8809     8200.00000
    40.8940     7569.00000
    40.9072     7492.00000
    40.9203     7898.00000
    40.9334     8516.00000
    40.9465     8857.00000
    40.9597     9307.00000
    40.9728    10079.00000
    40.9859    11066.00000
    40.9991    12624.00000
    41.0122    13315.00000
    41.0253    13067.00000
    41.0385    12204.00000
    41.0516    10818.00000
    41.0647    10442.00000
    41.0778    11118.00000
    41.0910    12789.00000
    41.1041    15241.00000
    41.1172    16588.00000
    41.1304    16676.00000
    41.1435    14499.00000
    41.1566    12028.00000
    41.1698     9865.00000
    41.1829     8270.00000
    41.1960     7716.00000
    41.2091     7860.00000
    41.2223     8030.00000
    41.2354     7926.00000
    41.2485     7184.00000
    41.2617     6443.00000
    41.2748     5196.00000
    41.2879     4395.00000
    41.3011     3961.00000
    41.3142     3486.00000
    41.3273     3294.00000
    41.3405     3236.00000
    41.3536     3122.00000
    41.3667     3036.00000
    41.3798     3049.00000
    41.3930     2905.00000
    41.4061     2951.00000
    41.4192     2898.00000
    41.4324     2859.00000
    41.4455     2840.00000
    41.4586     2794.00000
    41.4718     2880.00000
    41.4849     2843.00000
    41.4980     2760.00000
    41.5111     2832.00000
    41.5243     2741.00000
    41.5374     2751.00000
    41.5505     2757.00000
    41.5637     2817.00000
    41.5768     2794.00000
    41.5899     2665.00000
    41.6031     2780.00000
    41.6162     2776.00000
    41.6293     2715.00000
    41.6424     2631.00000
    41.6556     2747.00000
    41.6687     2866.00000
    41.6818     2783.00000
    41.6950     2717.00000
    41.7081     2782.00000
    41.7212     2720.00000
    41.7344     2698.00000
    41.7475     2724.00000
    41.7606     2814.00000
    41.7738     2766.00000
    41.7869     2714.00000
    41.8000     2679.00000
    41.8131     2812.00000
    41.8263     2781.00000
    41.8394     2686.00000
    41.8525     2747.00000
    41.8657     2759.00000
    41.8788     2696.00000
    41.8919     2749.00000
    41.9051     2692.00000
    41.9182     2661.00000
    41.9313     2694.00000
    41.9444     2682.00000
    41.9576     2717.00000
    41.9707     2759.00000
    41.9838     2751.00000
    41.9970     2712.00000
    42.0101     2706.00000
    42.0232     2794.00000
    42.0364     2770.00000
    42.0495     2734.00000
    42.0626     2723.00000
    42.0757     2707.00000
    42.0889     2691.00000
    42.1020     2657.00000
    42.1151     2718.00000
    42.1283     2757.00000
    42.1414     2734.00000
    42.1545     2551.00000
    42.1677     2684.00000
    42.1808     2702.00000
    42.1939     2737.00000
    42.2071     2741.00000
    42.2202     2706.00000
    42.2333     2814.00000
    42.2464     2661.00000
    42.2596     2645.00000
    42.2727     2625.00000
    42.2858     2670.00000
    42.2990     2724.00000
    42.3121     2651.00000
    42.3252     2615.00000
    42.3384     2706.00000
    42.3515     2696.00000
    42.3646     2668.00000
    42.3777     2890.00000
    42.3909     2681.00000
    42.4040     2646.00000
    42.4171     2724.00000
    42.4303     2603.00000
    42.4434     2729.00000
    42.4565     2561.00000
    42.4697     2652.00000
    42.4828     2757.00000
    42.4959     2724.00000
    42.5090     2607.00000
    42.5222     2605.00000
    42.5353     2637.00000
    42.5484     2696.00000
    42.5616     2681.00000
    42.5747     2655.00000
    42.5878     2551.00000
    42.6010     2632.00000
    42.6141     2614.00000
    42.6272     2665.00000
    42.6404     2627.00000
    42.6535     2644.00000
    42.6666     2650.00000
    42.6797     2724.00000
    42.6929     2626.00000
    42.7060     2719.00000
    42.7191     2704.00000
    42.7323     2670.00000
    42.7454     2754.00000
    42.7585     2755.00000
    42.7717     2706.00000
    42.7848     2762.00000
    42.7979     2744.00000
    42.8110     2799.00000
    42.8242     2682.00000
    42.8373     2831.00000
    42.8504     2727.00000
    42.8636     2724.00000
    42.8767     2791.00000
    42.8898     2744.00000
    42.9030     2546.00000
    42.9161     2662.00000
    42.9292     2635.00000
    42.9423     2691.00000
    42.9555     2643.00000
    42.9686     2677.00000
    42.9817     2658.00000
    42.9949     2691.00000
    43.0080     2659.00000
    43.0211     2661.00000
    43.0343     2712.00000
    43.0474     2612.00000
    43.0605     2595.00000
    43.0736     2707.00000
    43.0868     2681.00000
    43.0999     2666.00000
    43.1130     2696.00000
    43.1262     2770.00000
    43.1393     2711.00000
    43.1524     2764.00000
    43.1656     2635.00000
    43.1787     2632.00000
    43.1918     2757.00000
    43.2050     2753.00000
    43.2181     2739.00000
    43.2312     2825.00000
    43.2443     2885.00000
    43.2575     3007.00000
    43.2706     3153.00000
    43.2837     3308.00000
    43.2969     3283.00000
    43.3100     3271.00000
    43.3231     3199.00000
    43.3363     3134.00000
    43.3494     2965.00000
    43.3625     3032.00000
    43.3756     3016.00000
    43.3888     3054.00000
    43.4019     3077.00000
    43.4150     3001.00000
    43.4282     3005.00000
    43.4413     2975.00000
    43.4544     2829.00000
    43.4676     2734.00000
    43.4807     2686.00000
    43.4938     2723.00000
    43.5069     2701.00000
    43.5201     2743.00000
    43.5332     2689.00000
    43.5463     2708.00000
    43.5595     2654.00000
    43.5726     2722.00000
    43.5857     2640.00000
    43.5989     2680.00000
    43.6120     2799.00000
    43.6251     2623.00000
    43.6383     2662.00000
    43.6514     2666.00000
    43.6645     2738.00000
    43.6776     2711.00000
    43.6908     2701.00000
    43.7039     2746.00000
    43.7170     2705.00000
    43.7302     2782.00000
    43.7433     2711.00000
    43.7564     2644.00000
    43.7696     2637.00000
    43.7827     2743.00000
    43.7958     2619.00000
    43.8089     2729.00000
    43.8221     2548.00000
    43.8352     2654.00000
    43.8483     2671.00000
    43.8615     2739.00000
    43.8746     2708.00000
    43.8877     2598.00000
    43.9009     2664.00000
    43.9140     2675.00000
    43.9271     2690.00000
    43.9402     2741.00000
    43.9534     2708.00000
    43.9665     2718.00000
    43.9796     2764.00000
    43.9928     2777.00000
    44.0059     2878.00000
    44.0190     2971.00000
    44.0322     3008.00000
    44.0453     3269.00000
    44.0584     3471.00000
    44.0715     3786.00000
    44.0847     4056.00000
    44.0978     4129.00000
    44.1109     4225.00000
    44.1241     3797.00000
    44.1372     3575.00000
    44.1503     3382.00000
    44.1635     3315.00000
    44.1766     3409.00000
    44.1897     3523.00000
    44.2029     3540.00000
    44.2160     3553.00000
    44.2291     3427.00000
    44.2422     3357.00000
    44.2554     3175.00000
    44.2685     3175.00000
    44.2816     3135.00000
    44.2948     3231.00000
    44.3079     3190.00000
    44.3210     3416.00000
    44.3342     3791.00000
    44.3473     4186.00000
    44.3604     4642.00000
    44.3735     5278.00000
    44.3867     5612.00000
    44.3998     5323.00000
    44.4129     5249.00000
    44.4261     4811.00000
    44.4392     4327.00000
    44.4523     4191.00000
    44.4655     4095.00000
    44.4786     4053.00000
    44.4917     4180.00000
    44.5048     4144.00000
    44.5180     4162.00000
    44.5311     3952.00000
    44.5442     3708.00000
    44.5574     3456.00000
    44.5705     3149.00000
    44.5836     2939.00000
    44.5968     2907.00000
    44.6099     2826.00000
    44.6230     2826.00000
    44.6362     2820.00000
    44.6493     2838.00000
    44.6624     2730.00000
    44.6755     2627.00000
    44.6887     2621.00000
    44.7018     2758.00000
    44.7149     2786.00000
    44.7281     2756.00000
    44.7412     2730.00000
    44.7543     2689.00000
    44.7675     2770.00000
    44.7806     2852.00000
    44.7937     2641.00000
    44.8068     2749.00000
    44.8200     2688.00000
    44.8331     2733.00000
    44.8462     2692.00000
    44.8594     2621.00000
    44.8725     2757.00000
    44.8856     2694.00000
    44.8988     2727.00000
    44.9119     2631.00000
    44.9250     2613.00000
    44.9381     2670.00000
    44.9513     2774.00000
    44.9644     2712.00000
    44.9775     2607.00000
    44.9907     2620.00000
    45.0038     2730.00000
    45.0169     2747.00000
    45.0301     2677.00000
    45.0432     2577.00000
    45.0563     2713.00000
    45.0695     2702.00000
    45.0826     2606.00000
    45.0957     2694.00000
    45.1088     2672.00000
    45.1220     2684.00000
    45.1351     2651.00000
    45.1482     2721.00000
    45.1614     2512.00000
    45.1745     2649.00000
    45.1876     2779.00000
    45.2008     2846.00000
    45.2139     2675.00000
    45.2270     2708.00000
    45.2401     2758.00000
    45.2533     2789.00000
    45.2664     2813.00000
    45.2795     2724.00000
    45.2927     2810.00000
    45.3058     2759.00000
    45.3189     2792.00000
    45.3321     2752.00000
    45.3452     2841.00000
    45.3583     2830.00000
    45.3714     2806.00000
    45.3846     2897.00000
    45.3977     2938.00000
    45.4108     2944.00000
    45.4240     2906.00000
    45.4371     2992.00000
    45.4502     3022.00000
    45.4634     3153.00000
    45.4765     3289.00000
    45.4896     3353.00000
    45.5028     3651.00000
    45.5159     4157.00000
    45.5290     5184.00000
    45.5421     6652.00000
    45.5553     8656.00000
    45.5684    10691.00000
    45.5815    11249.00000
    45.5947    10338.00000
    45.6078     8653.00000
    45.6209     6569.00000
    45.6341     5422.00000
    45.6472     4906.00000
    45.6603     5332.00000
    45.6734     6013.00000
    45.6866     6828.00000
    45.6997     7006.00000
    45.7128     6903.00000
    45.7260     5766.00000
    45.7391     4773.00000
    45.7522     3858.00000
    45.7654     3375.00000
    45.7785     3209.00000
    45.7916     3113.00000
    45.8047     3004.00000
    45.8179     2963.00000
    45.8310     2965.00000
    45.8441     2803.00000
    45.8573     2828.00000
    45.8704     2837.00000
    45.8835     2664.00000
    45.8967     2848.00000
    45.9098     2836.00000
    45.9229     2785.00000
    45.9361     2838.00000
    45.9492     2794.00000
    45.9623     2737.00000
    45.9754     2807.00000
    45.9886     2817.00000
    46.0017     2765.00000
    46.0148     2727.00000
    46.0280     2724.00000
    46.0411     2801.00000
    46.0542     2872.00000
    46.0674     2884.00000
    46.0805     2846.00000
    46.0936     2768.00000
    46.1067     2818.00000
    46.1199     2850.00000
    46.1330     2902.00000
    46.1461     2826.00000
    46.1593     2801.00000
    46.1724     2904.00000
    46.1855     2870.00000
    46.1987     2787.00000
    46.2118     3077.00000
    46.2249     3143.00000
    46.2380     3357.00000
    46.2512     3806.00000
    46.2643     4309.00000
    46.2774     5214.00000
    46.2906     5950.00000
    46.3037     6876.00000
    46.3168     7058.00000
    46.3300     6374.00000
    46.3431     5355.00000
    46.3562     4517.00000
    46.3694     4146.00000
    46.3825     4116.00000
    46.3956     4126.00000
    46.4087     4320.00000
    46.4219     4854.00000
    46.4350     5085.00000
    46.4481     4878.00000
    46.4613     4367.00000
    46.4744     3778.00000
    46.4875     3432.00000
    46.5007     3234.00000
    46.5138     3130.00000
    46.5269     2984.00000
    46.5400     2886.00000
    46.5532     2845.00000
    46.5663     2901.00000
    46.5794     2905.00000
    46.5926     2800.00000
    46.6057     2889.00000
    46.6188     2938.00000
    46.6320     2849.00000
    46.6451     2761.00000
    46.6582     2877.00000
    46.6713     2973.00000
    46.6845     2840.00000
    46.6976     2918.00000
    46.7107     2902.00000
    46.7239     2966.00000
    46.7370     2863.00000
    46.7501     2907.00000
    46.7633     2858.00000
    46.7764     2989.00000
    46.7895     2893.00000
    46.8027     2968.00000
    46.8158     3064.00000
    46.8289     3080.00000
    46.8420     3027.00000
    46.8552     3249.00000
    46.8683     3178.00000
    46.8814     3402.00000
    46.8946     3701.00000
    46.9077     4161.00000
    46.9208     4698.00000
    46.9340     5679.00000
    46.9471     6526.00000
    46.9602     7493.00000
    46.9733     8193.00000
    46.9865     8594.00000
    46.9996     8547.00000
    47.0127     7677.00000
    47.0259     6339.00000
    47.0390     5634.00000
    47.0521     5282.00000
    47.0653     5283.00000
    47.0784     5353.00000
    47.0915     5521.00000
    47.1046     5878.00000
    47.1178     5849.00000
    47.1309     5519.00000
    47.1440     4709.00000
    47.1572     4191.00000
    47.1703     3674.00000
    47.1834     3528.00000
    47.1966     3224.00000
    47.2097     3244.00000
    47.2228     3123.00000
    47.2359     2977.00000
    47.2491     3037.00000
    47.2622     3041.00000
    47.2753     3090.00000
    47.2885     3004.00000
    47.3016     3129.00000
    47.3147     3134.00000
    47.3279     3033.00000
    47.3410     3035.00000
    47.3541     3052.00000
    47.3673     3092.00000
    47.3804     3158.00000
    47.3935     3148.00000
    47.4066     3376.00000
    47.4198     3440.00000
    47.4329     3384.00000
    47.4460     3325.00000
    47.4592     3393.00000
    47.4723     3625.00000
    47.4854     3608.00000
    47.4986     3659.00000
    47.5117     3685.00000
    47.5248     4003.00000
    47.5379     4264.00000
    47.5511     4565.00000
    47.5642     5310.00000
    47.5773     5993.00000
    47.5905     7085.00000
    47.6036     9129.00000
    47.6167    11688.00000
    47.6299    15019.00000
    47.6430    17868.00000
    47.6561    19935.00000
    47.6692    19939.00000
    47.6824    17801.00000
    47.6955    14803.00000
    47.7086    12189.00000
    47.7218    10654.00000
    47.7349    10040.00000
    47.7480    10352.00000
    47.7612    11202.00000
    47.7743    12036.00000
    47.7874    12160.00000
    47.8005    11339.00000
    47.8137     9801.00000
    47.8268     8455.00000
    47.8399     6856.00000
    47.8531     5756.00000
    47.8662     5030.00000
    47.8793     4415.00000
    47.8925     3991.00000
    47.9056     3686.00000
    47.9187     3628.00000
    47.9319     3353.00000
    47.9450     3257.00000
    47.9581     3343.00000
    47.9712     3276.00000
    47.9844     3217.00000
    47.9975     3202.00000
    48.0106     3243.00000
    48.0238     3245.00000
    48.0369     3237.00000
    48.0500     3232.00000
    48.0632     3200.00000
    48.0763     3209.00000
    48.0894     3248.00000
    48.1025     3293.00000
    48.1157     3291.00000
    48.1288     3264.00000
    48.1419     3325.00000
    48.1551     3355.00000
    48.1682     3554.00000
    48.1813     3683.00000
    48.1945     3934.00000
    48.2076     4456.00000
    48.2207     5434.00000
    48.2338     6795.00000
    48.2470     8495.00000
    48.2601    10700.00000
    48.2732    12160.00000
    48.2864    12702.00000
    48.2995    12719.00000
    48.3126    13182.00000
    48.3258    13363.00000
    48.3389    12981.00000
    48.3520    12149.00000
    48.3652    11306.00000
    48.3783    10635.00000
    48.3914     9996.00000
    48.4045     9314.00000
    48.4177     8777.00000
    48.4308     8446.00000
    48.4439     8383.00000
    48.4571     8394.00000
    48.4702     7819.00000
    48.4833     7223.00000
    48.4965     6513.00000
    48.5096     5647.00000
    48.5227     4938.00000
    48.5358     4433.00000
    48.5490     4166.00000
    48.5621     4271.00000
    48.5752     4511.00000
    48.5884     4817.00000
    48.6015     5769.00000
    48.6146     7075.00000
    48.6278     8783.00000
    48.6409    11124.00000
    48.6540    13035.00000
    48.6671    13137.00000
    48.6803    12204.00000
    48.6934    10268.00000
    48.7065     8081.00000
    48.7197     6800.00000
    48.7328     6349.00000
    48.7459     6477.00000
    48.7591     6930.00000
    48.7722     7839.00000
    48.7853     8252.00000
    48.7985     8147.00000
    48.8116     7399.00000
    48.8247     6203.00000
    48.8378     5270.00000
    48.8510     4514.00000
    48.8641     4045.00000
    48.8772     3615.00000
    48.8904     3422.00000
    48.9035     3284.00000
    48.9166     3299.00000
    48.9298     3092.00000
    48.9429     3085.00000
    48.9560     3062.00000
    48.9691     3095.00000
    48.9823     2967.00000
    48.9954     3053.00000
    49.0085     3034.00000
    49.0217     3044.00000
    49.0348     2929.00000
    49.0479     2908.00000
    49.0611     2974.00000
    49.0742     2885.00000
    49.0873     2966.00000
    49.1004     2900.00000
    49.1136     2948.00000
    49.1267     2907.00000
    49.1398     2876.00000
    49.1530     2880.00000
    49.1661     2828.00000
    49.1792     2822.00000
    49.1924     2921.00000
    49.2055     2910.00000
    49.2186     2946.00000
    49.2318     2906.00000
    49.2449     2867.00000
    49.2580     2905.00000
    49.2711     2921.00000
    49.2843     3121.00000
    49.2974     3067.00000
    49.3105     3155.00000
    49.3237     3364.00000
    49.3368     3340.00000
    49.3499     3517.00000
    49.3631     3553.00000
    49.3762     3464.00000
    49.3893     3370.00000
    49.4024     3208.00000
    49.4156     3075.00000
    49.4287     3193.00000
    49.4418     3173.00000
    49.4550     3284.00000
    49.4681     3298.00000
    49.4812     3488.00000
    49.4944     3430.00000
    49.5075     3586.00000
    49.5206     3551.00000
    49.5337     3658.00000
    49.5469     3550.00000
    49.5600     3501.00000
    49.5731     3501.00000
    49.5863     3501.00000
    49.5994     3477.00000
    49.6125     3523.00000
    49.6257     3403.00000
    49.6388     3430.00000
    49.6519     3566.00000
    49.6651     3562.00000
    49.6782     3635.00000
    49.6913     3698.00000
    49.7044     3634.00000
    49.7176     3567.00000
    49.7307     3720.00000
    49.7438     3930.00000
    49.7570     3915.00000
    49.7701     4288.00000
    49.7832     4711.00000
    49.7964     5379.00000
    49.8095     6525.00000
    49.8226     8231.00000
    49.8357    10787.00000
    49.8489    13773.00000
    49.8620    16854.00000
    49.8751    18436.00000
    49.8883    18350.00000
    49.9014    16921.00000
    49.9145    14422.00000
    49.9277    11991.00000
    49.9408    10380.00000
    49.9539     9503.00000
    49.9670     9830.00000
    49.9802    10318.00000
    49.9933    11192.00000
    50.0064    11887.00000
    50.0196    11579.00000
    50.0327    10406.00000
    50.0458     9148.00000
    50.0590     7701.00000
    50.0721     6566.00000
    50.0852     5571.00000
    50.0984     5124.00000
    50.1115     4570.00000
    50.1246     4259.00000
    50.1377     4163.00000
    50.1509     3900.00000
    50.1640     3685.00000
    50.1771     3779.00000
    50.1903     3874.00000
    50.2034     3857.00000
    50.2165     4042.00000
    50.2297     4328.00000
    50.2428     4501.00000
    50.2559     5124.00000
    50.2690     5886.00000
    50.2822     6987.00000
    50.2953     8271.00000
    50.3084     9771.00000
    50.3216    10889.00000
    50.3347    11618.00000
    50.3478    11567.00000
    50.3610    10273.00000
    50.3741     8590.00000
    50.3872     7502.00000
    50.4003     6710.00000
    50.4135     6548.00000
    50.4266     6595.00000
    50.4397     6944.00000
    50.4529     7347.00000
    50.4660     7438.00000
    50.4791     7271.00000
    50.4923     6712.00000
    50.5054     5862.00000
    50.5185     5099.00000
    50.5317     4421.00000
    50.5448     4134.00000
    50.5579     3715.00000
    50.5710     3458.00000
    50.5842     3301.00000
    50.5973     3301.00000
    50.6104     3210.00000
    50.6236     3211.00000
    50.6367     3194.00000
    50.6498     2996.00000
    50.6630     3043.00000
    50.6761     3077.00000
    50.6892     2995.00000
    50.7023     2883.00000
    50.7155     2968.00000
    50.7286     2894.00000
    50.7417     2955.00000
    50.7549     2900.00000
    50.7680     2873.00000
    50.7811     2944.00000
    50.7943     2873.00000
    50.8074     2823.00000
    50.8205     2911.00000
    50.8336     2843.00000
    50.8468     2790.00000
    50.8599     2784.00000
    50.8730     2866.00000
    50.8862     2844.00000
    50.8993     2833.00000
    50.9124     2826.00000
    50.9256     2925.00000
    50.9387     2754.00000
    50.9518     2930.00000
    50.9649     2941.00000
    50.9781     2968.00000
    50.9912     2967.00000
    51.0043     3001.00000
    51.0175     2871.00000
    51.0306     2963.00000
    51.0437     3002.00000
    51.0569     2906.00000
    51.0700     3091.00000
    51.0831     3099.00000
    51.0963     3326.00000
    51.1094     3326.00000
    51.1225     3438.00000
    51.1356     3797.00000
    51.1488     4397.00000
    51.1619     5057.00000
    51.1750     6465.00000
    51.1882     7909.00000
    51.2013     8840.00000
    51.2144     8711.00000
    51.2276     8169.00000
    51.2407     6912.00000
    51.2538     5768.00000
    51.2669     4934.00000
    51.2801     4701.00000
    51.2932     4651.00000
    51.3063     5107.00000
    51.3195     5513.00000
    51.3326     5976.00000
    51.3457     6144.00000
    51.3589     5755.00000
    51.3720     5204.00000
    51.3851     4656.00000
    51.3982     4168.00000
    51.4114     3913.00000
    51.4245     3904.00000
    51.4376     3872.00000
    51.4508     3721.00000
    51.4639     3658.00000
    51.4770     3314.00000
    51.4902     3336.00000
    51.5033     3173.00000
    51.5164     3150.00000
    51.5296     3160.00000
    51.5427     3039.00000
    51.5558     3149.00000
    51.5689     3196.00000
    51.5821     3116.00000
    51.5952     3107.00000
    51.6083     3038.00000
    51.6215     3117.00000
    51.6346     2878.00000
    51.6477     2969.00000
    51.6609     2875.00000
    51.6740     2817.00000
    51.6871     2778.00000
    51.7002     2833.00000
    51.7134     2825.00000
    51.7265     2933.00000
    51.7396     2795.00000
    51.7528     2879.00000
    51.7659     2826.00000
    51.7790     2879.00000
    51.7922     2803.00000
    51.8053     2907.00000
    51.8184     2783.00000
    51.8315     2729.00000
    51.8447     2796.00000
    51.8578     2775.00000
    51.8709     2806.00000
    51.8841     2826.00000
    51.8972     2848.00000
    51.9103     2934.00000
    51.9235     2802.00000
    51.9366     2797.00000
    51.9497     2764.00000
    51.9628     2820.00000
    51.9760     2785.00000
    51.9891     2784.00000
    52.0022     2857.00000
    52.0154     2826.00000
    52.0285     2817.00000
    52.0416     2914.00000
    52.0548     2834.00000
    52.0679     2689.00000
    52.0810     2781.00000
    52.0942     2783.00000
    52.1073     2859.00000
    52.1204     2811.00000
    52.1335     2947.00000
    52.1467     2969.00000
    52.1598     2980.00000
    52.1729     2949.00000
    52.1861     2918.00000
    52.1992     2941.00000
    52.2123     3037.00000
    52.2255     3070.00000
    52.2386     3004.00000
    52.2517     2992.00000
    52.2648     3026.00000
    52.2780     2998.00000
    52.2911     3147.00000
    52.3042     3074.00000
    52.3174     3142.00000
    52.3305     3211.00000
    52.3436     3462.00000
    52.3568     3639.00000
    52.3699     4083.00000
    52.3830     4745.00000
    52.3961     5585.00000
    52.4093     6982.00000
    52.4224     8156.00000
    52.4355     9192.00000
    52.4487    10259.00000
    52.4618    10400.00000
    52.4749    10231.00000
    52.4881     9518.00000
    52.5012     8741.00000
    52.5143     7493.00000
    52.5275     6700.00000
    52.5406     6258.00000
    52.5537     6053.00000
    52.5668     6382.00000
    52.5800     6609.00000
    52.5931     6777.00000
    52.6062     6827.00000
    52.6194     6653.00000
    52.6325     6167.00000
    52.6456     5578.00000
    52.6588     5148.00000
    52.6719     4383.00000
    52.6850     3992.00000
    52.6981     3891.00000
    52.7113     3925.00000
    52.7244     4133.00000
    52.7375     4390.00000
    52.7507     4710.00000
    52.7638     5133.00000
    52.7769     5467.00000
    52.7901     5767.00000
    52.8032     6303.00000
    52.8163     6133.00000
    52.8294     6087.00000
    52.8426     6236.00000
    52.8557     5796.00000
    52.8688     5238.00000
    52.8820     5046.00000
    52.8951     4668.00000
    52.9082     4624.00000
    52.9214     4499.00000
    52.9345     4687.00000
    52.9476     4508.00000
    52.9608     4452.00000
    52.9739     4360.00000
    52.9870     4316.00000
    53.0001     4103.00000
    53.0133     3807.00000
    53.0264     3579.00000
    53.0395     3207.00000
    53.0527     3105.00000
    53.0658     3057.00000
    53.0789     2875.00000
    53.0921     2864.00000
    53.1052     2873.00000
    53.1183     2851.00000
    53.1314     2703.00000
    53.1446     2826.00000
    53.1577     2846.00000
    53.1708     2748.00000
    53.1840     2769.00000
    53.1971     2828.00000
    53.2102     2792.00000
    53.2234     2812.00000
    53.2365     2880.00000
    53.2496     2787.00000
    53.2627     2730.00000
    53.2759     2786.00000
    53.2890     2776.00000
    53.3021     2793.00000
    53.3153     2769.00000
    53.3284     2764.00000
    53.3415     2871.00000
    53.3547     2768.00000
    53.3678     2883.00000
    53.3809     2901.00000
    53.3941     2993.00000
    53.4072     2996.00000
    53.4203     3072.00000
    53.4334     3249.00000
    53.4466     3470.00000
    53.4597     3622.00000
    53.4728     3794.00000
    53.4860     3901.00000
    53.4991     4145.00000
    53.5122     4070.00000
    53.5254     4014.00000
    53.5385     3864.00000
    53.5516     3466.00000
    53.5647     3401.00000
    53.5779     3205.00000
    53.5910     3261.00000
    53.6041     3244.00000
    53.6173     3421.00000
    53.6304     3378.00000
    53.6435     3439.00000
    53.6567     3484.00000
    53.6698     3430.00000
    53.6829     3180.00000
    53.6960     3085.00000
    53.7092     2907.00000
    53.7223     2875.00000
    53.7354     2896.00000
    53.7486     2841.00000
    53.7617     2741.00000
    53.7748     2913.00000
    53.7880     2781.00000
    53.8011     2781.00000
    53.8142     2860.00000
    53.8274     2795.00000
    53.8405     2720.00000
    53.8536     2743.00000
    53.8667     2750.00000
    53.8799     2790.00000
    53.8930     2787.00000
    53.9061     2726.00000
    53.9193     2790.00000
    53.9324     2785.00000
    53.9455     2776.00000
    53.9587     2756.00000
    53.9718     2832.00000
    53.9849     2684.00000
    53.9980     2760.00000
    54.0112     2712.00000
    54.0243     2718.00000
    54.0374     2692.00000
    54.0506     2773.00000
    54.0637     2781.00000
    54.0768     2901.00000
    54.0900     2843.00000
    54.1031     2766.00000
    54.1162     2946.00000
    54.1293     2965.00000
    54.1425     3014.00000
    54.1556     3083.00000
    54.1687     3097.00000
    54.1819     3220.00000
    54.1950     3127.00000
    54.2081     2992.00000
    54.2213     3264.00000
    54.2344     3128.00000
    54.2475     3045.00000
    54.2607     2985.00000
    54.2738     3042.00000
    54.2869     2910.00000
    54.3000     2866.00000
    54.3132     2940.00000
    54.3263     2914.00000
    54.3394     2816.00000
    54.3526     2927.00000
    54.3657     2927.00000
    54.3788     2922.00000
    54.3920     2808.00000
    54.4051     2816.00000
    54.4182     2699.00000
    54.4313     2762.00000
    54.4445     2692.00000
    54.4576     2835.00000
    54.4707     2741.00000
    54.4839     2742.00000
    54.4970     2653.00000
    54.5101     2677.00000
    54.5233     2746.00000
    54.5364     2662.00000
    54.5495     2728.00000
    54.5626     2715.00000
    54.5758     2719.00000
    54.5889     2855.00000
    54.6020     2694.00000
    54.6152     2662.00000
    54.6283     2716.00000
    54.6414     2842.00000
    54.6546     2752.00000
    54.6677     2757.00000
    54.6808     2720.00000
    54.6940     2699.00000
    54.7071     2691.00000
    54.7202     2688.00000
    54.7333     2676.00000
    54.7465     2805.00000
    54.7596     2718.00000
    54.7727     2670.00000
    54.7859     2781.00000
    54.7990     2646.00000
    54.8121     2767.00000
    54.8253     2677.00000
    54.8384     2774.00000
    54.8515     2725.00000
    54.8646     2751.00000
    54.8778     2810.00000
    54.8909     2757.00000
    54.9040     2832.00000
    54.9172     2766.00000
    54.9303     2864.00000
    54.9434     2864.00000
    54.9566     2921.00000
    54.9697     2844.00000
    54.9828     2904.00000
    54.9959     3001.00000
    55.0091     3111.00000
    55.0222     3132.00000
    55.0353     3099.00000
    55.0485     3052.00000
    55.0616     3064.00000
    55.0747     3137.00000
    55.0879     3276.00000
    55.1010     3282.00000
    55.1141     3515.00000
    55.1272     3765.00000
    55.1404     4058.00000
    55.1535     4474.00000
    55.1666     5101.00000
    55.1798     6099.00000
    55.1929     7486.00000
    55.2060     9249.00000
    55.2192    10636.00000
    55.2323    11558.00000
    55.2454    11354.00000
    55.2586    10061.00000
    55.2717     8618.00000
    55.2848     7148.00000
    55.2979     6280.00000
    55.3111     5797.00000
    55.3242     5553.00000
    55.3373     5799.00000
    55.3505     6481.00000
    55.3636     7122.00000
    55.3767     7651.00000
    55.3899     7555.00000
    55.4030     6996.00000
    55.4161     6467.00000
    55.4292     5381.00000
    55.4424     4762.00000
    55.4555     4225.00000
    55.4686     3974.00000
    55.4818     3853.00000
    55.4949     3645.00000
    55.5080     3613.00000
    55.5212     3692.00000
    55.5343     3599.00000
    55.5474     3669.00000
    55.5605     3459.00000
    55.5737     3421.00000
    55.5868     3276.00000
    55.5999     3159.00000
    55.6131     3110.00000
    55.6262     2969.00000
    55.6393     2988.00000
    55.6525     3033.00000
    55.6656     3073.00000
    55.6787     3052.00000
    55.6918     3144.00000
    55.7050     3062.00000
    55.7181     3100.00000
    55.7312     2963.00000
    55.7444     2917.00000
    55.7575     2927.00000
    55.7706     2893.00000
    55.7838     2899.00000
    55.7969     2836.00000
    55.8100     2908.00000
    55.8232     2931.00000
    55.8363     2881.00000
    55.8494     2824.00000
    55.8625     2833.00000
    55.8757     2891.00000
    55.8888     3007.00000
    55.9019     2899.00000
    55.9151     2940.00000
    55.9282     2859.00000
    55.9413     2907.00000
    55.9545     3026.00000
    55.9676     3021.00000
    55.9807     3079.00000
    55.9938     3056.00000
    56.0070     3228.00000
    56.0201     3285.00000
    56.0332     3345.00000
    56.0464     3475.00000
    56.0595     3751.00000
    56.0726     4235.00000
    56.0858     4590.00000
    56.0989     5230.00000
    56.1120     5763.00000
    56.1251     6143.00000
    56.1383     6236.00000
    56.1514     6115.00000
    56.1645     6299.00000
    56.1777     6732.00000
    56.1908     7546.00000
    56.2039     8668.00000
    56.2171     9724.00000
    56.2302    10957.00000
    56.2433    12346.00000
    56.2565    12794.00000
    56.2696    13136.00000
    56.2827    12156.00000
    56.2958    10824.00000
    56.3090     9105.00000
    56.3221     7737.00000
    56.3352     6933.00000
    56.3484     6689.00000
    56.3615     6802.00000
    56.3746     6995.00000
    56.3878     7294.00000
    56.4009     7508.00000
    56.4140     7624.00000
    56.4271     7301.00000
    56.4403     6669.00000
    56.4534     6075.00000
    56.4665     5202.00000
    56.4797     4506.00000
    56.4928     3975.00000
    56.5059     3716.00000
    56.5191     3445.00000
    56.5322     3356.00000
    56.5453     3236.00000
    56.5584     3186.00000
    56.5716     2999.00000
    56.5847     3216.00000
    56.5978     3141.00000
    56.6110     3101.00000
    56.6241     3069.00000
    56.6372     3119.00000
    56.6504     3145.00000
    56.6635     3145.00000
    56.6766     3163.00000
    56.6898     3220.00000
    56.7029     3143.00000
    56.7160     3229.00000
    56.7291     3276.00000
    56.7423     3359.00000
    56.7554     3365.00000
    56.7685     3282.00000
    56.7817     3560.00000
    56.7948     3834.00000
    56.8079     3951.00000
    56.8211     4511.00000
    56.8342     5185.00000
    56.8473     5805.00000
    56.8604     6597.00000
    56.8736     7290.00000
    56.8867     7979.00000
    56.8998     8746.00000
    56.9130     9082.00000
    56.9261     9378.00000
    56.9392     9611.00000
    56.9524     9818.00000
    56.9655     9799.00000
    56.9786     9165.00000
    56.9917     8002.00000
    57.0049     7446.00000
    57.0180     7085.00000
    57.0311     6757.00000
    57.0443     6642.00000
    57.0574     6694.00000
    57.0705     7048.00000
    57.0837     7273.00000
    57.0968     7319.00000
    57.1099     7826.00000
    57.1231     8311.00000
    57.1362     8487.00000
    57.1493     8478.00000
    57.1624     8182.00000
    57.1756     7930.00000
    57.1887     7014.00000
    57.2018     6241.00000
    57.2150     5392.00000
    57.2281     4883.00000
    57.2412     4482.00000
    57.2544     4324.00000
    57.2675     4261.00000
    57.2806     4606.00000
    57.2937     4718.00000
    57.3069     4858.00000
    57.3200     5147.00000
    57.3331     5033.00000
    57.3463     4606.00000
    57.3594     4392.00000
    57.3725     3982.00000
    57.3857     3707.00000
    57.3988     3258.00000
    57.4119     3205.00000
    57.4250     3163.00000
    57.4382     3121.00000
    57.4513     3101.00000
    57.4644     3128.00000
    57.4776     3102.00000
    57.4907     3066.00000
    57.5038     3063.00000
    57.5170     3068.00000
    57.5301     3101.00000
    57.5432     3002.00000
    57.5564     3033.00000
    57.5695     3123.00000
    57.5826     3055.00000
    57.5957     3052.00000
    57.6089     3092.00000
    57.6220     3080.00000
    57.6351     3215.00000
    57.6483     3285.00000
    57.6614     3429.00000
    57.6745     3544.00000
    57.6877     3789.00000
    57.7008     4012.00000
    57.7139     4434.00000
    57.7270     5136.00000
    57.7402     5918.00000
    57.7533     6915.00000
    57.7664     8293.00000
    57.7796     8979.00000
    57.7927     9127.00000
    57.8058     8340.00000
    57.8190     7339.00000
    57.8321     6371.00000
    57.8452     5795.00000
    57.8583     5272.00000
    57.8715     5326.00000
    57.8846     5429.00000
    57.8977     6042.00000
    57.9109     6629.00000
    57.9240     7116.00000
    57.9371     7297.00000
    57.9503     7160.00000
    57.9634     6466.00000
    57.9765     5703.00000
    57.9897     4917.00000
    58.0028     4542.00000
    58.0159     4145.00000
    58.0290     3930.00000
    58.0422     3855.00000
    58.0553     3862.00000
    58.0684     4017.00000
    58.0816     3952.00000
    58.0947     3852.00000
    58.1078     3893.00000
    58.1210     3631.00000
    58.1341     3469.00000
    58.1472     3385.00000
    58.1603     3405.00000
    58.1735     3295.00000
    58.1866     3270.00000
    58.1997     3315.00000
    58.2129     3476.00000
    58.2260     3492.00000
    58.2391     3641.00000
    58.2523     3904.00000
    58.2654     4088.00000
    58.2785     4581.00000
    58.2916     5077.00000
    58.3048     5750.00000
    58.3179     6468.00000
    58.3310     7310.00000
    58.3442     7916.00000
    58.3573     8490.00000
    58.3704     8699.00000
    58.3836     8411.00000
    58.3967     7385.00000
    58.4098     6747.00000
    58.4230     5937.00000
    58.4361     5576.00000
    58.4492     5409.00000
    58.4623     5258.00000
    58.4755     5502.00000
    58.4886     5994.00000
    58.5017     6349.00000
    58.5149     6924.00000
    58.5280     7546.00000
    58.5411     7955.00000
    58.5543     8352.00000
    58.5674     8878.00000
    58.5805     9305.00000
    58.5936     9662.00000
    58.6068     9348.00000
    58.6199     8220.00000
    58.6330     7259.00000
    58.6462     6087.00000
    58.6593     5364.00000
    58.6724     5000.00000
    58.6856     4811.00000
    58.6987     4960.00000
    58.7118     5324.00000
    58.7249     6018.00000
    58.7381     6507.00000
    58.7512     6933.00000
    58.7643     7406.00000
    58.7775     7852.00000
    58.7906     8061.00000
    58.8037     8427.00000
    58.8169     9248.00000
    58.8300     9584.00000
    58.8431     9835.00000
    58.8562     9148.00000
    58.8694     8148.00000
    58.8825     6967.00000
    58.8956     6088.00000
    58.9088     5402.00000
    58.9219     5159.00000
    58.9350     4845.00000
    58.9482     4938.00000
    58.9613     5352.00000
    58.9744     5831.00000
    58.9876     5957.00000
    59.0007     6152.00000
    59.0138     6149.00000
    59.0269     5677.00000
    59.0401     5005.00000
    59.0532     4550.00000
    59.0663     4101.00000
    59.0795     3747.00000
    59.0926     3457.00000
    59.1057     3391.00000
    59.1189     3217.00000
    59.1320     3158.00000
    59.1451     3085.00000
    59.1582     3056.00000
    59.1714     3045.00000
    59.1845     3029.00000
    59.1976     2989.00000
    59.2108     2993.00000
    59.2239     2975.00000
    59.2370     2982.00000
    59.2502     3080.00000
    59.2633     3008.00000
    59.2764     2987.00000
    59.2895     2979.00000
    59.3027     3076.00000
    59.3158     3067.00000
    59.3289     2971.00000
    59.3421     3138.00000
    59.3552     3101.00000
    59.3683     3198.00000
    59.3815     3279.00000
    59.3946     3291.00000
    59.4077     3626.00000
    59.4208     4069.00000
    59.4340     4490.00000
    59.4471     4959.00000
    59.4602     5766.00000
    59.4734     6345.00000
    59.4865     7115.00000
    59.4996     7800.00000
    59.5128     8354.00000
    59.5259     8452.00000
    59.5390     8172.00000
    59.5522     7216.00000
    59.5653     6607.00000
    59.5784     5768.00000
    59.5915     5372.00000
    59.6047     5147.00000
    59.6178     4913.00000
    59.6309     5286.00000
    59.6441     5493.00000
    59.6572     5737.00000
    59.6703     6267.00000
    59.6835     6352.00000
    59.6966     6464.00000
    59.7097     6604.00000
    59.7228     6580.00000
    59.7360     6798.00000
    59.7491     6927.00000
    59.7622     7309.00000
    59.7754     7681.00000
    59.7885     8466.00000
    59.8016     9413.00000
    59.8148    10447.00000
    59.8279    11152.00000
    59.8410    10993.00000
    59.8541    10195.00000
    59.8673     8571.00000
    59.8804     7235.00000
    59.8935     6368.00000
    59.9067     5856.00000
    59.9198     5707.00000
    59.9329     5627.00000
    59.9461     5880.00000
    59.9592     6228.00000
    59.9723     6678.00000
    59.9855     6826.00000
    59.9986     6983.00000
    60.0117     6777.00000
    60.0248     6093.00000
    60.0380     5254.00000
    60.0511     4444.00000
    60.0642     4013.00000
    60.0774     3725.00000
    60.0905     3587.00000
    60.1036     3304.00000
    60.1168     3221.00000
    60.1299     3213.00000
    60.1430     3113.00000
    60.1561     3086.00000
    60.1693     3115.00000
    60.1824     3060.00000
    60.1955     3084.00000
    60.2087     3087.00000
    60.2218     3053.00000
    60.2349     3159.00000
    60.2481     3145.00000
    60.2612     3097.00000
    60.2743     3043.00000
    60.2874     3140.00000
    60.3006     3226.00000
    60.3137     3091.00000
    60.3268     3118.00000
    60.3400     3204.00000
    60.3531     3421.00000
    60.3662     3339.00000
    60.3794     3542.00000
    60.3925     3485.00000
    60.4056     3606.00000
    60.4188     3752.00000
    60.4319     4024.00000
    60.4450     4456.00000
    60.4581     4850.00000
    60.4713     5529.00000
    60.4844     6453.00000
    60.4975     8048.00000
    60.5107     9738.00000
    60.5238    12023.00000
    60.5369    13882.00000
    60.5501    14769.00000
    60.5632    14484.00000
    60.5763    12988.00000
    60.5894    11261.00000
    60.6026     9546.00000
    60.6157     8271.00000
    60.6288     7482.00000
    60.6420     7026.00000
    60.6551     7290.00000
    60.6682     7895.00000
    60.6814     8658.00000
    60.6945     9523.00000
    60.7076    10489.00000
    60.7207    10501.00000
    60.7339    10288.00000
    60.7470     9442.00000
    60.7601     8578.00000
    60.7733     7451.00000
    60.7864     6685.00000
    60.7995     5873.00000
    60.8127     5448.00000
    60.8258     4964.00000
    60.8389     4916.00000
    60.8521     5090.00000
    60.8652     5184.00000
    60.8783     5284.00000
    60.8914     5353.00000
    60.9046     5634.00000
    60.9177     5651.00000
    60.9308     5588.00000
    60.9440     5459.00000
    60.9571     5326.00000
    60.9702     4924.00000
    60.9834     4385.00000
    60.9965     4005.00000
    61.0096     3815.00000
    61.0227     3756.00000
    61.0359     3723.00000
    61.0490     3589.00000
    61.0621     3685.00000
    61.0753     3611.00000
    61.0884     3803.00000
    61.1015     3743.00000
    61.1147     3598.00000
    61.1278     3583.00000
    61.1409     3563.00000
    61.1540     3243.00000
    61.1672     3002.00000
    61.1803     2976.00000
    61.1934     2882.00000
    61.2066     2928.00000
    61.2197     2728.00000
    61.2328     2752.00000
    61.2460     2768.00000
    61.2591     2715.00000
    61.2722     2668.00000
    61.2854     2740.00000
    61.2985     2804.00000
    61.3116     2773.00000
    61.3247     2671.00000
    61.3379     2704.00000
    61.3510     2689.00000
    61.3641     2669.00000
    61.3773     2595.00000
    61.3904     2707.00000
    61.4035     2760.00000
    61.4167     2614.00000
    61.4298     2543.00000
    61.4429     2707.00000
    61.4560     2566.00000
    61.4692     2602.00000
    61.4823     2628.00000
    61.4954     2629.00000
    61.5086     2697.00000
    61.5217     2718.00000
    61.5348     2671.00000
    61.5480     2616.00000
    61.5611     2698.00000
    61.5742     2747.00000
    61.5873     2660.00000
    61.6005     2695.00000
    61.6136     2575.00000
    61.6267     2641.00000
    61.6399     2595.00000
    61.6530     2666.00000
    61.6661     2599.00000
    61.6793     2546.00000
    61.6924     2561.00000
    61.7055     2624.00000
    61.7187     2605.00000
    61.7318     2556.00000
    61.7449     2588.00000
    61.7580     2602.00000
    61.7712     2611.00000
    61.7843     2649.00000
    61.7974     2667.00000
    61.8106     2627.00000
    61.8237     2577.00000
    61.8368     2494.00000
    61.8500     2608.00000
    61.8631     2654.00000
    61.8762     2640.00000
    61.8893     2612.00000
    61.9025     2628.00000
    61.9156     2624.00000
    61.9287     2540.00000
    61.9419     2571.00000
    61.9550     2571.00000
    61.9681     2545.00000
    61.9813     2669.00000
    61.9944     2585.00000
    62.0075     2487.00000
    62.0206     2564.00000
    62.0338     2602.00000
    62.0469     2578.00000
    62.0600     2537.00000
    62.0732     2614.00000
    62.0863     2596.00000
    62.0994     2588.00000
    62.1126     2586.00000
    62.1257     2447.00000
    62.1388     2588.00000
    62.1520     2633.00000
    62.1651     2632.00000
    62.1782     2589.00000
    62.1913     2537.00000
    62.2045     2626.00000
    62.2176     2542.00000
    62.2307     2559.00000
    62.2439     2474.00000
    62.2570     2581.00000
    62.2701     2590.00000
    62.2833     2541.00000
    62.2964     2560.00000
    62.3095     2500.00000
    62.3226     2573.00000
    62.3358     2427.00000
    62.3489     2637.00000
    62.3620     2544.00000
    62.3752     2553.00000
    62.3883     2440.00000
    62.4014     2617.00000
    62.4146     2672.00000
    62.4277     2535.00000
    62.4408     2579.00000
    62.4539     2472.00000
    62.4671     2508.00000
    62.4802     2574.00000
    62.4933     2556.00000
    62.5065     2404.00000
    62.5196     2534.00000
    62.5327     2432.00000
    62.5459     2567.00000
    62.5590     2525.00000
    62.5721     2506.00000
    62.5852     2541.00000
    62.5984     2590.00000
    62.6115     2569.00000
    62.6246     2477.00000
    62.6378     2520.00000
    62.6509     2540.00000
    62.6640     2472.00000
    62.6772     2535.00000
    62.6903     2566.00000
    62.7034     2602.00000
    62.7166     2514.00000
    62.7297     2587.00000
    62.7428     2505.00000
    62.7559     2485.00000
    62.7691     2468.00000
    62.7822     2615.00000
    62.7953     2561.00000
    62.8085     2479.00000
    62.8216     2610.00000
    62.8347     2483.00000
    62.8479     2483.00000
    62.8610     2596.00000
    62.8741     2588.00000
    62.8872     2429.00000
    62.9004     2440.00000
    62.9135     2482.00000
    62.9266     2465.00000
    62.9398     2570.00000
    62.9529     2450.00000
    62.9660     2539.00000
    62.9792     2526.00000
    62.9923     2552.00000
    63.0054     2607.00000
    63.0185     2544.00000
    63.0317     2551.00000
    63.0448     2471.00000
    63.0579     2567.00000
    63.0711     2564.00000
    63.0842     2526.00000
    63.0973     2684.00000
    63.1105     2572.00000
    63.1236     2633.00000
    63.1367     2512.00000
    63.1499     2572.00000
    63.1630     2636.00000
    63.1761     2628.00000
    63.1892     2649.00000
    63.2024     2733.00000
    63.2155     2712.00000
    63.2286     2676.00000
    63.2418     2740.00000
    63.2549     2692.00000
    63.2680     2856.00000
    63.2812     2858.00000
    63.2943     2857.00000
    63.3074     2941.00000
    63.3205     2787.00000
    63.3337     2954.00000
    63.3468     3157.00000
    63.3599     3144.00000
    63.3731     3309.00000
    63.3862     3447.00000
    63.3993     3714.00000
    63.4125     3879.00000
    63.4256     3975.00000
    63.4387     4065.00000
    63.4518     3829.00000
    63.4650     3657.00000
    63.4781     3394.00000
    63.4912     3230.00000
    63.5044     3031.00000
    63.5175     3086.00000
    63.5306     2999.00000
    63.5438     2964.00000
    63.5569     3123.00000
    63.5700     3246.00000
    63.5831     3201.00000
    63.5963     3388.00000
    63.6094     3367.00000
    63.6225     3216.00000
    63.6357     3112.00000
    63.6488     3128.00000
    63.6619     3012.00000
    63.6751     2936.00000
    63.6882     2949.00000
    63.7013     2975.00000
    63.7145     2932.00000
    63.7276     3006.00000
    63.7407     3148.00000
    63.7538     3325.00000
    63.7670     3530.00000
    63.7801     3774.00000
    63.7932     3957.00000
    63.8064     4110.00000
    63.8195     4196.00000
    63.8326     4256.00000
    63.8458     3924.00000
    63.8589     3815.00000
    63.8720     3513.00000
    63.8851     3296.00000
    63.8983     3131.00000
    63.9114     3112.00000
    63.9245     3037.00000
    63.9377     3004.00000
    63.9508     3148.00000
    63.9639     3368.00000
    63.9771     3493.00000
    63.9902     3667.00000
    64.0033     3725.00000
    64.0164     3772.00000
    64.0296     4000.00000
    64.0427     3905.00000
    64.0558     3883.00000
    64.0690     3975.00000
    64.0821     3964.00000
    64.0952     3760.00000
    64.1084     3684.00000
    64.1215     3517.00000
    64.1346     3296.00000
    64.1478     3106.00000
    64.1609     2939.00000
    64.1740     2795.00000
    64.1871     2828.00000
    64.2003     2873.00000
    64.2134     2925.00000
    64.2265     2944.00000
    64.2397     3117.00000
    64.2528     3106.00000
    64.2659     3071.00000
    64.2791     2948.00000
    64.2922     2931.00000
    64.3053     2874.00000
    64.3184     2798.00000
    64.3316     2675.00000
    64.3447     2627.00000
    64.3578     2608.00000
    64.3710     2549.00000
    64.3841     2569.00000
    64.3972     2580.00000
    64.4104     2558.00000
    64.4235     2528.00000
    64.4366     2410.00000
    64.4498     2467.00000
    64.4629     2488.00000
    64.4760     2495.00000
    64.4891     2573.00000
    64.5023     2469.00000
    64.5154     2535.00000
    64.5285     2487.00000
    64.5417     2563.00000
    64.5548     2549.00000
    64.5679     2455.00000
    64.5811     2541.00000
    64.5942     2497.00000
    64.6073     2671.00000
    64.6204     2528.00000
    64.6336     2617.00000
    64.6467     2758.00000
    64.6598     2725.00000
    64.6730     2690.00000
    64.6861     2713.00000
    64.6992     2772.00000
    64.7124     2843.00000
    64.7255     2705.00000
    64.7386     2771.00000
    64.7517     2809.00000
    64.7649     2729.00000
    64.7780     2714.00000
    64.7911     2781.00000
    64.8043     2662.00000
    64.8174     2705.00000
    64.8305     2695.00000
    64.8437     2741.00000
    64.8568     2686.00000
    64.8699     2825.00000
    64.8830     2697.00000
    64.8962     2808.00000
    64.9093     2599.00000
    64.9224     2619.00000
    64.9356     2611.00000
    64.9487     2623.00000
    64.9618     2663.00000
    64.9750     2520.00000
    64.9881     2517.00000
    65.0012     2564.00000
    65.0144     2561.00000
    65.0275     2562.00000
    65.0406     2567.00000
    65.0537     2292.00000
    65.0669     2487.00000
    65.0800     2530.00000
    65.0931     2475.00000
    65.1063     2474.00000
    65.1194     2505.00000
    65.1325     2475.00000
    65.1457     2530.00000
    65.1588     2567.00000
    65.1719     2496.00000
    65.1850     2406.00000
    65.1982     2422.00000
    65.2113     2410.00000
    65.2244     2437.00000
    65.2376     2422.00000
    65.2507     2507.00000
    65.2638     2463.00000
    65.2770     2393.00000
    65.2901     2454.00000
    65.3032     2369.00000
    65.3163     2330.00000
    65.3295     2477.00000
    65.3426     2431.00000
    65.3557     2379.00000
    65.3689     2401.00000
    65.3820     2436.00000
    65.3951     2441.00000
    65.4083     2451.00000
    65.4214     2410.00000
    65.4345     2423.00000
    65.4476     2429.00000
    65.4608     2437.00000
    65.4739     2412.00000
    65.4870     2320.00000
    65.5002     2424.00000
    65.5133     2429.00000
    65.5264     2435.00000
    65.5396     2381.00000
    65.5527     2428.00000
    65.5658     2439.00000
    65.5790     2414.00000
    65.5921     2457.00000
    65.6052     2395.00000
    65.6183     2433.00000
    65.6315     2463.00000
    65.6446     2451.00000
    65.6577     2488.00000
    65.6709     2432.00000
    65.6840     2401.00000
    65.6971     2477.00000
    65.7103     2366.00000
    65.7234     2497.00000
    65.7365     2488.00000
    65.7496     2547.00000
    65.7628     2443.00000
    65.7759     2458.00000
    65.7890     2546.00000
    65.8022     2343.00000
    65.8153     2450.00000
    65.8284     2398.00000
    65.8416     2420.00000
    65.8547     2450.00000
    65.8678     2395.00000
    65.8810     2401.00000
    65.8941     2443.00000
    65.9072     2411.00000
    65.9203     2320.00000
    65.9335     2545.00000
    65.9466     2435.00000
    65.9597     2456.00000
    65.9729     2357.00000
    65.9860     2459.00000
    65.9991     2488.00000
    66.0123     2399.00000
    66.0254     2497.00000
    66.0385     2540.00000
    66.0516     2401.00000
    66.0648     2418.00000
    66.0779     2430.00000
    66.0910     2462.00000
    66.1042     2413.00000
    66.1173     2468.00000
    66.1304     2391.00000
    66.1436     2411.00000
    66.1567     2501.00000
    66.1698     2440.00000
    66.1829     2401.00000
    66.1961     2441.00000
    66.2092     2523.00000
    66.2223     2480.00000
    66.2355     2446.00000
    66.2486     2488.00000
    66.2617     2471.00000
    66.2749     2438.00000
    66.2880     2437.00000
    66.3011     2431.00000
    66.3142     2414.00000
    66.3274     2487.00000
    66.3405     2491.00000
    66.3536     2427.00000
    66.3668     2459.00000
    66.3799     2345.00000
    66.3930     2519.00000
    66.4062     2518.00000
    66.4193     2483.00000
    66.4324     2392.00000
    66.4455     2498.00000
    66.4587     2475.00000
    66.4718     2487.00000
    66.4849     2434.00000
    66.4981     2551.00000
    66.5112     2487.00000
    66.5243     2542.00000
    66.5375     2412.00000
    66.5506     2454.00000
    66.5637     2455.00000
    66.5769     2490.00000
    66.5900     2469.00000
    66.6031     2497.00000
    66.6162     2564.00000
    66.6294     2455.00000
    66.6425     2575.00000
    66.6556     2490.00000
    66.6688     2556.00000
    66.6819     2473.00000
    66.6950     2509.00000
    66.7082     2469.00000
    66.7213     2497.00000
    66.7344     2386.00000
    66.7476     2433.00000
    66.7607     2530.00000
    66.7738     2418.00000
    66.7869     2504.00000
    66.8001     2403.00000
    66.8132     2458.00000
    66.8263     2524.00000
    66.8395     2461.00000
    66.8526     2451.00000
    66.8657     2370.00000
    66.8789     2421.00000
    66.8920     2389.00000
    66.9051     2386.00000
    66.9182     2427.00000
    66.9314     2514.00000
    66.9445     2353.00000
    66.9576     2416.00000
    66.9708     2481.00000
    66.9839     2411.00000
    66.9970     2605.00000
    67.0102     2413.00000
    67.0233     2430.00000
    67.0364     2300.00000
    67.0495     2425.00000
    67.0627     2357.00000
    67.0758     2516.00000
    67.0889     2398.00000
    67.1021     2482.00000
    67.1152     2512.00000
    67.1283     2349.00000
    67.1415     2493.00000
    67.1546     2573.00000
    67.1677     2397.00000
    67.1808     2403.00000
    67.1940     2413.00000
    67.2071     2394.00000
    67.2202     2368.00000
    67.2334     2434.00000
    67.2465     2378.00000
    67.2596     2383.00000
    67.2728     2437.00000
    67.2859     2475.00000
    67.2990     2448.00000
    67.3121     2399.00000
    67.3253     2464.00000
    67.3384     2376.00000
    67.3515     2447.00000
    67.3647     2388.00000
    67.3778     2481.00000
    67.3909     2538.00000
    67.4041     2559.00000
    67.4172     2392.00000
    67.4303     2472.00000
    67.4435     2518.00000
    67.4566     2484.00000
    67.4697     2486.00000
    67.4828     2533.00000
    67.4960     2389.00000
    67.5091     2471.00000
    67.5222     2429.00000
    67.5354     2471.00000
    67.5485     2471.00000
    67.5616     2497.00000
    67.5748     2555.00000
    67.5879     2437.00000
    67.6010     2497.00000
    67.6142     2482.00000
    67.6273     2431.00000
    67.6404     2440.00000
    67.6535     2478.00000
    67.6667     2431.00000
    67.6798     2522.00000
    67.6929     2497.00000
    67.7061     2478.00000
    67.7192     2478.00000
    67.7323     2496.00000
    67.7455     2472.00000
    67.7586     2479.00000
    67.7717     2387.00000
    67.7848     2505.00000
    67.7980     2460.00000
    67.8111     2510.00000
    67.8242     2444.00000
    67.8374     2579.00000
    67.8505     2569.00000
    67.8636     2655.00000
    67.8768     2628.00000
    67.8899     2685.00000
    67.9030     2681.00000
    67.9161     2745.00000
    67.9293     2942.00000
    67.9424     3100.00000
    67.9555     3234.00000
    67.9687     3341.00000
    67.9818     3589.00000
    67.9949     3809.00000
    68.0081     3949.00000
    68.0212     3957.00000
    68.0343     3733.00000
    68.0474     3563.00000
    68.0606     3510.00000
    68.0737     3451.00000
    68.0868     3324.00000
    68.1000     3310.00000
    68.1131     3201.00000
    68.1262     3138.00000
    68.1394     3092.00000
    68.1525     3085.00000
    68.1656     3235.00000
    68.1787     3319.00000
    68.1919     3383.00000
    68.2050     3341.00000
    68.2181     3475.00000
    68.2313     3488.00000
    68.2444     3414.00000
    68.2575     3550.00000
    68.2707     3848.00000
    68.2838     4065.00000
    68.2969     4640.00000
    68.3101     5031.00000
    68.3232     5161.00000
    68.3363     4894.00000
    68.3494     4721.00000
    68.3626     4197.00000
    68.3757     3736.00000
    68.3888     3573.00000
    68.4020     3221.00000
    68.4151     3035.00000
    68.4282     3003.00000
    68.4414     2929.00000
    68.4545     3077.00000
    68.4676     3120.00000
    68.4807     3383.00000
    68.4939     3534.00000
    68.5070     3641.00000
    68.5201     3802.00000
    68.5333     3699.00000
    68.5464     3585.00000
    68.5595     3342.00000
    68.5727     2996.00000
    68.5858     2907.00000
    68.5989     2674.00000
    68.6120     2694.00000
    68.6252     2769.00000
    68.6383     2608.00000
    68.6514     2525.00000
    68.6646     2614.00000
    68.6777     2578.00000
    68.6908     2624.00000
    68.7040     2608.00000
    68.7171     2541.00000
    68.7302     2554.00000
    68.7434     2517.00000
    68.7565     2481.00000
    68.7696     2590.00000
    68.7827     2616.00000
    68.7959     2544.00000
    68.8090     2584.00000
    68.8221     2517.00000
    68.8353     2655.00000
    68.8484     2608.00000
    68.8615     2531.00000
    68.8747     2526.00000
    68.8878     2480.00000
    68.9009     2488.00000
    68.9140     2550.00000
    68.9272     2569.00000
    68.9403     2592.00000
    68.9534     2640.00000
    68.9666     2587.00000
    68.9797     2675.00000
    68.9928     2640.00000
    69.0060     2727.00000
    69.0191     2756.00000
    69.0322     2727.00000
    69.0453     2761.00000
    69.0585     2872.00000
    69.0716     2954.00000
    69.0847     3027.00000
    69.0979     3168.00000
    69.1110     3408.00000
    69.1241     3776.00000
    69.1373     3966.00000
    69.1504     4404.00000
    69.1635     4682.00000
    69.1767     4733.00000
    69.1898     4812.00000
    69.2029     4397.00000
    69.2160     4225.00000
    69.2292     4084.00000
    69.2423     3845.00000
    69.2554     3646.00000
    69.2686     3504.00000
    69.2817     3278.00000
    69.2948     3279.00000
    69.3080     3275.00000
    69.3211     3414.00000
    69.3342     3448.00000
    69.3473     3666.00000
    69.3605     3799.00000
    69.3736     3784.00000
    69.3867     3724.00000
    69.3999     3595.00000
    69.4130     3679.00000
    69.4261     3690.00000
    69.4393     3602.00000
    69.4524     3503.00000
    69.4655     3555.00000
    69.4786     3633.00000
    69.4918     3534.00000
    69.5049     3475.00000
    69.5180     3285.00000
    69.5312     3134.00000
    69.5443     3038.00000
    69.5574     3043.00000
    69.5706     2958.00000
    69.5837     3040.00000
    69.5968     3085.00000
    69.6099     3131.00000
    69.6231     3290.00000
    69.6362     3282.00000
    69.6493     3604.00000
    69.6625     3861.00000
    69.6756     3977.00000
    69.6887     4403.00000
    69.7019     4676.00000
    69.7150     5164.00000
    69.7281     5644.00000
    69.7413     6452.00000
    69.7544     7031.00000
    69.7675     7497.00000
    69.7806     7674.00000
    69.7938     7667.00000
    69.8069     7034.00000
    69.8200     6570.00000
    69.8332     5754.00000
    69.8463     5112.00000
    69.8594     4731.00000
    69.8726     4438.00000
    69.8857     4398.00000
    69.8988     4383.00000
    69.9119     4436.00000
    69.9251     4752.00000
    69.9382     4914.00000
    69.9513     5355.00000
    69.9645     5446.00000
    69.9776     5786.00000
    69.9907     5593.00000
    70.0039     5482.00000
    70.0170     5060.00000
    70.0301     4411.00000
    70.0433     4101.00000
    70.0564     3698.00000
    70.0695     3408.00000
    70.0826     3244.00000
    70.0958     3174.00000
    70.1089     3112.00000
    70.1220     3135.00000
    70.1352     3084.00000
    70.1483     2934.00000
    70.1614     3034.00000
    70.1746     3108.00000
    70.1877     2941.00000
    70.2008     2963.00000
    70.2139     2939.00000
    70.2271     3014.00000
    70.2402     2970.00000
    70.2533     2903.00000
    70.2665     3046.00000
    70.2796     3088.00000
    70.2927     3142.00000
    70.3059     3212.00000
    70.3190     3386.00000
    70.3321     3498.00000
    70.3452     3837.00000
    70.3584     4145.00000
    70.3715     4370.00000
    70.3846     4922.00000
    70.3978     5137.00000
    70.4109     5182.00000
    70.4240     5164.00000
    70.4372     4898.00000
    70.4503     4543.00000
    70.4634     4085.00000
    70.4765     3867.00000
    70.4897     3746.00000
    70.5028     3613.00000
    70.5159     3615.00000
    70.5291     3614.00000
    70.5422     3954.00000
    70.5553     4063.00000
    70.5685     4390.00000
    70.5816     4778.00000
    70.5947     5008.00000
    70.6078     5473.00000
    70.6210     5639.00000
    70.6341     5542.00000
    70.6472     5366.00000
    70.6604     5137.00000
    70.6735     5003.00000
    70.6866     4701.00000
    70.6998     4549.00000
    70.7129     4296.00000
    70.7260     4106.00000
    70.7392     3960.00000
    70.7523     3786.00000
    70.7654     3690.00000
    70.7785     3659.00000
    70.7917     3714.00000
    70.8048     3707.00000
    70.8179     3604.00000
    70.8311     3701.00000
    70.8442     3791.00000
    70.8573     3665.00000
    70.8705     3673.00000
    70.8836     3702.00000
    70.8967     3585.00000
    70.9099     3403.00000
    70.9230     3329.00000
    70.9361     3257.00000
    70.9492     3337.00000
    70.9624     3310.00000
    70.9755     3465.00000
    70.9886     3569.00000
    71.0018     3920.00000
    71.0149     4256.00000
    71.0280     4785.00000
    71.0412     5055.00000
    71.0543     5019.00000
    71.0674     4783.00000
    71.0805     4189.00000
    71.0937     3623.00000
    71.1068     3349.00000
    71.1199     3058.00000
    71.1331     2919.00000
    71.1462     2951.00000
    71.1593     2911.00000
    71.1725     2945.00000
    71.1856     3118.00000
    71.1987     3172.00000
    71.2118     3252.00000
    71.2250     3500.00000
    71.2381     3763.00000
    71.2512     3841.00000
    71.2644     3730.00000
    71.2775     3589.00000
    71.2906     3278.00000
    71.3038     3132.00000
    71.3169     2995.00000
    71.3300     2950.00000
    71.3431     2893.00000
    71.3563     2895.00000
    71.3694     2786.00000
    71.3825     2866.00000
    71.3957     2855.00000
    71.4088     2915.00000
    71.4219     2852.00000
    71.4351     2982.00000
    71.4482     2954.00000
    71.4613     3026.00000
    71.4744     3172.00000
    71.4876     3191.00000
    71.5007     3460.00000
    71.5138     3803.00000
    71.5270     4019.00000
    71.5401     4324.00000
    71.5532     4614.00000
    71.5664     5056.00000
    71.5795     5105.00000
    71.5926     4765.00000
    71.6058     4669.00000
    71.6189     4414.00000
    71.6320     4093.00000
    71.6451     4010.00000
    71.6583     3577.00000
    71.6714     3497.00000
    71.6845     3399.00000
    71.6977     3293.00000
    71.7108     3339.00000
    71.7239     3376.00000
    71.7371     3452.00000
    71.7502     3554.00000
    71.7633     3799.00000
    71.7764     3720.00000
    71.7896     3714.00000
    71.8027     3662.00000
    71.8158     3537.00000
    71.8290     3434.00000
    71.8421     3284.00000
    71.8552     3170.00000
    71.8684     2956.00000
    71.8815     2856.00000
    71.8946     2807.00000
    71.9078     2704.00000
    71.9209     2812.00000
    71.9340     2672.00000
    71.9471     2624.00000
    71.9603     2670.00000
    71.9734     2608.00000
    71.9865     2588.00000
    71.9997     2608.00000
    72.0128     2560.00000
    72.0259     2517.00000
    72.0391     2510.00000
    72.0522     2610.00000
    72.0653     2609.00000
    72.0784     2523.00000
    72.0916     2649.00000
    72.1047     2545.00000
    72.1178     2503.00000
    72.1310     2444.00000
    72.1441     2524.00000
    72.1572     2555.00000
    72.1704     2608.00000
    72.1835     2450.00000
    72.1966     2565.00000
    72.2097     2504.00000
    72.2229     2630.00000
    72.2360     2654.00000
    72.2491     2755.00000
    72.2623     2738.00000
    72.2754     2930.00000
    72.2885     3002.00000
    72.3017     3079.00000
    72.3148     3349.00000
    72.3279     3655.00000
    72.3410     3797.00000
    72.3542     3962.00000
    72.3673     4191.00000
    72.3804     4069.00000
    72.3936     4062.00000
    72.4067     3830.00000
    72.4198     3592.00000
    72.4330     3307.00000
    72.4461     3038.00000
    72.4592     2967.00000
    72.4724     3034.00000
    72.4855     2890.00000
    72.4986     2990.00000
    72.5117     2885.00000
    72.5249     3017.00000
    72.5380     3113.00000
    72.5511     3141.00000
    72.5643     3362.00000
    72.5774     3292.00000
    72.5905     3392.00000
    72.6037     3326.00000
    72.6168     3174.00000
    72.6299     3066.00000
    72.6430     2931.00000
    72.6562     2798.00000
    72.6693     2794.00000
    72.6824     2804.00000
    72.6956     2717.00000
    72.7087     2729.00000
    72.7218     2793.00000
    72.7350     2676.00000
    72.7481     2670.00000
    72.7612     2662.00000
    72.7743     2737.00000
    72.7875     2832.00000
    72.8006     3030.00000
    72.8137     2947.00000
    72.8269     3150.00000
    72.8400     3450.00000
    72.8531     3723.00000
    72.8663     3827.00000
    72.8794     4043.00000
    72.8925     4236.00000
    72.9057     4335.00000
    72.9188     4162.00000
    72.9319     4129.00000
    72.9450     3926.00000
    72.9582     3714.00000
    72.9713     3496.00000
    72.9844     3324.00000
    72.9976     3148.00000
    73.0107     3132.00000
    73.0238     3035.00000
    73.0370     3092.00000
    73.0501     3159.00000
    73.0632     3358.00000
    73.0763     3443.00000
    73.0895     3529.00000
    73.1026     3779.00000
    73.1157     3868.00000
    73.1289     3959.00000
    73.1420     3959.00000
    73.1551     4125.00000
    73.1683     4069.00000
    73.1814     4026.00000
    73.1945     3966.00000
    73.2076     4054.00000
    73.2208     3829.00000
    73.2339     3707.00000
    73.2470     3558.00000
    73.2602     3437.00000
    73.2733     3377.00000
    73.2864     3226.00000
    73.2996     3258.00000
    73.3127     3185.00000
    73.3258     3134.00000
    73.3390     3279.00000
    73.3521     3267.00000
    73.3652     3304.00000
    73.3783     3516.00000
    73.3915     3728.00000
    73.4046     3594.00000
    73.4177     3778.00000
    73.4309     3688.00000
    73.4440     3585.00000
    73.4571     3439.00000
    73.4703     3328.00000
    73.4834     3123.00000
    73.4965     3073.00000
    73.5096     3155.00000
    73.5228     2935.00000
    73.5359     3086.00000
    73.5490     3250.00000
    73.5622     3148.00000
    73.5753     3392.00000
    73.5884     3798.00000
    73.6016     4053.00000
    73.6147     4587.00000
    73.6278     5081.00000
    73.6409     5350.00000
    73.6541     5461.00000
    73.6672     5807.00000
    73.6803     5922.00000
    73.6935     5644.00000
    73.7066     5647.00000
    73.7197     5502.00000
    73.7329     5509.00000
    73.7460     5226.00000
    73.7591     4953.00000
    73.7722     4490.00000
    73.7854     3965.00000
    73.7985     3814.00000
    73.8116     3812.00000
    73.8248     3668.00000
    73.8379     3750.00000
    73.8510     3976.00000
    73.8642     4044.00000
    73.8773     4052.00000
    73.8904     4151.00000
    73.9035     4137.00000
    73.9167     4082.00000
    73.9298     3905.00000
    73.9429     4027.00000
    73.9561     3950.00000
    73.9692     3637.00000
    73.9823     3431.00000
    73.9955     3266.00000
    74.0086     3018.00000
    74.0217     2838.00000
    74.0349     2746.00000
    74.0480     2735.00000
    74.0611     2718.00000
    74.0742     2729.00000
    74.0874     2608.00000
    74.1005     2634.00000
    74.1136     2498.00000
    74.1268     2476.00000
    74.1399     2532.00000
    74.1530     2524.00000
    74.1662     2559.00000
    74.1793     2533.00000
    74.1924     2378.00000
    74.2056     2453.00000
    74.2187     2469.00000
    74.2318     2553.00000
    74.2449     2465.00000
    74.2581     2455.00000
    74.2712     2491.00000
    74.2843     2484.00000
    74.2975     2464.00000
    74.3106     2500.00000
    74.3237     2409.00000
    74.3369     2410.00000
    74.3500     2482.00000
    74.3631     2413.00000
    74.3762     2467.00000
    74.3894     2409.00000
    74.4025     2397.00000
    74.4156     2480.00000
    74.4288     2511.00000
    74.4419     2492.00000
    74.4550     2496.00000
    74.4682     2416.00000
    74.4813     2492.00000
    74.4944     2319.00000
    74.5075     2357.00000
    74.5207     2351.00000
    74.5338     2420.00000
    74.5469     2480.00000
    74.5601     2392.00000
    74.5732     2409.00000
    74.5863     2451.00000
    74.5995     2522.00000
    74.6126     2381.00000
    74.6257     2374.00000
    74.6388     2392.00000
    74.6520     2378.00000
    74.6651     2484.00000
    74.6782     2445.00000
    74.6914     2414.00000
    74.7045     2488.00000
    74.7176     2461.00000
    74.7308     2323.00000
    74.7439     2374.00000
    74.7570     2461.00000
    74.7701     2392.00000
    74.7833     2398.00000
    74.7964     2455.00000
    74.8095     2429.00000
    74.8227     2449.00000
    74.8358     2469.00000
    74.8489     2435.00000
    74.8621     2350.00000
    74.8752     2496.00000
    74.8883     2458.00000
    74.9015     2380.00000
    74.9146     2479.00000
    74.9277     2542.00000
    74.9408     2484.00000
    74.9540     2299.00000
    74.9671     2411.00000
    74.9802     2380.00000
    74.9934     2551.00000
    75.0065     2353.00000
    75.0196     2440.00000
    75.0328     2418.00000
    75.0459     2407.00000
    75.0590     2495.00000
    75.0722     2404.00000
    75.0853     2450.00000
    75.0984     2390.00000
    75.1115     2474.00000
    75.1247     2487.00000
    75.1378     2484.00000
    75.1509     2520.00000
    75.1641     2442.00000
    75.1772     2613.00000
    75.1903     2475.00000
    75.2035     2537.00000
    75.2166     2446.00000
    75.2297     2536.00000
    75.2428     2612.00000
    75.2560     2536.00000
    75.2691     2516.00000
    75.2822     2509.00000
    75.2954     2532.00000
    75.3085     2440.00000
    75.3216     2550.00000
    75.3348     2489.00000
    75.3479     2525.00000
    75.3610     2547.00000
    75.3741     2518.00000
    75.3873     2593.00000
    75.4004     2507.00000
    75.4135     2549.00000
    75.4267     2584.00000
    75.4398     2560.00000
    75.4529     2604.00000
    75.4661     2346.00000
    75.4792     2553.00000
    75.4923     2456.00000
    75.5054     2565.00000
    75.5186     2556.00000
    75.5317     2488.00000
    75.5448     2566.00000
    75.5580     2469.00000
    75.5711     2485.00000
    75.5842     2579.00000
    75.5974     2542.00000
    75.6105     2505.00000
    75.6236     2537.00000
    75.6367     2518.00000
    75.6499     2622.00000
    75.6630     2502.00000
    75.6761     2540.00000
    75.6893     2492.00000
    75.7024     2564.00000
    75.7155     2606.00000
    75.7287     2559.00000
    75.7418     2539.00000
    75.7549     2476.00000
    75.7681     2554.00000
    75.7812     2585.00000
    75.7943     2751.00000
    75.8074     2709.00000
    75.8206     2673.00000
    75.8337     2882.00000
    75.8468     2777.00000
    75.8600     2853.00000
    75.8731     2884.00000
    75.8862     2913.00000
    75.8994     3014.00000
    75.9125     2971.00000
    75.9256     2979.00000
    75.9387     3067.00000
    75.9519     3170.00000
    75.9650     3217.00000
    75.9781     3312.00000
    75.9913     3260.00000
    76.0044     3444.00000
    76.0175     3614.00000
    76.0307     3571.00000
    76.0438     3787.00000
    76.0569     4029.00000
    76.0701     4329.00000
    76.0832     4548.00000
    76.0963     4841.00000
    76.1094     4703.00000
    76.1226     4816.00000
    76.1357     4684.00000
    76.1488     4512.00000
    76.1620     4294.00000
    76.1751     4250.00000
    76.1882     3923.00000
    76.2014     3616.00000
    76.2145     3570.00000
    76.2276     3493.00000
    76.2407     3325.00000
    76.2539     3432.00000
    76.2670     3393.00000
    76.2801     3406.00000
    76.2933     3492.00000
    76.3064     3646.00000
    76.3195     3567.00000
    76.3327     3693.00000
    76.3458     3593.00000
    76.3589     3676.00000
    76.3720     3400.00000
    76.3852     3427.00000
    76.3983     3140.00000
    76.4114     3106.00000
    76.4246     3101.00000
    76.4377     2911.00000
    76.4508     2840.00000
    76.4640     2794.00000
    76.4771     2806.00000
    76.4902     2822.00000
    76.5033     2778.00000
    76.5165     2965.00000
    76.5296     2798.00000
    76.5427     2903.00000
    76.5559     2907.00000
    76.5690     3067.00000
    76.5821     3264.00000
    76.5953     3522.00000
    76.6084     3514.00000
    76.6215     3714.00000
    76.6347     3941.00000
    76.6478     4125.00000
    76.6609     4351.00000
    76.6740     4489.00000
    76.6872     4433.00000
    76.7003     4459.00000
    76.7134     4453.00000
    76.7266     4193.00000
    76.7397     4067.00000
    76.7528     3790.00000
    76.7660     3519.00000
    76.7791     3414.00000
    76.7922     3202.00000
    76.8053     3153.00000
    76.8185     3276.00000
    76.8316     3174.00000
    76.8447     3286.00000
    76.8579     3396.00000
    76.8710     3363.00000
    76.8841     3346.00000
    76.8973     3475.00000
    76.9104     3436.00000
    76.9235     3481.00000
    76.9366     3518.00000
    76.9498     3374.00000
    76.9629     3405.00000
    76.9760     3180.00000
    76.9892     3024.00000
    77.0023     2986.00000
    77.0154     2798.00000
    77.0286     2807.00000
    77.0417     2731.00000
    77.0548     2615.00000
    77.0679     2600.00000
    77.0811     2576.00000
    77.0942     2573.00000
    77.1073     2597.00000
    77.1205     2436.00000
    77.1336     2518.00000
    77.1467     2623.00000
    77.1599     2547.00000
    77.1730     2528.00000
    77.1861     2533.00000
    77.1993     2458.00000
    77.2124     2544.00000
    77.2255     2574.00000
    77.2386     2470.00000
    77.2518     2517.00000
    77.2649     2473.00000
    77.2780     2543.00000
    77.2912     2448.00000
    77.3043     2400.00000
    77.3174     2589.00000
    77.3306     2584.00000
    77.3437     2594.00000
    77.3568     2602.00000
    77.3699     2618.00000
    77.3831     2759.00000
    77.3962     2802.00000
    77.4093     2888.00000
    77.4225     2969.00000
    77.4356     2971.00000
    77.4487     3158.00000
    77.4619     3229.00000
    77.4750     3192.00000
    77.4881     3253.00000
    77.5013     3063.00000
    77.5144     3030.00000
    77.5275     2887.00000
    77.5406     2889.00000
    77.5538     2730.00000
    77.5669     2728.00000
    77.5800     2676.00000
    77.5932     2692.00000
    77.6063     2654.00000
    77.6194     2566.00000
    77.6326     2603.00000
    77.6457     2661.00000
    77.6588     2757.00000
    77.6719     2800.00000
    77.6851     2822.00000
    77.6982     2974.00000
    77.7113     2976.00000
    77.7245     2781.00000
    77.7376     2784.00000
    77.7507     2741.00000
    77.7639     2763.00000
    77.7770     2600.00000
    77.7901     2559.00000
    77.8032     2575.00000
    77.8164     2565.00000
    77.8295     2528.00000
    77.8426     2506.00000
    77.8558     2632.00000
    77.8689     2681.00000
    77.8820     2511.00000
    77.8952     2657.00000
    77.9083     2628.00000
    77.9214     2669.00000
    77.9345     2764.00000
    77.9477     2832.00000
    77.9608     2915.00000
    77.9739     2797.00000
    77.9871     2907.00000
    78.0002     2830.00000
    78.0133     2896.00000
    78.0265     2832.00000
    78.0396     2795.00000
    78.0527     2753.00000
    78.0658     2675.00000
    78.0790     2755.00000
    78.0921     2735.00000
    78.1052     2882.00000
    78.1184     3003.00000
    78.1315     3016.00000
    78.1446     3202.00000
    78.1578     3330.00000
    78.1709     3324.00000
    78.1840     3460.00000
    78.1972     3523.00000
    78.2103     3590.00000
    78.2234     3401.00000
    78.2365     3534.00000
    78.2497     3391.00000
    78.2628     3499.00000
    78.2759     3499.00000
    78.2891     3452.00000
    78.3022     3347.00000
    78.3153     3479.00000
    78.3285     3343.00000
    78.3416     3449.00000
    78.3547     3356.00000
    78.3679     3512.00000
    78.3810     3640.00000
    78.3941     3849.00000
    78.4072     4136.00000
    78.4204     4089.00000
    78.4335     4302.00000
    78.4466     4344.00000
    78.4598     4267.00000
    78.4729     4394.00000
    78.4860     4282.00000
    78.4992     4151.00000
    78.5123     4146.00000
    78.5254     4260.00000
    78.5385     4170.00000
    78.5517     4265.00000
    78.5648     4320.00000
    78.5779     4314.00000
    78.5911     4376.00000
    78.6042     4309.00000
    78.6173     4419.00000
    78.6305     4380.00000
    78.6436     4230.00000
    78.6567     4236.00000
    78.6698     4126.00000
    78.6830     4052.00000
    78.6961     3809.00000
    78.7092     3660.00000
    78.7224     3571.00000
    78.7355     3527.00000
    78.7486     3332.00000
    78.7618     3324.00000
    78.7749     3411.00000
    78.7880     3306.00000
    78.8011     3337.00000
    78.8143     3294.00000
    78.8274     3405.00000
    78.8405     3283.00000
    78.8537     3312.00000
    78.8668     3277.00000
    78.8799     3125.00000
    78.8931     3005.00000
    78.9062     3144.00000
    78.9193     3034.00000
    78.9324     2830.00000
    78.9456     2887.00000
    78.9587     2771.00000
    78.9718     2813.00000
    78.9850     2723.00000
    78.9981     2796.00000
    79.0112     2791.00000
    79.0244     2709.00000
    79.0375     2768.00000
    79.0506     2784.00000
    79.0638     2774.00000
    79.0769     2706.00000
    79.0900     2936.00000
    79.1031     2838.00000
    79.1163     2946.00000
    79.1294     3104.00000
    79.1425     3194.00000
    79.1557     3414.00000
    79.1688     3491.00000
    79.1819     3717.00000
    79.1951     3807.00000
    79.2082     4076.00000
    79.2213     4098.00000
    79.2345     3986.00000
    79.2476     3771.00000
    79.2607     3740.00000
    79.2738     3517.00000
    79.2870     3314.00000
    79.3001     3309.00000
    79.3132     3253.00000
    79.3264     3166.00000
    79.3395     3173.00000
    79.3526     3227.00000
    79.3658     3167.00000
    79.3789     3211.00000
    79.3920     3370.00000
    79.4051     3467.00000
    79.4183     3478.00000
    79.4314     3571.00000
    79.4445     3414.00000
    79.4577     3420.00000
    79.4708     3307.00000
    79.4839     3267.00000
    79.4971     3169.00000
    79.5102     3123.00000
    79.5233     2911.00000
    79.5364     3003.00000
    79.5496     3048.00000
    79.5627     2913.00000
    79.5758     2930.00000
    79.5890     3042.00000
    79.6021     2893.00000
    79.6152     2902.00000
    79.6284     2945.00000
    79.6415     2960.00000
    79.6546     3033.00000
    79.6677     3124.00000
    79.6809     2948.00000
    79.6940     3050.00000
    79.7071     3108.00000
    79.7203     3156.00000
    79.7334     3321.00000
    79.7465     3275.00000
    79.7597     3525.00000
    79.7728     3687.00000
    79.7859     3826.00000
    79.7990     4148.00000
    79.8122     4405.00000
    79.8253     4663.00000
    79.8384     4939.00000
    79.8516     4842.00000
    79.8647     4872.00000
    79.8778     4832.00000
    79.8910     4362.00000
    79.9041     4238.00000
    79.9172     3970.00000
    79.9304     3775.00000
    79.9435     3682.00000
    79.9566     3528.00000
    79.9697     3477.00000
    79.9829     3391.00000
    79.9960     3564.00000
    80.0091     3480.00000
    80.0223     3747.00000
    80.0354     3961.00000
    80.0485     4153.00000
    80.0617     4410.00000
    80.0748     4717.00000
    80.0879     4945.00000
    80.1010     5210.00000
    80.1142     5449.00000
    80.1273     5603.00000
    80.1404     5730.00000
    80.1536     5529.00000
    80.1667     5306.00000
    80.1798     5199.00000
    80.1930     5069.00000
    80.2061     5022.00000
    80.2192     5010.00000
    80.2323     5210.00000
    80.2455     5381.00000
    80.2586     5574.00000
    80.2717     5727.00000
    80.2849     5798.00000
    80.2980     5576.00000
    80.3111     5494.00000
    80.3243     5217.00000
    80.3374     5246.00000
    80.3505     5394.00000
    80.3637     5474.00000
    80.3768     5715.00000
    80.3899     5451.00000
    80.4030     5333.00000
    80.4162     5286.00000
    80.4293     5014.00000
    80.4424     4850.00000
    80.4556     4834.00000
    80.4687     4814.00000
    80.4818     4885.00000
    80.4950     4900.00000
    80.5081     5007.00000
    80.5212     4884.00000
    80.5343     4716.00000
    80.5475     4360.00000
    80.5606     4137.00000
    80.5737     4050.00000
    80.5869     3860.00000
    80.6000     3658.00000
    80.6131     3791.00000
    80.6263     3718.00000
    80.6394     3652.00000
    80.6525     3584.00000
    80.6656     3577.00000
    80.6788     3539.00000
    80.6919     3346.00000
    80.7050     3542.00000
    80.7182     3641.00000
    80.7313     3643.00000
    80.7444     3806.00000
    80.7576     3619.00000
    80.7707     3498.00000
    80.7838     3479.00000
    80.7970     3601.00000
    80.8101     3366.00000
    80.8232     3511.00000
    80.8363     3502.00000
    80.8495     3395.00000
    80.8626     3479.00000
    80.8757     3383.00000
    80.8889     3393.00000
    80.9020     3412.00000
    80.9151     3289.00000
    80.9283     3260.00000
    80.9414     3280.00000
    80.9545     3241.00000
    80.9676     3099.00000
    80.9808     3098.00000
    80.9939     3019.00000
    81.0070     2913.00000
    81.0202     2937.00000
    81.0333     2877.00000
    81.0464     2915.00000
    81.0596     2991.00000
    81.0727     2842.00000
    81.0858     2912.00000
    81.0989     2946.00000
    81.1121     2841.00000
    81.1252     2868.00000
    81.1383     2897.00000
    81.1515     2878.00000
    81.1646     2851.00000
    81.1777     2870.00000
    81.1909     2763.00000
    81.2040     2665.00000
    81.2171     2675.00000
    81.2302     2618.00000
    81.2434     2658.00000
    81.2565     2602.00000
    81.2696     2638.00000
    81.2828     2513.00000
    81.2959     2488.00000
    81.3090     2485.00000
    81.3222     2613.00000
    81.3353     2626.00000
    81.3484     2490.00000
    81.3616     2574.00000
    81.3747     2627.00000
    81.3878     2541.00000
    81.4009     2576.00000
    81.4141     2588.00000
    81.4272     2638.00000
    81.4403     2577.00000
    81.4535     2630.00000
    81.4666     2585.00000
    81.4797     2605.00000
    81.4929     2654.00000
    81.5060     2657.00000
    81.5191     2689.00000
    81.5322     2734.00000
    81.5454     2769.00000
    81.5585     2820.00000
    81.5716     2912.00000
    81.5848     2822.00000
    81.5979     3032.00000
    81.6110     3174.00000
    81.6242     3289.00000
    81.6373     3467.00000
    81.6504     3478.00000
    81.6636     3536.00000
    81.6767     3707.00000
    81.6898     3781.00000
    81.7029     3738.00000
    81.7161     3698.00000
    81.7292     3605.00000
    81.7423     3533.00000
    81.7555     3439.00000
    81.7686     3357.00000
    81.7817     3092.00000
    81.7949     3159.00000
    81.8080     3050.00000
    81.8211     3035.00000
    81.8342     3026.00000
    81.8474     2903.00000
    81.8605     2934.00000
    81.8736     3106.00000
    81.8868     2974.00000
    81.8999     3002.00000
    81.9130     3191.00000
    81.9262     3202.00000
    81.9393     3278.00000
    81.9524     3335.00000
    81.9655     3302.00000
    81.9787     3260.00000
    81.9918     3250.00000
    82.0049     3224.00000
    82.0181     3200.00000
    82.0312     3220.00000
    82.0443     3141.00000
    82.0575     3175.00000
    82.0706     2992.00000
    82.0837     3073.00000
    82.0968     3049.00000
    82.1100     3020.00000
    82.1231     2956.00000
    82.1362     2831.00000
    82.1494     2784.00000
    82.1625     2772.00000
    82.1756     2839.00000
    82.1888     2719.00000
    82.2019     2687.00000
    82.2150     2775.00000
    82.2281     2634.00000
    82.2413     2736.00000
    82.2544     2817.00000
    82.2675     2827.00000
    82.2807     2917.00000
    82.2938     2861.00000
    82.3069     2913.00000
    82.3201     2962.00000
    82.3332     2981.00000
    82.3463     2957.00000
    82.3595     3095.00000
    82.3726     3063.00000
    82.3857     3253.00000
    82.3988     3478.00000
    82.4120     3558.00000
    82.4251     3858.00000
    82.4382     3811.00000
    82.4514     3581.00000
    82.4645     3381.00000
    82.4776     3115.00000
    82.4908     2976.00000
    82.5039     2891.00000
    82.5170     2752.00000
    82.5302     2768.00000
    82.5433     2765.00000
    82.5564     2748.00000
    82.5695     2630.00000
    82.5827     2695.00000
    82.5958     2721.00000
    82.6089     2793.00000
    82.6221     2767.00000
    82.6352     2815.00000
    82.6483     2942.00000
    82.6615     2937.00000
    82.6746     2997.00000
    82.6877     3015.00000
    82.7008     3094.00000
    82.7140     2928.00000
    82.7271     2831.00000
    82.7402     2795.00000
    82.7534     2675.00000
    82.7665     2646.00000
    82.7796     2635.00000
    82.7928     2647.00000
    82.8059     2571.00000
    82.8190     2637.00000
    82.8321     2625.00000
    82.8453     2662.00000
    82.8584     2654.00000
    82.8715     2472.00000
    82.8847     2478.00000
    82.8978     2467.00000
    82.9109     2488.00000
    82.9241     2617.00000
    82.9372     2600.00000
    82.9503     2533.00000
    82.9634     2629.00000
    82.9766     2635.00000
    82.9897     2563.00000
    83.0028     2729.00000
    83.0160     2699.00000
    83.0291     2826.00000
    83.0422     2783.00000
    83.0554     2738.00000
    83.0685     2655.00000
    83.0816     2771.00000
    83.0947     2788.00000
    83.1079     2725.00000
    83.1210     2853.00000
    83.1341     2693.00000
    83.1473     2794.00000
    83.1604     2622.00000
    83.1735     2676.00000
    83.1867     2690.00000
    83.1998     2858.00000
    83.2129     2743.00000
    83.2261     2736.00000
    83.2392     2784.00000
    83.2523     2883.00000
    83.2654     2920.00000
    83.2786     2963.00000
    83.2917     3209.00000
    83.3048     3309.00000
    83.3180     3315.00000
    83.3311     3482.00000
    83.3442     3444.00000
    83.3574     3494.00000
    83.3705     3517.00000
    83.3836     3306.00000
    83.3967     3131.00000
    83.4099     3069.00000
    83.4230     2993.00000
    83.4361     2795.00000
    83.4493     2764.00000
    83.4624     2774.00000
    83.4755     2724.00000
    83.4887     2689.00000
    83.5018     2547.00000
    83.5149     2667.00000
    83.5281     2675.00000
    83.5412     2714.00000
    83.5543     2660.00000
    83.5674     2816.00000
    83.5806     2899.00000
    83.5937     2840.00000
    83.6068     2914.00000
    83.6200     2823.00000
    83.6331     2841.00000
    83.6462     2788.00000
    83.6594     2704.00000
    83.6725     2653.00000
    83.6856     2577.00000
    83.6987     2534.00000
    83.7119     2556.00000
    83.7250     2413.00000
    83.7381     2509.00000
    83.7513     2518.00000
    83.7644     2433.00000
    83.7775     2545.00000
    83.7907     2422.00000
    83.8038     2406.00000
    83.8169     2454.00000
    83.8300     2399.00000
    83.8432     2438.00000
    83.8563     2519.00000
    83.8694     2420.00000
    83.8826     2434.00000
    83.8957     2434.00000
    83.9088     2502.00000
    83.9220     2495.00000
    83.9351     2454.00000
    83.9482     2392.00000
    83.9613     2412.00000
    83.9745     2424.00000
    83.9876     2445.00000
    84.0007     2431.00000
    84.0139     2421.00000
    84.0270     2410.00000
    84.0401     2481.00000
    84.0533     2505.00000
    84.0664     2489.00000
    84.0795     2410.00000
    84.0927     2449.00000
    84.1058     2439.00000
    84.1189     2434.00000
    84.1320     2461.00000
    84.1452     2509.00000
    84.1583     2386.00000
    84.1714     2457.00000
    84.1846     2440.00000
    84.1977     2462.00000
    84.2108     2503.00000
    84.2240     2608.00000
    84.2371     2527.00000
    84.2502     2589.00000
    84.2633     2544.00000
    84.2765     2578.00000
    84.2896     2570.00000
    84.3027     2563.00000
    84.3159     2675.00000
    84.3290     2606.00000
    84.3421     2677.00000
    84.3553     2579.00000
    84.3684     2734.00000
    84.3815     2676.00000
    84.3946     2554.00000
    84.4078     2598.00000
    84.4209     2618.00000
    84.4340     2623.00000
    84.4472     2542.00000
    84.4603     2573.00000
    84.4734     2391.00000
    84.4866     2626.00000
    84.4997     2420.00000
    84.5128     2451.00000
    84.5260     2492.00000
    84.5391     2505.00000
    84.5522     2569.00000
    84.5653     2575.00000
    84.5785     2443.00000
    84.5916     2492.00000
    84.6047     2570.00000
    84.6179     2604.00000
    84.6310     2462.00000
    84.6441     2599.00000
    84.6573     2666.00000
    84.6704     2521.00000
    84.6835     2451.00000
    84.6966     2547.00000
    84.7098     2552.00000
    84.7229     2567.00000
    84.7360     2552.00000
    84.7492     2569.00000
    84.7623     2445.00000
    84.7754     2529.00000
    84.7886     2491.00000
    84.8017     2514.00000
    84.8148     2539.00000
    84.8279     2402.00000
    84.8411     2491.00000
    84.8542     2511.00000
    84.8673     2482.00000
    84.8805     2574.00000
    84.8936     2598.00000
    84.9067     2574.00000
    84.9199     2498.00000
    84.9330     2649.00000
    84.9461     2564.00000
    84.9593     2644.00000
    84.9724     2696.00000
    84.9855     2764.00000
    84.9986     2895.00000
    85.0118     2972.00000
    85.0249     2989.00000
    85.0380     3032.00000
    85.0512     3093.00000
    85.0643     2992.00000
    85.0774     3020.00000
    85.0906     3143.00000
    85.1037     3054.00000
    85.1168     3169.00000
    85.1299     3298.00000
    85.1431     3286.00000
    85.1562     3394.00000
    85.1693     3233.00000
    85.1825     3274.00000
    85.1956     3320.00000
    85.2087     3273.00000
    85.2219     3441.00000
    85.2350     3566.00000
    85.2481     3653.00000
    85.2612     3781.00000
    85.2744     3798.00000
    85.2875     3896.00000
    85.3006     3980.00000
    85.3138     4166.00000
    85.3269     4334.00000
    85.3400     4372.00000
    85.3532     4297.00000
    85.3663     4349.00000
    85.3794     4239.00000
    85.3925     3949.00000
    85.4057     3808.00000
    85.4188     3664.00000
    85.4319     3567.00000
    85.4451     3394.00000
    85.4582     3441.00000
    85.4713     3524.00000
    85.4845     3279.00000
    85.4976     3330.00000
    85.5107     3331.00000
    85.5238     3164.00000
    85.5370     3299.00000
    85.5501     3218.00000
    85.5632     3200.00000
    85.5764     3246.00000
    85.5895     3267.00000
    85.6026     3351.00000
    85.6158     3391.00000
    85.6289     3276.00000
    85.6420     3300.00000
    85.6552     3007.00000
    85.6683     3026.00000
    85.6814     2927.00000
    85.6945     2795.00000
    85.7077     2805.00000
    85.7208     2821.00000
    85.7339     2730.00000
    85.7471     2800.00000
    85.7602     2689.00000
    85.7733     2653.00000
    85.7865     2602.00000
    85.7996     2659.00000
    85.8127     2621.00000
    85.8259     2634.00000
    85.8390     2525.00000
    85.8521     2568.00000
    85.8652     2507.00000
    85.8784     2648.00000
    85.8915     2545.00000
    85.9046     2611.00000
    85.9178     2557.00000
    85.9309     2652.00000
    85.9440     2717.00000
    85.9572     2688.00000
    85.9703     2823.00000
    85.9834     2954.00000
    85.9965     2971.00000
    86.0097     3097.00000
    86.0228     3255.00000
    86.0359     3044.00000
    86.0491     3186.00000
    86.0622     3015.00000
    86.0753     2925.00000
    86.0885     2852.00000
    86.1016     2803.00000
    86.1147     2850.00000
    86.1278     2720.00000
    86.1410     2649.00000
    86.1541     2677.00000
    86.1672     2647.00000
    86.1804     2576.00000
    86.1935     2591.00000
    86.2066     2655.00000
    86.2198     2726.00000
    86.2329     2655.00000
    86.2460     2641.00000
    86.2591     2793.00000
    86.2723     2846.00000
    86.2854     2717.00000
    86.2985     2797.00000
    86.3117     2786.00000
    86.3248     2714.00000
    86.3379     2779.00000
    86.3511     2733.00000
    86.3642     2712.00000
    86.3773     2762.00000
    86.3904     2648.00000
    86.4036     2624.00000
    86.4167     2678.00000
    86.4298     2694.00000
    86.4430     2704.00000
    86.4561     2699.00000
    86.4692     2721.00000
    86.4824     2824.00000
    86.4955     2853.00000
    86.5086     2991.00000
    86.5218     3072.00000
    86.5349     3232.00000
    86.5480     3322.00000
    86.5611     3319.00000
    86.5743     3305.00000
    86.5874     3206.00000
    86.6005     3173.00000
    86.6137     3134.00000
    86.6268     2896.00000
    86.6399     2743.00000
    86.6531     2793.00000
    86.6662     2882.00000
    86.6793     2691.00000
    86.6925     2720.00000
    86.7056     2663.00000
    86.7187     2634.00000
    86.7318     2738.00000
    86.7450     2668.00000
    86.7581     2680.00000
    86.7712     2756.00000
    86.7844     2815.00000
    86.7975     2914.00000
    86.8106     2919.00000
    86.8238     2957.00000
    86.8369     2981.00000
    86.8500     2991.00000
    86.8631     2948.00000
    86.8763     2849.00000
    86.8894     2883.00000
    86.9025     2764.00000
    86.9157     2879.00000
    86.9288     2813.00000
    86.9419     2811.00000
    86.9551     2834.00000
    86.9682     2872.00000
    86.9813     2957.00000
    86.9944     3148.00000
    87.0076     3226.00000
    87.0207     3361.00000
    87.0338     3345.00000
    87.0470     3468.00000
    87.0601     3454.00000
    87.0732     3427.00000
    87.0864     3512.00000
    87.0995     3335.00000
    87.1126     3235.00000
    87.1257     3200.00000
    87.1389     3010.00000
    87.1520     2969.00000
    87.1651     2881.00000
    87.1783     2834.00000
    87.1914     2789.00000
    87.2045     2820.00000
    87.2177     2729.00000
    87.2308     2777.00000
    87.2439     2820.00000
    87.2570     2844.00000
    87.2702     2887.00000
    87.2833     2944.00000
    87.2964     2880.00000
    87.3096     3038.00000
    87.3227     2993.00000
    87.3358     3039.00000
    87.3490     2958.00000
    87.3621     3012.00000
    87.3752     3041.00000
    87.3884     2917.00000
    87.4015     2900.00000
    87.4146     2837.00000
    87.4277     2829.00000
    87.4409     2821.00000
    87.4540     2744.00000
    87.4671     2817.00000
    87.4803     2799.00000
    87.4934     2881.00000
    87.5065     2809.00000
    87.5197     2855.00000
    87.5328     2874.00000
    87.5459     2963.00000
    87.5590     3089.00000
    87.5722     3111.00000
    87.5853     3273.00000
    87.5984     3555.00000
    87.6116     3662.00000
    87.6247     3758.00000
    87.6378     3406.00000
    87.6510     3389.00000
    87.6641     3256.00000
    87.6772     3150.00000
    87.6904     3004.00000
    87.7035     2916.00000
    87.7166     2891.00000
    87.7297     2892.00000
    87.7429     2787.00000
    87.7560     2722.00000
    87.7691     2848.00000
    87.7823     2842.00000
    87.7954     2725.00000
    87.8085     2850.00000
    87.8217     2793.00000
    87.8348     2913.00000
    87.8479     3011.00000
    87.8610     2924.00000
    87.8742     3077.00000
    87.8873     3184.00000
    87.9004     3285.00000
    87.9136     3160.00000
    87.9267     3213.00000
    87.9398     3191.00000
    87.9530     3276.00000
    87.9661     3278.00000
    87.9792     3462.00000
    87.9923     3628.00000
    88.0055     3728.00000
    88.0186     3744.00000
    88.0317     3824.00000
    88.0449     3851.00000
    88.0580     3813.00000
    88.0711     3686.00000
    88.0843     3616.00000
    88.0974     3425.00000
    88.1105     3279.00000
    88.1236     3128.00000
    88.1368     2926.00000
    88.1499     2826.00000
    88.1630     2811.00000
    88.1762     2868.00000
    88.1893     2797.00000
    88.2024     2892.00000
    88.2156     2777.00000
    88.2287     2992.00000
    88.2418     3078.00000
    88.2550     3028.00000
    88.2681     3227.00000
    88.2812     3311.00000
    88.2943     3330.00000
    88.3075     3388.00000
    88.3206     3464.00000
    88.3337     3348.00000
    88.3469     3329.00000
    88.3600     3246.00000
    88.3731     3153.00000
    88.3863     3041.00000
    88.3994     3000.00000
    88.4125     2887.00000
    88.4256     2637.00000
    88.4388     2802.00000
    88.4519     2772.00000
    88.4650     2641.00000
    88.4782     2584.00000
    88.4913     2592.00000
    88.5044     2659.00000
    88.5176     2750.00000
    88.5307     2684.00000
    88.5438     2657.00000
    88.5569     2607.00000
    88.5701     2614.00000
    88.5832     2556.00000
    88.5963     2614.00000
    88.6095     2588.00000
    88.6226     2616.00000
    88.6357     2586.00000
    88.6489     2570.00000
    88.6620     2638.00000
    88.6751     2679.00000
    88.6882     2643.00000
    88.7014     2595.00000
    88.7145     2688.00000
    88.7276     2638.00000
    88.7408     2671.00000
    88.7539     2729.00000
    88.7670     2780.00000
    88.7802     2783.00000
    88.7933     2876.00000
    88.8064     3080.00000
    88.8196     3002.00000
    88.8327     3209.00000
    88.8458     3274.00000
    88.8589     3336.00000
    88.8721     3280.00000
    88.8852     3250.00000
    88.8983     3225.00000
    88.9115     3075.00000
    88.9246     3066.00000
    88.9377     2947.00000
    88.9509     2858.00000
    88.9640     2882.00000
    88.9771     2790.00000
    88.9902     2773.00000
    89.0034     2765.00000
    89.0165     2845.00000
    89.0296     2659.00000
    89.0428     2781.00000
    89.0559     2772.00000
    89.0690     2698.00000
    89.0822     2744.00000
    89.0953     2976.00000
    89.1084     2873.00000
    89.1216     2932.00000
    89.1347     2871.00000
    89.1478     3043.00000
    89.1609     3073.00000
    89.1741     3033.00000
    89.1872     3103.00000
    89.2003     3019.00000
    89.2135     3026.00000
    89.2266     2952.00000
    89.2397     2980.00000
    89.2529     2967.00000
    89.2660     2882.00000
    89.2791     2894.00000
    89.2922     2866.00000
    89.3054     2749.00000
    89.3185     2827.00000
    89.3316     2734.00000
    89.3448     2606.00000
    89.3579     2607.00000
    89.3710     2616.00000
    89.3842     2549.00000
    89.3973     2652.00000
    89.4104     2607.00000
    89.4235     2651.00000
    89.4367     2503.00000
    89.4498     2579.00000
    89.4629     2636.00000
    89.4761     2655.00000
    89.4892     2696.00000
    89.5023     2576.00000
    89.5155     2582.00000
    89.5286     2713.00000
    89.5417     2636.00000
    89.5548     2712.00000
    89.5680     2773.00000
    89.5811     2677.00000
    89.5942     2881.00000
    89.6074     2779.00000
    89.6205     2807.00000
    89.6336     2752.00000
    89.6468     2858.00000
    89.6599     2950.00000
    89.6730     2974.00000
    89.6861     3036.00000
    89.6993     3224.00000
    89.7124     3300.00000
    89.7255     3583.00000
    89.7387     3556.00000
    89.7518     3609.00000
    89.7649     3806.00000
    89.7781     3623.00000
    89.7912     3367.00000
    89.8043     3292.00000
    89.8175     3262.00000
    89.8306     3344.00000
    89.8437     3264.00000
    89.8568     3260.00000
    89.8700     3251.00000
    89.8831     3325.00000
    89.8962     3485.00000
    89.9094     3474.00000
    89.9225     3529.00000
    89.9356     3493.00000
    89.9488     3629.00000
    89.9619     3616.00000
    89.9750     3630.00000
    89.9882     3708.00000
    90.0013     3680.00000
    90.0144     3567.00000
    90.0275     3593.00000
    90.0407     3637.00000
    90.0538     3447.00000
    90.0669     3257.00000
    90.0801     3190.00000
    90.0932     3177.00000
    90.1063     3006.00000
    90.1195     3101.00000
    90.1326     3051.00000
    90.1457     3125.00000
    90.1588     3132.00000
    90.1720     3242.00000
    90.1851     3218.00000
    90.1982     3281.00000
    90.2114     3491.00000
    90.2245     3451.00000
    90.2376     3653.00000
    90.2508     3740.00000
    90.2639     3637.00000
    90.2770     3563.00000
    90.2901     3339.00000
    90.3033     3170.00000
    90.3164     3125.00000
    90.3295     3020.00000
    90.3427     2886.00000
    90.3558     2877.00000
    90.3689     2748.00000
    90.3821     2753.00000
    90.3952     2676.00000
    90.4083     2600.00000
    90.4214     2645.00000
    90.4346     2716.00000
    90.4477     2784.00000
    90.4608     2774.00000
    90.4740     2812.00000
    90.4871     2882.00000
    90.5002     2919.00000
    90.5134     2973.00000
    90.5265     2956.00000
    90.5396     3135.00000
    90.5527     3035.00000
    90.5659     3019.00000
    90.5790     3005.00000
    90.5921     3025.00000
    90.6053     2931.00000
    90.6184     2913.00000
    90.6315     2968.00000
    90.6447     2942.00000
    90.6578     2912.00000
    90.6709     3016.00000
    90.6841     3055.00000
    90.6972     3057.00000
    90.7103     3026.00000
    90.7234     3210.00000
    90.7366     3160.00000
    90.7497     3155.00000
    90.7628     3036.00000
    90.7760     2989.00000
    90.7891     2888.00000
    90.8022     2802.00000
    90.8154     2751.00000
    90.8285     2818.00000
    90.8416     2809.00000
    90.8548     2744.00000
    90.8679     2736.00000
    90.8810     2681.00000
    90.8941     2791.00000
    90.9073     2788.00000
    90.9204     2870.00000
    90.9335     2856.00000
    90.9467     2950.00000
    90.9598     2873.00000
    90.9729     2871.00000
    90.9861     3015.00000
    90.9992     3124.00000
    91.0123     3180.00000
    91.0254     3221.00000
    91.0386     3295.00000
    91.0517     3330.00000
    91.0648     3403.00000
    91.0780     3514.00000
    91.0911     3375.00000
    91.1042     3526.00000
    91.1174     3447.00000
    91.1305     3567.00000
    91.1436     3472.00000
    91.1567     3470.00000
    91.1699     3366.00000
    91.1830     3322.00000
    91.1961     3242.00000
    91.2093     3196.00000
    91.2224     2995.00000
    91.2355     2952.00000
    91.2487     2931.00000
    91.2618     2871.00000
    91.2749     2929.00000
    91.2880     2840.00000
    91.3012     2943.00000
    91.3143     3148.00000
    91.3274     3110.00000
    91.3406     3180.00000
    91.3537     3368.00000
    91.3668     3437.00000
    91.3800     3449.00000
    91.3931     3607.00000
    91.4062     3714.00000
    91.4193     3801.00000
    91.4325     3901.00000
    91.4456     4004.00000
    91.4587     4059.00000
    91.4719     4102.00000
    91.4850     4133.00000
    91.4981     4199.00000
    91.5113     3970.00000
    91.5244     3746.00000
    91.5375     3583.00000
    91.5507     3413.00000
    91.5638     3208.00000
    91.5769     3130.00000
    91.5900     3071.00000
    91.6032     3000.00000
    91.6163     2889.00000
    91.6294     2883.00000
    91.6426     2939.00000
    91.6557     3019.00000
    91.6688     2926.00000
    91.6820     3076.00000
    91.6951     3138.00000
    91.7082     3291.00000
    91.7213     3101.00000
    91.7345     3272.00000
    91.7476     3340.00000
    91.7607     3261.00000
    91.7739     3266.00000
    91.7870     3282.00000
    91.8001     3122.00000
    91.8133     3161.00000
    91.8264     2878.00000
    91.8395     2896.00000
    91.8526     2846.00000
    91.8658     2776.00000
    91.8789     2788.00000
    91.8920     2809.00000
    91.9052     2705.00000
    91.9183     2693.00000
    91.9314     2720.00000
    91.9446     2670.00000
    91.9577     2862.00000
    91.9708     2756.00000
    91.9840     2827.00000
    91.9971     2866.00000
    92.0102     2938.00000
    92.0233     2948.00000
    92.0365     3007.00000
    92.0496     3098.00000
    92.0627     3018.00000
    92.0759     3068.00000
    92.0890     3010.00000
    92.1021     2977.00000
    92.1153     2947.00000
    92.1284     3027.00000
    92.1415     2910.00000
    92.1546     2797.00000
    92.1678     3055.00000
    92.1809     2820.00000
    92.1940     3014.00000
    92.2072     2963.00000
    92.2203     3119.00000
    92.2334     3096.00000
    92.2466     2978.00000
    92.2597     3008.00000
    92.2728     3049.00000
    92.2859     3090.00000
    92.2991     3142.00000
    92.3122     3192.00000
    92.3253     3291.00000
    92.3385     3471.00000
    92.3516     3535.00000
    92.3647     3630.00000
    92.3779     3746.00000
    92.3910     3795.00000
    92.4041     3786.00000
    92.4173     3790.00000
    92.4304     3577.00000
    92.4435     3538.00000
    92.4566     3324.00000
    92.4698     3162.00000
    92.4829     3150.00000
    92.4960     3020.00000
    92.5092     2980.00000
    92.5223     2964.00000
    92.5354     2966.00000
    92.5486     2841.00000
    92.5617     2834.00000
    92.5748     2854.00000
    92.5879     2824.00000
    92.6011     2853.00000
    92.6142     2830.00000
    92.6273     2842.00000
    92.6405     2850.00000
    92.6536     2982.00000
    92.6667     3038.00000
    92.6799     3056.00000
    92.6930     3023.00000
    92.7061     2999.00000
    92.7192     2913.00000
    92.7324     2922.00000
    92.7455     2879.00000
    92.7586     2724.00000
    92.7718     2652.00000
    92.7849     2696.00000
    92.7980     2633.00000
    92.8112     2544.00000
    92.8243     2578.00000
    92.8374     2553.00000
    92.8505     2570.00000
    92.8637     2570.00000
    92.8768     2572.00000
    92.8899     2504.00000
    92.9031     2521.00000
    92.9162     2500.00000
    92.9293     2510.00000
    92.9425     2445.00000
    92.9556     2439.00000
    92.9687     2505.00000
    92.9819     2459.00000
    92.9950     2559.00000
    93.0081     2530.00000
    93.0212     2491.00000
    93.0344     2464.00000
    93.0475     2360.00000
    93.0606     2407.00000
    93.0738     2434.00000
    93.0869     2479.00000
    93.1000     2379.00000
    93.1132     2485.00000
    93.1263     2440.00000
    93.1394     2484.00000
    93.1525     2386.00000
    93.1657     2415.00000
    93.1788     2415.00000
    93.1919     2396.00000
    93.2051     2532.00000
    93.2182     2418.00000
    93.2313     2506.00000
    93.2445     2478.00000
    93.2576     2389.00000
    93.2707     2427.00000
    93.2839     2468.00000
    93.2970     2505.00000
    93.3101     2489.00000
    93.3232     2478.00000
    93.3364     2525.00000
    93.3495     2571.00000
    93.3626     2692.00000
    93.3758     2636.00000
    93.3889     2596.00000
    93.4020     2676.00000
    93.4152     2798.00000
    93.4283     3022.00000
    93.4414     3045.00000
    93.4545     3130.00000
    93.4677     3070.00000
    93.4808     3136.00000
    93.4939     3186.00000
    93.5071     2965.00000
    93.5202     2953.00000
    93.5333     2905.00000
    93.5465     2846.00000
    93.5596     2881.00000
    93.5727     2820.00000
    93.5858     2742.00000
    93.5990     2781.00000
    93.6121     2735.00000
    93.6252     2791.00000
    93.6384     2860.00000
    93.6515     2859.00000
    93.6646     2839.00000
    93.6778     2909.00000
    93.6909     2842.00000
    93.7040     2986.00000
    93.7171     2896.00000
    93.7303     2975.00000
    93.7434     2980.00000
    93.7565     2959.00000
    93.7697     3053.00000
    93.7828     2865.00000
    93.7959     2874.00000
    93.8091     2974.00000
    93.8222     2804.00000
    93.8353     2772.00000
    93.8484     2846.00000
    93.8616     2778.00000
    93.8747     2598.00000
    93.8878     2653.00000
    93.9010     2791.00000
    93.9141     2613.00000
    93.9272     2584.00000
    93.9404     2632.00000
    93.9535     2637.00000
    93.9666     2574.00000
    93.9798     2609.00000
    93.9929     2660.00000
    94.0060     2667.00000
    94.0191     2780.00000
    94.0323     2764.00000
    94.0454     2642.00000
    94.0585     2605.00000
    94.0717     2668.00000
    94.0848     2630.00000
    94.0979     2778.00000
    94.1111     2693.00000
    94.1242     2736.00000
    94.1373     2727.00000
    94.1505     2777.00000
    94.1636     2857.00000
    94.1767     2916.00000
    94.1898     3095.00000
    94.2030     3138.00000
    94.2161     3034.00000
    94.2292     3118.00000
    94.2424     3006.00000
    94.2555     2889.00000
    94.2686     2966.00000
    94.2818     2905.00000
    94.2949     2969.00000
    94.3080     2952.00000
    94.3211     2893.00000
    94.3343     3017.00000
    94.3474     3054.00000
    94.3605     3146.00000
    94.3737     3191.00000
    94.3868     3159.00000
    94.3999     3249.00000
    94.4131     3230.00000
    94.4262     3150.00000
    94.4393     3137.00000
    94.4524     3025.00000
    94.4656     2987.00000
    94.4787     2988.00000
    94.4918     2761.00000
    94.5050     2861.00000
    94.5181     2826.00000
    94.5312     2891.00000
    94.5444     2839.00000
    94.5575     2890.00000
    94.5706     2835.00000
    94.5837     2811.00000
    94.5969     2794.00000
    94.6100     2747.00000
    94.6231     2780.00000
    94.6363     2624.00000
    94.6494     2695.00000
    94.6625     2738.00000
    94.6757     2771.00000
    94.6888     2759.00000
    94.7019     2725.00000
    94.7150     2722.00000
    94.7282     2892.00000
    94.7413     2845.00000
    94.7544     2759.00000
    94.7676     2681.00000
    94.7807     2679.00000
    94.7938     2558.00000
    94.8070     2603.00000
    94.8201     2561.00000
    94.8332     2529.00000
    94.8464     2383.00000
    94.8595     2458.00000
    94.8726     2474.00000
    94.8857     2449.00000
    94.8989     2497.00000
    94.9120     2468.00000
    94.9251     2504.00000
    94.9383     2361.00000
    94.9514     2421.00000
    94.9645     2345.00000
    94.9777     2428.00000
    94.9908     2463.00000
    95.0039     2414.00000
    95.0170     2477.00000
    95.0302     2419.00000
    95.0433     2505.00000
    95.0564     2530.00000
    95.0696     2515.00000
    95.0827     2459.00000
    95.0958     2386.00000
    95.1090     2504.00000
    95.1221     2554.00000
    95.1352     2499.00000
    95.1484     2402.00000
    95.1615     2406.00000
    95.1746     2407.00000
    95.1877     2377.00000
    95.2009     2410.00000
    95.2140     2430.00000
    95.2271     2431.00000
    95.2403     2446.00000
    95.2534     2337.00000
    95.2665     2445.00000
    95.2797     2404.00000
    95.2928     2430.00000
    95.3059     2349.00000
    95.3190     2430.00000
    95.3322     2454.00000
    95.3453     2464.00000
    95.3584     2463.00000
    95.3716     2464.00000
    95.3847     2437.00000
    95.3978     2462.00000
    95.4110     2484.00000
    95.4241     2409.00000
    95.4372     2391.00000
    95.4503     2501.00000
    95.4635     2451.00000
    95.4766     2560.00000
    95.4897     2411.00000
    95.5029     2540.00000
    95.5160     2430.00000
    95.5291     2445.00000
    95.5423     2417.00000
    95.5554     2487.00000
    95.5685     2433.00000
    95.5816     2451.00000
    95.5948     2419.00000
    95.6079     2509.00000
    95.6210     2479.00000
    95.6342     2399.00000
    95.6473     2530.00000
    95.6604     2488.00000
    95.6736     2530.00000
    95.6867     2570.00000
    95.6998     2567.00000
    95.7130     2577.00000
    95.7261     2531.00000
    95.7392     2605.00000
    95.7523     2590.00000
    95.7655     2516.00000
    95.7786     2479.00000
    95.7917     2468.00000
    95.8049     2594.00000
    95.8180     2550.00000
    95.8311     2471.00000
    95.8443     2468.00000
    95.8574     2391.00000
    95.8705     2476.00000
    95.8836     2481.00000
    95.8968     2563.00000
    95.9099     2509.00000
    95.9230     2444.00000
    95.9362     2515.00000
    95.9493     2438.00000
    95.9624     2452.00000
    95.9756     2523.00000
    95.9887     2529.00000
    96.0018     2441.00000
    96.0149     2517.00000
    96.0281     2527.00000
    96.0412     2574.00000
    96.0543     2525.00000
    96.0675     2511.00000
    96.0806     2558.00000
    96.0937     2556.00000
    96.1069     2525.00000
    96.1200     2555.00000
    96.1331     2593.00000
    96.1463     2556.00000
    96.1594     2597.00000
    96.1725     2611.00000
    96.1856     2768.00000
    96.1988     2770.00000
    96.2119     2705.00000
    96.2250     2903.00000
    96.2382     3051.00000
    96.2513     3047.00000
    96.2644     3147.00000
    96.2776     3472.00000
    96.2907     3517.00000
    96.3038     3406.00000
    96.3169     3505.00000
    96.3301     3534.00000
    96.3432     3480.00000
    96.3563     3346.00000
    96.3695     3193.00000
    96.3826     3175.00000
    96.3957     3186.00000
    96.4089     3204.00000
    96.4220     3260.00000
    96.4351     3277.00000
    96.4482     3334.00000
    96.4614     3391.00000
    96.4745     3449.00000
    96.4876     3418.00000
    96.5008     3616.00000
    96.5139     3567.00000
    96.5270     3470.00000
    96.5402     3415.00000
    96.5533     3320.00000
    96.5664     3298.00000
    96.5796     3267.00000
    96.5927     3221.00000
    96.6058     3369.00000
    96.6189     3250.00000
    96.6321     3148.00000
    96.6452     3264.00000
    96.6583     3188.00000
    96.6715     3124.00000
    96.6846     3156.00000
    96.6977     2978.00000
    96.7109     2990.00000
    96.7240     2938.00000
    96.7371     2869.00000
    96.7502     2925.00000
    96.7634     2845.00000
    96.7765     2920.00000
    96.7896     2972.00000
    96.8028     2955.00000
    96.8159     3017.00000
    96.8290     2930.00000
    96.8422     3076.00000
    96.8553     2919.00000
    96.8684     2834.00000
    96.8815     2756.00000
    96.8947     2653.00000
    96.9078     2644.00000
    96.9209     2650.00000
    96.9341     2598.00000
    96.9472     2603.00000
    96.9603     2554.00000
    96.9735     2632.00000
    96.9866     2586.00000
    96.9997     2495.00000
    97.0128     2636.00000
    97.0260     2533.00000
    97.0391     2507.00000
    97.0522     2557.00000
    97.0654     2553.00000
    97.0785     2554.00000
    97.0916     2517.00000
    97.1048     2489.00000
    97.1179     2579.00000
    97.1310     2602.00000
    97.1442     2417.00000
    97.1573     2598.00000
    97.1704     2656.00000
    97.1835     2619.00000
    97.1967     2645.00000
    97.2098     2717.00000
    97.2229     2827.00000
    97.2361     2884.00000
    97.2492     2971.00000
    97.2623     3004.00000
    97.2755     3069.00000
    97.2886     3200.00000
    97.3017     3225.00000
    97.3148     3384.00000
    97.3280     3455.00000
    97.3411     3381.00000
    97.3542     3402.00000
    97.3674     3371.00000
    97.3805     3297.00000
    97.3936     3156.00000
    97.4068     3264.00000
    97.4199     3259.00000
    97.4330     3103.00000
    97.4462     2967.00000
    97.4593     3043.00000
    97.4724     2972.00000
    97.4855     2841.00000
    97.4987     2829.00000
    97.5118     2774.00000
    97.5249     2809.00000
    97.5381     2691.00000
    97.5512     2696.00000
    97.5643     2739.00000
    97.5775     2899.00000
    97.5906     2865.00000
    97.6037     2732.00000
    97.6168     2865.00000
    97.6300     2894.00000
    97.6431     3008.00000
    97.6562     2916.00000
    97.6694     2959.00000
    97.6825     2920.00000
    97.6956     2853.00000
    97.7088     2967.00000
    97.7219     2830.00000
    97.7350     2870.00000
    97.7481     2785.00000
    97.7613     2877.00000
    97.7744     2770.00000
    97.7875     2712.00000
    97.8007     2560.00000
    97.8138     2585.00000
    97.8269     2709.00000
    97.8401     2558.00000
    97.8532     2545.00000
    97.8663     2579.00000
    97.8794     2639.00000
    97.8926     2550.00000
    97.9057     2643.00000
    97.9188     2511.00000
    97.9320     2509.00000
    97.9451     2619.00000
    97.9582     2478.00000
    97.9714     2559.00000
    97.9845     2616.00000
    97.9976     2594.00000
    98.0107     2623.00000
    98.0239     2648.00000
    98.0370     2692.00000
    98.0501     2708.00000
    98.0633     2768.00000
    98.0764     2860.00000
    98.0895     2891.00000
    98.1027     2876.00000
    98.1158     2934.00000
    98.1289     2924.00000
    98.1421     3061.00000
    98.1552     3006.00000
    98.1683     3019.00000
    98.1814     2951.00000
    98.1946     3060.00000
    98.2077     3019.00000
    98.2208     3073.00000
    98.2340     3059.00000
    98.2471     3071.00000
    98.2602     3146.00000
    98.2734     3218.00000
    98.2865     3233.00000
    98.2996     3288.00000
    98.3128     3239.00000
    98.3259     3453.00000
    98.3390     3231.00000
    98.3521     3361.00000
    98.3653     3588.00000
    98.3784     3683.00000
    98.3915     3682.00000
    98.4047     3708.00000
    98.4178     3795.00000
    98.4309     3812.00000
    98.4441     3731.00000
    98.4572     3785.00000
    98.4703     3651.00000
    98.4834     3566.00000
    98.4966     3473.00000
    98.5097     3434.00000
    98.5228     3295.00000
    98.5360     3217.00000
    98.5491     3259.00000
    98.5622     3245.00000
    98.5754     3154.00000
    98.5885     3190.00000
    98.6016     3101.00000
    98.6147     3125.00000
    98.6279     3235.00000
    98.6410     3200.00000
    98.6541     3124.00000
    98.6673     3309.00000
    98.6804     3361.00000
    98.6935     3421.00000
    98.7067     3513.00000
    98.7198     3632.00000
    98.7329     3743.00000
    98.7460     3829.00000
    98.7592     3911.00000
    98.7723     4073.00000
    98.7854     4175.00000
    98.7986     4239.00000
    98.8117     4245.00000
    98.8248     4260.00000
    98.8380     4336.00000
    98.8511     4279.00000
    98.8642     4255.00000
    98.8773     4081.00000
    98.8905     4067.00000
    98.9036     4171.00000
    98.9167     4057.00000
    98.9299     4188.00000
    98.9430     4380.00000
    98.9561     4459.00000
    98.9693     4484.00000
    98.9824     4643.00000
    98.9955     4567.00000
    99.0087     4614.00000
    99.0218     4543.00000
    99.0349     4393.00000
    99.0480     4372.00000
    99.0612     4262.00000
    99.0743     4089.00000
    99.0874     4041.00000
    99.1006     3862.00000
    99.1137     3754.00000
    99.1268     3657.00000
    99.1400     3682.00000
    99.1531     3519.00000
    99.1662     3510.00000
    99.1793     3442.00000
    99.1925     3475.00000
    99.2056     3356.00000
    99.2187     3408.00000
    99.2319     3263.00000
    99.2450     3244.00000
    99.2581     3295.00000
    99.2713     3425.00000
    99.2844     3384.00000
    99.2975     3401.00000
    99.3107     3558.00000
    99.3238     3379.00000
    99.3369     3497.00000
    99.3500     3352.00000
    99.3632     3535.00000
    99.3763     3367.00000
    99.3894     3241.00000
    99.4026     3231.00000
    99.4157     3122.00000
    99.4288     3045.00000
    99.4420     2936.00000
    99.4551     2848.00000
    99.4682     2789.00000
    99.4813     2817.00000
    99.4945     2775.00000
    99.5076     2624.00000
    99.5207     2697.00000
    99.5339     2699.00000
    99.5470     2791.00000
    99.5601     2821.00000
    99.5733     2610.00000
    99.5864     2776.00000
    99.5995     2627.00000
    99.6126     2694.00000
    99.6258     2688.00000
    99.6389     2849.00000
    99.6520     2949.00000
    99.6652     2866.00000
    99.6783     2896.00000
    99.6914     3198.00000
    99.7046     3226.00000
    99.7177     3385.00000
    99.7308     3429.00000
    99.7439     3442.00000
    99.7571     3364.00000
    99.7702     3377.00000
    99.7833     3366.00000
    99.7965     3265.00000
    99.8096     3089.00000
    99.8227     3093.00000
    99.8359     3039.00000
    99.8490     3023.00000
    99.8621     3056.00000
    99.8753     3037.00000
    99.8884     2937.00000
    99.9015     2853.00000
    99.9146     2839.00000
    99.9278     2822.00000
    99.9409     2847.00000
    99.9540     2845.00000
    99.9672     2796.00000
    99.9803     2872.00000
    99.9934     2753.00000
