! Initial file:   D:\ZAKARY_OUAIL\MA_THESE\Deuxième_année_de_thèse\DRX\Manips_DRX\1st_NaTaO2F2_XRK900\NaTaO2F2-Lent_290°C.xrdml
! Initial format:  58
! WAVE (A):      1.54060     1.54060     1.00000
! REM : data have been multiplied by     1.0000
! X_data : 2 Theta (deg.)                                                                                                                                                                                                                                                  
! Y_data : Intensity (arb. units)                                                                                                                                                                                                                                          
!     X         Y
!--------------------------------------------------------------------------------
    10.0116     6293.00000
    10.0247     6540.00000
    10.0379     6425.00000
    10.0510     6237.00000
    10.0641     6274.00000
    10.0772     6248.00000
    10.0904     6277.00000
    10.1035     6233.00000
    10.1166     6179.00000
    10.1298     6382.00000
    10.1429     6251.00000
    10.1560     6073.00000
    10.1692     6231.00000
    10.1823     6180.00000
    10.1954     6324.00000
    10.2086     6231.00000
    10.2217     6269.00000
    10.2348     6236.00000
    10.2479     6267.00000
    10.2611     6026.00000
    10.2742     6108.00000
    10.2873     6235.00000
    10.3005     6223.00000
    10.3136     6224.00000
    10.3267     6008.00000
    10.3399     6217.00000
    10.3530     6046.00000
    10.3661     6190.00000
    10.3792     6090.00000
    10.3924     6155.00000
    10.4055     6284.00000
    10.4186     5986.00000
    10.4318     6082.00000
    10.4449     6173.00000
    10.4580     6060.00000
    10.4712     6170.00000
    10.4843     6114.00000
    10.4974     5943.00000
    10.5105     6060.00000
    10.5237     6078.00000
    10.5368     6027.00000
    10.5499     6001.00000
    10.5631     5976.00000
    10.5762     5954.00000
    10.5893     5959.00000
    10.6025     6001.00000
    10.6156     5816.00000
    10.6287     6130.00000
    10.6418     6235.00000
    10.6550     5983.00000
    10.6681     5978.00000
    10.6812     6078.00000
    10.6944     6001.00000
    10.7075     6097.00000
    10.7206     6234.00000
    10.7338     6067.00000
    10.7469     6115.00000
    10.7600     6187.00000
    10.7732     6128.00000
    10.7863     6242.00000
    10.7994     6369.00000
    10.8125     6182.00000
    10.8257     6284.00000
    10.8388     6262.00000
    10.8519     6257.00000
    10.8651     6418.00000
    10.8782     6523.00000
    10.8913     6515.00000
    10.9045     6483.00000
    10.9176     6692.00000
    10.9307     6753.00000
    10.9438     7068.00000
    10.9570     7512.00000
    10.9701     7932.00000
    10.9832     8618.00000
    10.9964     9564.00000
    11.0095    10923.00000
    11.0226    12716.00000
    11.0358    16219.00000
    11.0489    21048.00000
    11.0620    26724.00000
    11.0751    33718.00000
    11.0883    41188.00000
    11.1014    46327.00000
    11.1145    48490.00000
    11.1277    46163.00000
    11.1408    39741.00000
    11.1539    32597.00000
    11.1671    25876.00000
    11.1802    19330.00000
    11.1933    14505.00000
    11.2065    10938.00000
    11.2196     8940.00000
    11.2327     7558.00000
    11.2458     7109.00000
    11.2590     6930.00000
    11.2721     6477.00000
    11.2852     6407.00000
    11.2984     6373.00000
    11.3115     6347.00000
    11.3246     6168.00000
    11.3378     6029.00000
    11.3509     6082.00000
    11.3640     6054.00000
    11.3771     6077.00000
    11.3903     5975.00000
    11.4034     5890.00000
    11.4165     5783.00000
    11.4297     5900.00000
    11.4428     5856.00000
    11.4559     5739.00000
    11.4691     5822.00000
    11.4822     5794.00000
    11.4953     5860.00000
    11.5084     5923.00000
    11.5216     5785.00000
    11.5347     5752.00000
    11.5478     5611.00000
    11.5610     5857.00000
    11.5741     5907.00000
    11.5872     5735.00000
    11.6004     5760.00000
    11.6135     5668.00000
    11.6266     5713.00000
    11.6398     5766.00000
    11.6529     5707.00000
    11.6660     5685.00000
    11.6791     5771.00000
    11.6923     5596.00000
    11.7054     5586.00000
    11.7185     5679.00000
    11.7317     5718.00000
    11.7448     5635.00000
    11.7579     5615.00000
    11.7711     5595.00000
    11.7842     5713.00000
    11.7973     5622.00000
    11.8104     5584.00000
    11.8236     5625.00000
    11.8367     5668.00000
    11.8498     5589.00000
    11.8630     5535.00000
    11.8761     5564.00000
    11.8892     5613.00000
    11.9024     5552.00000
    11.9155     5538.00000
    11.9286     5461.00000
    11.9417     5469.00000
    11.9549     5476.00000
    11.9680     5513.00000
    11.9811     5453.00000
    11.9943     5507.00000
    12.0074     5552.00000
    12.0205     5619.00000
    12.0337     5597.00000
    12.0468     5393.00000
    12.0599     5604.00000
    12.0731     5525.00000
    12.0862     5484.00000
    12.0993     5642.00000
    12.1124     5668.00000
    12.1256     5626.00000
    12.1387     5532.00000
    12.1518     5415.00000
    12.1650     5496.00000
    12.1781     5658.00000
    12.1912     5559.00000
    12.2044     5659.00000
    12.2175     5531.00000
    12.2306     5542.00000
    12.2437     5426.00000
    12.2569     5513.00000
    12.2700     5382.00000
    12.2831     5440.00000
    12.2963     5319.00000
    12.3094     5401.00000
    12.3225     5453.00000
    12.3357     5415.00000
    12.3488     5438.00000
    12.3619     5420.00000
    12.3750     5386.00000
    12.3882     5362.00000
    12.4013     5373.00000
    12.4144     5382.00000
    12.4276     5590.00000
    12.4407     5435.00000
    12.4538     5481.00000
    12.4670     5516.00000
    12.4801     5483.00000
    12.4932     5404.00000
    12.5063     5495.00000
    12.5195     5362.00000
    12.5326     5338.00000
    12.5457     5429.00000
    12.5589     5415.00000
    12.5720     5456.00000
    12.5851     5385.00000
    12.5983     5315.00000
    12.6114     5314.00000
    12.6245     5427.00000
    12.6377     5215.00000
    12.6508     5297.00000
    12.6639     5331.00000
    12.6770     5346.00000
    12.6902     5370.00000
    12.7033     5261.00000
    12.7164     5354.00000
    12.7296     5340.00000
    12.7427     5424.00000
    12.7558     5377.00000
    12.7690     5448.00000
    12.7821     5296.00000
    12.7952     5436.00000
    12.8083     5342.00000
    12.8215     5253.00000
    12.8346     5341.00000
    12.8477     5415.00000
    12.8609     5316.00000
    12.8740     5246.00000
    12.8871     5119.00000
    12.9003     5398.00000
    12.9134     5166.00000
    12.9265     5261.00000
    12.9396     5149.00000
    12.9528     5269.00000
    12.9659     5329.00000
    12.9790     5293.00000
    12.9922     5422.00000
    13.0053     5189.00000
    13.0184     5171.00000
    13.0316     5111.00000
    13.0447     5317.00000
    13.0578     5200.00000
    13.0710     5300.00000
    13.0841     5090.00000
    13.0972     5159.00000
    13.1103     5218.00000
    13.1235     5153.00000
    13.1366     5273.00000
    13.1497     5178.00000
    13.1629     5207.00000
    13.1760     5209.00000
    13.1891     5282.00000
    13.2023     5376.00000
    13.2154     5285.00000
    13.2285     5186.00000
    13.2416     5160.00000
    13.2548     5159.00000
    13.2679     5060.00000
    13.2810     5019.00000
    13.2942     5173.00000
    13.3073     5015.00000
    13.3204     5133.00000
    13.3336     5166.00000
    13.3467     5113.00000
    13.3598     5141.00000
    13.3729     5166.00000
    13.3861     5190.00000
    13.3992     5175.00000
    13.4123     5065.00000
    13.4255     5188.00000
    13.4386     5148.00000
    13.4517     5162.00000
    13.4649     4971.00000
    13.4780     5127.00000
    13.4911     5234.00000
    13.5043     5130.00000
    13.5174     5121.00000
    13.5305     5089.00000
    13.5436     4993.00000
    13.5568     5221.00000
    13.5699     5003.00000
    13.5830     4954.00000
    13.5962     5008.00000
    13.6093     5249.00000
    13.6224     5100.00000
    13.6356     5183.00000
    13.6487     5170.00000
    13.6618     5193.00000
    13.6749     5035.00000
    13.6881     5121.00000
    13.7012     5139.00000
    13.7143     4943.00000
    13.7275     4992.00000
    13.7406     5115.00000
    13.7537     5012.00000
    13.7669     5039.00000
    13.7800     5006.00000
    13.7931     5117.00000
    13.8062     5055.00000
    13.8194     5044.00000
    13.8325     5213.00000
    13.8456     4967.00000
    13.8588     5011.00000
    13.8719     4956.00000
    13.8850     4996.00000
    13.8982     5040.00000
    13.9113     5046.00000
    13.9244     4980.00000
    13.9376     5024.00000
    13.9507     4887.00000
    13.9638     4905.00000
    13.9769     4932.00000
    13.9901     4854.00000
    14.0032     4792.00000
    14.0163     4929.00000
    14.0295     5021.00000
    14.0426     4851.00000
    14.0557     4845.00000
    14.0689     4961.00000
    14.0820     4987.00000
    14.0951     4978.00000
    14.1082     4907.00000
    14.1214     4963.00000
    14.1345     4977.00000
    14.1476     4890.00000
    14.1608     4970.00000
    14.1739     4945.00000
    14.1870     4982.00000
    14.2002     4931.00000
    14.2133     4908.00000
    14.2264     4856.00000
    14.2395     5006.00000
    14.2527     4968.00000
    14.2658     4848.00000
    14.2789     4786.00000
    14.2921     4850.00000
    14.3052     4877.00000
    14.3183     4859.00000
    14.3315     4904.00000
    14.3446     4909.00000
    14.3577     5005.00000
    14.3708     5003.00000
    14.3840     4789.00000
    14.3971     4825.00000
    14.4102     4868.00000
    14.4234     4841.00000
    14.4365     4888.00000
    14.4496     4899.00000
    14.4628     4769.00000
    14.4759     4816.00000
    14.4890     4953.00000
    14.5022     4749.00000
    14.5153     4733.00000
    14.5284     4882.00000
    14.5415     4793.00000
    14.5547     4737.00000
    14.5678     4772.00000
    14.5809     4771.00000
    14.5941     4708.00000
    14.6072     4878.00000
    14.6203     4879.00000
    14.6335     4768.00000
    14.6466     4753.00000
    14.6597     4898.00000
    14.6728     4875.00000
    14.6860     4788.00000
    14.6991     4778.00000
    14.7122     4824.00000
    14.7254     4663.00000
    14.7385     4775.00000
    14.7516     4737.00000
    14.7648     4877.00000
    14.7779     4923.00000
    14.7910     4745.00000
    14.8041     4787.00000
    14.8173     4831.00000
    14.8304     4682.00000
    14.8435     4742.00000
    14.8567     4719.00000
    14.8698     4894.00000
    14.8829     4787.00000
    14.8961     4934.00000
    14.9092     4776.00000
    14.9223     4781.00000
    14.9355     4768.00000
    14.9486     4567.00000
    14.9617     4746.00000
    14.9748     4882.00000
    14.9880     4874.00000
    15.0011     4615.00000
    15.0142     4742.00000
    15.0274     4756.00000
    15.0405     4868.00000
    15.0536     4844.00000
    15.0668     4857.00000
    15.0799     4701.00000
    15.0930     4852.00000
    15.1061     4709.00000
    15.1193     4748.00000
    15.1324     4913.00000
    15.1455     4745.00000
    15.1587     4853.00000
    15.1718     4665.00000
    15.1849     4688.00000
    15.1981     4765.00000
    15.2112     4675.00000
    15.2243     4740.00000
    15.2374     4704.00000
    15.2506     4696.00000
    15.2637     4563.00000
    15.2768     4721.00000
    15.2900     4514.00000
    15.3031     4686.00000
    15.3162     4557.00000
    15.3294     4667.00000
    15.3425     4575.00000
    15.3556     4639.00000
    15.3688     4851.00000
    15.3819     4786.00000
    15.3950     4680.00000
    15.4081     4733.00000
    15.4213     4646.00000
    15.4344     4864.00000
    15.4475     4635.00000
    15.4607     4614.00000
    15.4738     4706.00000
    15.4869     4538.00000
    15.5001     4750.00000
    15.5132     4584.00000
    15.5263     4644.00000
    15.5394     4547.00000
    15.5526     4734.00000
    15.5657     4637.00000
    15.5788     4589.00000
    15.5920     4695.00000
    15.6051     4737.00000
    15.6182     4641.00000
    15.6314     4624.00000
    15.6445     4599.00000
    15.6576     4620.00000
    15.6707     4611.00000
    15.6839     4612.00000
    15.6970     4627.00000
    15.7101     4690.00000
    15.7233     4534.00000
    15.7364     4582.00000
    15.7495     4636.00000
    15.7627     4630.00000
    15.7758     4662.00000
    15.7889     4569.00000
    15.8021     4557.00000
    15.8152     4587.00000
    15.8283     4659.00000
    15.8414     4798.00000
    15.8546     4525.00000
    15.8677     4603.00000
    15.8808     4547.00000
    15.8940     4686.00000
    15.9071     4589.00000
    15.9202     4661.00000
    15.9334     4537.00000
    15.9465     4593.00000
    15.9596     4722.00000
    15.9727     4408.00000
    15.9859     4764.00000
    15.9990     4640.00000
    16.0121     4617.00000
    16.0253     4510.00000
    16.0384     4608.00000
    16.0515     4581.00000
    16.0647     4673.00000
    16.0778     4656.00000
    16.0909     4681.00000
    16.1040     4682.00000
    16.1172     4649.00000
    16.1303     4698.00000
    16.1434     4757.00000
    16.1566     4776.00000
    16.1697     4822.00000
    16.1828     4647.00000
    16.1960     4642.00000
    16.2091     4784.00000
    16.2222     4726.00000
    16.2353     4822.00000
    16.2485     4667.00000
    16.2616     4663.00000
    16.2747     4676.00000
    16.2879     4805.00000
    16.3010     4764.00000
    16.3141     4703.00000
    16.3273     4698.00000
    16.3404     4744.00000
    16.3535     4678.00000
    16.3667     4832.00000
    16.3798     4617.00000
    16.3929     4528.00000
    16.4060     4653.00000
    16.4192     4699.00000
    16.4323     4690.00000
    16.4454     4636.00000
    16.4586     4579.00000
    16.4717     4599.00000
    16.4848     4605.00000
    16.4980     4444.00000
    16.5111     4398.00000
    16.5242     4555.00000
    16.5373     4600.00000
    16.5505     4454.00000
    16.5636     4588.00000
    16.5767     4496.00000
    16.5899     4485.00000
    16.6030     4562.00000
    16.6161     4502.00000
    16.6293     4462.00000
    16.6424     4513.00000
    16.6555     4520.00000
    16.6686     4548.00000
    16.6818     4452.00000
    16.6949     4425.00000
    16.7080     4367.00000
    16.7212     4382.00000
    16.7343     4531.00000
    16.7474     4527.00000
    16.7606     4559.00000
    16.7737     4508.00000
    16.7868     4537.00000
    16.8000     4436.00000
    16.8131     4472.00000
    16.8262     4504.00000
    16.8393     4361.00000
    16.8525     4535.00000
    16.8656     4526.00000
    16.8787     4424.00000
    16.8919     4453.00000
    16.9050     4380.00000
    16.9181     4420.00000
    16.9313     4338.00000
    16.9444     4425.00000
    16.9575     4650.00000
    16.9706     4463.00000
    16.9838     4378.00000
    16.9969     4248.00000
    17.0100     4391.00000
    17.0232     4518.00000
    17.0363     4352.00000
    17.0494     4457.00000
    17.0626     4399.00000
    17.0757     4428.00000
    17.0888     4335.00000
    17.1019     4442.00000
    17.1151     4445.00000
    17.1282     4423.00000
    17.1413     4348.00000
    17.1545     4329.00000
    17.1676     4407.00000
    17.1807     4562.00000
    17.1939     4451.00000
    17.2070     4366.00000
    17.2201     4467.00000
    17.2333     4436.00000
    17.2464     4501.00000
    17.2595     4608.00000
    17.2726     4482.00000
    17.2858     4411.00000
    17.2989     4390.00000
    17.3120     4360.00000
    17.3252     4423.00000
    17.3383     4469.00000
    17.3514     4400.00000
    17.3646     4392.00000
    17.3777     4520.00000
    17.3908     4399.00000
    17.4039     4356.00000
    17.4171     4385.00000
    17.4302     4289.00000
    17.4433     4444.00000
    17.4565     4343.00000
    17.4696     4316.00000
    17.4827     4292.00000
    17.4959     4282.00000
    17.5090     4326.00000
    17.5221     4290.00000
    17.5352     4274.00000
    17.5484     4277.00000
    17.5615     4304.00000
    17.5746     4337.00000
    17.5878     4323.00000
    17.6009     4389.00000
    17.6140     4333.00000
    17.6272     4329.00000
    17.6403     4291.00000
    17.6534     4371.00000
    17.6666     4394.00000
    17.6797     4422.00000
    17.6928     4569.00000
    17.7059     4589.00000
    17.7191     4647.00000
    17.7322     4660.00000
    17.7453     4537.00000
    17.7585     4449.00000
    17.7716     4370.00000
    17.7847     4373.00000
    17.7979     4427.00000
    17.8110     4192.00000
    17.8241     4253.00000
    17.8372     4193.00000
    17.8504     4311.00000
    17.8635     4343.00000
    17.8766     4217.00000
    17.8898     4249.00000
    17.9029     4336.00000
    17.9160     4242.00000
    17.9292     4138.00000
    17.9423     4175.00000
    17.9554     4154.00000
    17.9685     4365.00000
    17.9817     4261.00000
    17.9948     4220.00000
    18.0079     4202.00000
    18.0211     4313.00000
    18.0342     4340.00000
    18.0473     4191.00000
    18.0605     4332.00000
    18.0736     4203.00000
    18.0867     4224.00000
    18.0998     4225.00000
    18.1130     4146.00000
    18.1261     4155.00000
    18.1392     4193.00000
    18.1524     4143.00000
    18.1655     4215.00000
    18.1786     4171.00000
    18.1918     4232.00000
    18.2049     4289.00000
    18.2180     4145.00000
    18.2312     4152.00000
    18.2443     4226.00000
    18.2574     4173.00000
    18.2705     4205.00000
    18.2837     4165.00000
    18.2968     4260.00000
    18.3099     4081.00000
    18.3231     4121.00000
    18.3362     4236.00000
    18.3493     4114.00000
    18.3625     4114.00000
    18.3756     4119.00000
    18.3887     4082.00000
    18.4018     4149.00000
    18.4150     4329.00000
    18.4281     4122.00000
    18.4412     4168.00000
    18.4544     4120.00000
    18.4675     4205.00000
    18.4806     4127.00000
    18.4938     4138.00000
    18.5069     4148.00000
    18.5200     4188.00000
    18.5331     4161.00000
    18.5463     4154.00000
    18.5594     4116.00000
    18.5725     4162.00000
    18.5857     4224.00000
    18.5988     4210.00000
    18.6119     4133.00000
    18.6251     4180.00000
    18.6382     4269.00000
    18.6513     4201.00000
    18.6645     4320.00000
    18.6776     4229.00000
    18.6907     4217.00000
    18.7038     4019.00000
    18.7170     4251.00000
    18.7301     4126.00000
    18.7432     4120.00000
    18.7564     4221.00000
    18.7695     4090.00000
    18.7826     4066.00000
    18.7958     4115.00000
    18.8089     4036.00000
    18.8220     4116.00000
    18.8351     4209.00000
    18.8483     4065.00000
    18.8614     4018.00000
    18.8745     4133.00000
    18.8877     4125.00000
    18.9008     4221.00000
    18.9139     4340.00000
    18.9271     4268.00000
    18.9402     4319.00000
    18.9533     4290.00000
    18.9664     4437.00000
    18.9796     4421.00000
    18.9927     4399.00000
    19.0058     4343.00000
    19.0190     4485.00000
    19.0321     4489.00000
    19.0452     4491.00000
    19.0584     4508.00000
    19.0715     4570.00000
    19.0846     4469.00000
    19.0978     4643.00000
    19.1109     4515.00000
    19.1240     4533.00000
    19.1371     4627.00000
    19.1503     4576.00000
    19.1634     4445.00000
    19.1765     4521.00000
    19.1897     4541.00000
    19.2028     4570.00000
    19.2159     4635.00000
    19.2291     4533.00000
    19.2422     4492.00000
    19.2553     4399.00000
    19.2684     4612.00000
    19.2816     4688.00000
    19.2947     4595.00000
    19.3078     4660.00000
    19.3210     4704.00000
    19.3341     4686.00000
    19.3472     4769.00000
    19.3604     5030.00000
    19.3735     4901.00000
    19.3866     5050.00000
    19.3997     5194.00000
    19.4129     5216.00000
    19.4260     5512.00000
    19.4391     5726.00000
    19.4523     5833.00000
    19.4654     6129.00000
    19.4785     6523.00000
    19.4917     7189.00000
    19.5048     8377.00000
    19.5179    10253.00000
    19.5311    12878.00000
    19.5442    16933.00000
    19.5573    23400.00000
    19.5704    33957.00000
    19.5836    51787.00000
    19.5967    74112.00000
    19.6098    98597.00000
    19.6230   117273.00000
    19.6361   123091.00000
    19.6492   117309.00000
    19.6624   108820.00000
    19.6755    97997.00000
    19.6886    80052.00000
    19.7017    61942.00000
    19.7149    45771.00000
    19.7280    32801.00000
    19.7411    23353.00000
    19.7543    16609.00000
    19.7674    12356.00000
    19.7805    10000.00000
    19.7937     8134.00000
    19.8068     6983.00000
    19.8199     6248.00000
    19.8330     5944.00000
    19.8462     5503.00000
    19.8593     5277.00000
    19.8724     5011.00000
    19.8856     4841.00000
    19.8987     4748.00000
    19.9118     4597.00000
    19.9250     4557.00000
    19.9381     4459.00000
    19.9512     4482.00000
    19.9643     4533.00000
    19.9775     4561.00000
    19.9906     4435.00000
    20.0037     4410.00000
    20.0169     4250.00000
    20.0300     4360.00000
    20.0431     4305.00000
    20.0563     4261.00000
    20.0694     4439.00000
    20.0825     4432.00000
    20.0957     4347.00000
    20.1088     4334.00000
    20.1219     4502.00000
    20.1350     4430.00000
    20.1482     4485.00000
    20.1613     4497.00000
    20.1744     4519.00000
    20.1876     4490.00000
    20.2007     4403.00000
    20.2138     4240.00000
    20.2270     4264.00000
    20.2401     4148.00000
    20.2532     4193.00000
    20.2663     4223.00000
    20.2795     4067.00000
    20.2926     4065.00000
    20.3057     4090.00000
    20.3189     4062.00000
    20.3320     4127.00000
    20.3451     4112.00000
    20.3583     4156.00000
    20.3714     4056.00000
    20.3845     4087.00000
    20.3976     3994.00000
    20.4108     3873.00000
    20.4239     4007.00000
    20.4370     3977.00000
    20.4502     4009.00000
    20.4633     4084.00000
    20.4764     3987.00000
    20.4896     4072.00000
    20.5027     4057.00000
    20.5158     3959.00000
    20.5290     4047.00000
    20.5421     3908.00000
    20.5552     3983.00000
    20.5683     4035.00000
    20.5815     3824.00000
    20.5946     3823.00000
    20.6077     3967.00000
    20.6209     3931.00000
    20.6340     4081.00000
    20.6471     4023.00000
    20.6603     4011.00000
    20.6734     3944.00000
    20.6865     3984.00000
    20.6996     3921.00000
    20.7128     3948.00000
    20.7259     4098.00000
    20.7390     3924.00000
    20.7522     4003.00000
    20.7653     3986.00000
    20.7784     3925.00000
    20.7916     3978.00000
    20.8047     3948.00000
    20.8178     3986.00000
    20.8309     3908.00000
    20.8441     4009.00000
    20.8572     3888.00000
    20.8703     3941.00000
    20.8835     3945.00000
    20.8966     3945.00000
    20.9097     3939.00000
    20.9229     3816.00000
    20.9360     3939.00000
    20.9491     3861.00000
    20.9623     3836.00000
    20.9754     3971.00000
    20.9885     3886.00000
    21.0016     3983.00000
    21.0148     4025.00000
    21.0279     3964.00000
    21.0410     3872.00000
    21.0542     3781.00000
    21.0673     3769.00000
    21.0804     3834.00000
    21.0936     3972.00000
    21.1067     3895.00000
    21.1198     3769.00000
    21.1329     3791.00000
    21.1461     3940.00000
    21.1592     3703.00000
    21.1723     3788.00000
    21.1855     3899.00000
    21.1986     3815.00000
    21.2117     3969.00000
    21.2249     3783.00000
    21.2380     3838.00000
    21.2511     3873.00000
    21.2642     3860.00000
    21.2774     3892.00000
    21.2905     3841.00000
    21.3036     3842.00000
    21.3168     3903.00000
    21.3299     3791.00000
    21.3430     3907.00000
    21.3562     3947.00000
    21.3693     3836.00000
    21.3824     3823.00000
    21.3956     3972.00000
    21.4087     3793.00000
    21.4218     3782.00000
    21.4349     3817.00000
    21.4481     3854.00000
    21.4612     3859.00000
    21.4743     3756.00000
    21.4875     3679.00000
    21.5006     3782.00000
    21.5137     3763.00000
    21.5269     3820.00000
    21.5400     3812.00000
    21.5531     3881.00000
    21.5662     3873.00000
    21.5794     3827.00000
    21.5925     3802.00000
    21.6056     3766.00000
    21.6188     3797.00000
    21.6319     3802.00000
    21.6450     3789.00000
    21.6582     3858.00000
    21.6713     3871.00000
    21.6844     3802.00000
    21.6975     3783.00000
    21.7107     3917.00000
    21.7238     3885.00000
    21.7369     4025.00000
    21.7501     3941.00000
    21.7632     4035.00000
    21.7763     4224.00000
    21.7895     4075.00000
    21.8026     4065.00000
    21.8157     4094.00000
    21.8288     4002.00000
    21.8420     3954.00000
    21.8551     3919.00000
    21.8682     3873.00000
    21.8814     3981.00000
    21.8945     3932.00000
    21.9076     3800.00000
    21.9208     3899.00000
    21.9339     3883.00000
    21.9470     3824.00000
    21.9602     3937.00000
    21.9733     4015.00000
    21.9864     4022.00000
    21.9995     3890.00000
    22.0127     3813.00000
    22.0258     3871.00000
    22.0389     3923.00000
    22.0521     3966.00000
    22.0652     3883.00000
    22.0783     3804.00000
    22.0915     3911.00000
    22.1046     3879.00000
    22.1177     4039.00000
    22.1308     3915.00000
    22.1440     3927.00000
    22.1571     4037.00000
    22.1702     4077.00000
    22.1834     4039.00000
    22.1965     4151.00000
    22.2096     4301.00000
    22.2228     4536.00000
    22.2359     4789.00000
    22.2490     5425.00000
    22.2621     6256.00000
    22.2753     7605.00000
    22.2884     9789.00000
    22.3015    13195.00000
    22.3147    16327.00000
    22.3278    18509.00000
    22.3409    18539.00000
    22.3541    17066.00000
    22.3672    15728.00000
    22.3803    14479.00000
    22.3935    12443.00000
    22.4066    10202.00000
    22.4197     8235.00000
    22.4328     6891.00000
    22.4460     5563.00000
    22.4591     4873.00000
    22.4722     4215.00000
    22.4854     4200.00000
    22.4985     4031.00000
    22.5116     3965.00000
    22.5248     3940.00000
    22.5379     3854.00000
    22.5510     3993.00000
    22.5641     3732.00000
    22.5773     3857.00000
    22.5904     3781.00000
    22.6035     3644.00000
    22.6167     3625.00000
    22.6298     3835.00000
    22.6429     3715.00000
    22.6561     3686.00000
    22.6692     3719.00000
    22.6823     3787.00000
    22.6954     3789.00000
    22.7086     3732.00000
    22.7217     3797.00000
    22.7348     3745.00000
    22.7480     3663.00000
    22.7611     3809.00000
    22.7742     3844.00000
    22.7874     3902.00000
    22.8005     3805.00000
    22.8136     3724.00000
    22.8268     3766.00000
    22.8399     3801.00000
    22.8530     3757.00000
    22.8661     3763.00000
    22.8793     3759.00000
    22.8924     3740.00000
    22.9055     3639.00000
    22.9187     3729.00000
    22.9318     3811.00000
    22.9449     3724.00000
    22.9581     3689.00000
    22.9712     3566.00000
    22.9843     3633.00000
    22.9974     3684.00000
    23.0106     3617.00000
    23.0237     3665.00000
    23.0368     3531.00000
    23.0500     3576.00000
    23.0631     3590.00000
    23.0762     3601.00000
    23.0894     3609.00000
    23.1025     3592.00000
    23.1156     3665.00000
    23.1287     3680.00000
    23.1419     3589.00000
    23.1550     3578.00000
    23.1681     3616.00000
    23.1813     3664.00000
    23.1944     3698.00000
    23.2075     3626.00000
    23.2207     3683.00000
    23.2338     3490.00000
    23.2469     3647.00000
    23.2601     3699.00000
    23.2732     3672.00000
    23.2863     3597.00000
    23.2994     3702.00000
    23.3126     3666.00000
    23.3257     3673.00000
    23.3388     3635.00000
    23.3520     3770.00000
    23.3651     3838.00000
    23.3782     3787.00000
    23.3914     3608.00000
    23.4045     3664.00000
    23.4176     3821.00000
    23.4307     3781.00000
    23.4439     3749.00000
    23.4570     3884.00000
    23.4701     3759.00000
    23.4833     3721.00000
    23.4964     3842.00000
    23.5095     3701.00000
    23.5227     3896.00000
    23.5358     3866.00000
    23.5489     3943.00000
    23.5620     3952.00000
    23.5752     3892.00000
    23.5883     3908.00000
    23.6014     3881.00000
    23.6146     3971.00000
    23.6277     3850.00000
    23.6408     3792.00000
    23.6540     3938.00000
    23.6671     3781.00000
    23.6802     3778.00000
    23.6933     3908.00000
    23.7065     3807.00000
    23.7196     3798.00000
    23.7327     3778.00000
    23.7459     3919.00000
    23.7590     3882.00000
    23.7721     4057.00000
    23.7853     3896.00000
    23.7984     4060.00000
    23.8115     3914.00000
    23.8247     3939.00000
    23.8378     3900.00000
    23.8509     4050.00000
    23.8640     4065.00000
    23.8772     4106.00000
    23.8903     4118.00000
    23.9034     4270.00000
    23.9166     4122.00000
    23.9297     4231.00000
    23.9428     4395.00000
    23.9560     4327.00000
    23.9691     4362.00000
    23.9822     4291.00000
    23.9953     4516.00000
    24.0085     4459.00000
    24.0216     4766.00000
    24.0347     4888.00000
    24.0479     5103.00000
    24.0610     5368.00000
    24.0741     5727.00000
    24.0873     6576.00000
    24.1004     7827.00000
    24.1135    10465.00000
    24.1266    14611.00000
    24.1398    21330.00000
    24.1529    29412.00000
    24.1660    37523.00000
    24.1792    43119.00000
    24.1923    44740.00000
    24.2054    42851.00000
    24.2186    39542.00000
    24.2317    35931.00000
    24.2448    32071.00000
    24.2580    29243.00000
    24.2711    25611.00000
    24.2842    23986.00000
    24.2973    26199.00000
    24.3105    31874.00000
    24.3236    37720.00000
    24.3367    41928.00000
    24.3499    46750.00000
    24.3630    48813.00000
    24.3761    45298.00000
    24.3893    40660.00000
    24.4024    36734.00000
    24.4155    31767.00000
    24.4286    26586.00000
    24.4418    20380.00000
    24.4549    15562.00000
    24.4680    11892.00000
    24.4812     8923.00000
    24.4943     7039.00000
    24.5074     5908.00000
    24.5206     5096.00000
    24.5337     4842.00000
    24.5468     4566.00000
    24.5599     4370.00000
    24.5731     4384.00000
    24.5862     4161.00000
    24.5993     4160.00000
    24.6125     3977.00000
    24.6256     4014.00000
    24.6387     3893.00000
    24.6519     3993.00000
    24.6650     3841.00000
    24.6781     3731.00000
    24.6913     3727.00000
    24.7044     3808.00000
    24.7175     3878.00000
    24.7306     3823.00000
    24.7438     3722.00000
    24.7569     3777.00000
    24.7700     3728.00000
    24.7832     3690.00000
    24.7963     3710.00000
    24.8094     3671.00000
    24.8226     3724.00000
    24.8357     3692.00000
    24.8488     3794.00000
    24.8619     3740.00000
    24.8751     3679.00000
    24.8882     3731.00000
    24.9013     3779.00000
    24.9145     3826.00000
    24.9276     3773.00000
    24.9407     3978.00000
    24.9539     3897.00000
    24.9670     3793.00000
    24.9801     3750.00000
    24.9932     3804.00000
    25.0064     3690.00000
    25.0195     3724.00000
    25.0326     3726.00000
    25.0458     3695.00000
    25.0589     3633.00000
    25.0720     3661.00000
    25.0852     3643.00000
    25.0983     3742.00000
    25.1114     3620.00000
    25.1246     3555.00000
    25.1377     3530.00000
    25.1508     3566.00000
    25.1639     3596.00000
    25.1771     3712.00000
    25.1902     3499.00000
    25.2033     3547.00000
    25.2165     3538.00000
    25.2296     3644.00000
    25.2427     3509.00000
    25.2559     3627.00000
    25.2690     3556.00000
    25.2821     3521.00000
    25.2952     3643.00000
    25.3084     3619.00000
    25.3215     3650.00000
    25.3346     3641.00000
    25.3478     3673.00000
    25.3609     3624.00000
    25.3740     3509.00000
    25.3872     3614.00000
    25.4003     3565.00000
    25.4134     3645.00000
    25.4265     3661.00000
    25.4397     3602.00000
    25.4528     3587.00000
    25.4659     3676.00000
    25.4791     3715.00000
    25.4922     3556.00000
    25.5053     3622.00000
    25.5185     3501.00000
    25.5316     3561.00000
    25.5447     3465.00000
    25.5579     3577.00000
    25.5710     3482.00000
    25.5841     3608.00000
    25.5972     3441.00000
    25.6104     3438.00000
    25.6235     3419.00000
    25.6366     3656.00000
    25.6498     3564.00000
    25.6629     3599.00000
    25.6760     3551.00000
    25.6892     3505.00000
    25.7023     3472.00000
    25.7154     3344.00000
    25.7285     3317.00000
    25.7417     3498.00000
    25.7548     3497.00000
    25.7679     3566.00000
    25.7811     3496.00000
    25.7942     3382.00000
    25.8073     3516.00000
    25.8205     3439.00000
    25.8336     3555.00000
    25.8467     3489.00000
    25.8598     3486.00000
    25.8730     3459.00000
    25.8861     3417.00000
    25.8992     3463.00000
    25.9124     3429.00000
    25.9255     3573.00000
    25.9386     3551.00000
    25.9518     3421.00000
    25.9649     3564.00000
    25.9780     3548.00000
    25.9911     3386.00000
    26.0043     3502.00000
    26.0174     3393.00000
    26.0305     3586.00000
    26.0437     3402.00000
    26.0568     3573.00000
    26.0699     3521.00000
    26.0831     3492.00000
    26.0962     3615.00000
    26.1093     3626.00000
    26.1225     3696.00000
    26.1356     3685.00000
    26.1487     3700.00000
    26.1618     3649.00000
    26.1750     3664.00000
    26.1881     3629.00000
    26.2012     3665.00000
    26.2144     3604.00000
    26.2275     3659.00000
    26.2406     3599.00000
    26.2538     3670.00000
    26.2669     3670.00000
    26.2800     3577.00000
    26.2931     3624.00000
    26.3063     3450.00000
    26.3194     3623.00000
    26.3325     3496.00000
    26.3457     3637.00000
    26.3588     3574.00000
    26.3719     3597.00000
    26.3851     3472.00000
    26.3982     3426.00000
    26.4113     3525.00000
    26.4244     3504.00000
    26.4376     3435.00000
    26.4507     3480.00000
    26.4638     3463.00000
    26.4770     3520.00000
    26.4901     3481.00000
    26.5032     3394.00000
    26.5164     3502.00000
    26.5295     3530.00000
    26.5426     3359.00000
    26.5558     3385.00000
    26.5689     3352.00000
    26.5820     3514.00000
    26.5951     3437.00000
    26.6083     3415.00000
    26.6214     3503.00000
    26.6345     3382.00000
    26.6477     3466.00000
    26.6608     3416.00000
    26.6739     3519.00000
    26.6871     3561.00000
    26.7002     3573.00000
    26.7133     3637.00000
    26.7264     3535.00000
    26.7396     3682.00000
    26.7527     3476.00000
    26.7658     3608.00000
    26.7790     3545.00000
    26.7921     3675.00000
    26.8052     3633.00000
    26.8184     3524.00000
    26.8315     3530.00000
    26.8446     3694.00000
    26.8577     3568.00000
    26.8709     3716.00000
    26.8840     3636.00000
    26.8971     3644.00000
    26.9103     3627.00000
    26.9234     3644.00000
    26.9365     3517.00000
    26.9497     3667.00000
    26.9628     3688.00000
    26.9759     3647.00000
    26.9891     3556.00000
    27.0022     3563.00000
    27.0153     3553.00000
    27.0284     3616.00000
    27.0416     3561.00000
    27.0547     3574.00000
    27.0678     3657.00000
    27.0810     3689.00000
    27.0941     3654.00000
    27.1072     3534.00000
    27.1204     3623.00000
    27.1335     3575.00000
    27.1466     3751.00000
    27.1597     3610.00000
    27.1729     3521.00000
    27.1860     3593.00000
    27.1991     3702.00000
    27.2123     3633.00000
    27.2254     3632.00000
    27.2385     3691.00000
    27.2517     3674.00000
    27.2648     3738.00000
    27.2779     3667.00000
    27.2910     3747.00000
    27.3042     3804.00000
    27.3173     3778.00000
    27.3304     3763.00000
    27.3436     3959.00000
    27.3567     3788.00000
    27.3698     3941.00000
    27.3830     3938.00000
    27.3961     4062.00000
    27.4092     4119.00000
    27.4224     4318.00000
    27.4355     4386.00000
    27.4486     4610.00000
    27.4617     4793.00000
    27.4749     4905.00000
    27.4880     5141.00000
    27.5011     5383.00000
    27.5143     5889.00000
    27.5274     6250.00000
    27.5405     7009.00000
    27.5537     7618.00000
    27.5668     8861.00000
    27.5799    10691.00000
    27.5930    14334.00000
    27.6062    19670.00000
    27.6193    30062.00000
    27.6324    45221.00000
    27.6456    63300.00000
    27.6587    78546.00000
    27.6718    84711.00000
    27.6850    79886.00000
    27.6981    73290.00000
    27.7112    67916.00000
    27.7243    63124.00000
    27.7375    57209.00000
    27.7506    48122.00000
    27.7637    38363.00000
    27.7769    29726.00000
    27.7900    21687.00000
    27.8031    15894.00000
    27.8163    11359.00000
    27.8294     8679.00000
    27.8425     7384.00000
    27.8556     6270.00000
    27.8688     5718.00000
    27.8819     5246.00000
    27.8950     4869.00000
    27.9082     4638.00000
    27.9213     4383.00000
    27.9344     4245.00000
    27.9476     4119.00000
    27.9607     4043.00000
    27.9738     3968.00000
    27.9870     3789.00000
    28.0001     3803.00000
    28.0132     3763.00000
    28.0263     3825.00000
    28.0395     3709.00000
    28.0526     3720.00000
    28.0657     3681.00000
    28.0789     3680.00000
    28.0920     3803.00000
    28.1051     3649.00000
    28.1183     3676.00000
    28.1314     3614.00000
    28.1445     3686.00000
    28.1576     3670.00000
    28.1708     3799.00000
    28.1839     3827.00000
    28.1970     3706.00000
    28.2102     3829.00000
    28.2233     3821.00000
    28.2364     3891.00000
    28.2496     3730.00000
    28.2627     3855.00000
    28.2758     3809.00000
    28.2889     3757.00000
    28.3021     3709.00000
    28.3152     3686.00000
    28.3283     3767.00000
    28.3415     3708.00000
    28.3546     3679.00000
    28.3677     3614.00000
    28.3809     3605.00000
    28.3940     3588.00000
    28.4071     3694.00000
    28.4203     3567.00000
    28.4334     3611.00000
    28.4465     3580.00000
    28.4596     3543.00000
    28.4728     3539.00000
    28.4859     3663.00000
    28.4990     3771.00000
    28.5122     3605.00000
    28.5253     3600.00000
    28.5384     3522.00000
    28.5516     3661.00000
    28.5647     3571.00000
    28.5778     3522.00000
    28.5909     3569.00000
    28.6041     3659.00000
    28.6172     3648.00000
    28.6303     3484.00000
    28.6435     3489.00000
    28.6566     3557.00000
    28.6697     3597.00000
    28.6829     3575.00000
    28.6960     3535.00000
    28.7091     3483.00000
    28.7222     3639.00000
    28.7354     3481.00000
    28.7485     3416.00000
    28.7616     3567.00000
    28.7748     3545.00000
    28.7879     3614.00000
    28.8010     3558.00000
    28.8142     3664.00000
    28.8273     3721.00000
    28.8404     3509.00000
    28.8536     3524.00000
    28.8667     3541.00000
    28.8798     3609.00000
    28.8929     3660.00000
    28.9061     3554.00000
    28.9192     3704.00000
    28.9323     3629.00000
    28.9455     3646.00000
    28.9586     3793.00000
    28.9717     3872.00000
    28.9849     3861.00000
    28.9980     3821.00000
    29.0111     3976.00000
    29.0242     4106.00000
    29.0374     4096.00000
    29.0505     4274.00000
    29.0636     4418.00000
    29.0768     4461.00000
    29.0899     4715.00000
    29.1030     5051.00000
    29.1162     5446.00000
    29.1293     6228.00000
    29.1424     7708.00000
    29.1555    10596.00000
    29.1687    15374.00000
    29.1818    22031.00000
    29.1949    28090.00000
    29.2081    32062.00000
    29.2212    32731.00000
    29.2343    29761.00000
    29.2475    26534.00000
    29.2606    25646.00000
    29.2737    25127.00000
    29.2869    24753.00000
    29.3000    24079.00000
    29.3131    23014.00000
    29.3262    22247.00000
    29.3394    22605.00000
    29.3525    22426.00000
    29.3656    21643.00000
    29.3788    19260.00000
    29.3919    16921.00000
    29.4050    15111.00000
    29.4182    13680.00000
    29.4313    12496.00000
    29.4444    11258.00000
    29.4575     9469.00000
    29.4707     7766.00000
    29.4838     6335.00000
    29.4969     5313.00000
    29.5101     4556.00000
    29.5232     4189.00000
    29.5363     4062.00000
    29.5495     3821.00000
    29.5626     3772.00000
    29.5757     3768.00000
    29.5888     3728.00000
    29.6020     3520.00000
    29.6151     3528.00000
    29.6282     3509.00000
    29.6414     3502.00000
    29.6545     3449.00000
    29.6676     3609.00000
    29.6808     3437.00000
    29.6939     3410.00000
    29.7070     3384.00000
    29.7201     3512.00000
    29.7333     3454.00000
    29.7464     3441.00000
    29.7595     3339.00000
    29.7727     3372.00000
    29.7858     3330.00000
    29.7989     3419.00000
    29.8121     3350.00000
    29.8252     3388.00000
    29.8383     3401.00000
    29.8515     3372.00000
    29.8646     3437.00000
    29.8777     3343.00000
    29.8908     3365.00000
    29.9040     3396.00000
    29.9171     3487.00000
    29.9302     3338.00000
    29.9434     3384.00000
    29.9565     3385.00000
    29.9696     3388.00000
    29.9828     3360.00000
    29.9959     3381.00000
    30.0090     3219.00000
    30.0221     3304.00000
    30.0353     3264.00000
    30.0484     3393.00000
    30.0615     3227.00000
    30.0747     3371.00000
    30.0878     3361.00000
    30.1009     3403.00000
    30.1141     3364.00000
    30.1272     3290.00000
    30.1403     3278.00000
    30.1535     3284.00000
    30.1666     3231.00000
    30.1797     3295.00000
    30.1928     3237.00000
    30.2060     3381.00000
    30.2191     3285.00000
    30.2322     3261.00000
    30.2454     3336.00000
    30.2585     3398.00000
    30.2716     3351.00000
    30.2848     3417.00000
    30.2979     3404.00000
    30.3110     3336.00000
    30.3241     3315.00000
    30.3373     3298.00000
    30.3504     3262.00000
    30.3635     3367.00000
    30.3767     3316.00000
    30.3898     3221.00000
    30.4029     3364.00000
    30.4161     3323.00000
    30.4292     3244.00000
    30.4423     3256.00000
    30.4554     3311.00000
    30.4686     3201.00000
    30.4817     3284.00000
    30.4948     3263.00000
    30.5080     3235.00000
    30.5211     3199.00000
    30.5342     3265.00000
    30.5474     3207.00000
    30.5605     3155.00000
    30.5736     3183.00000
    30.5868     3232.00000
    30.5999     3235.00000
    30.6130     3299.00000
    30.6261     3206.00000
    30.6393     3050.00000
    30.6524     3252.00000
    30.6655     3207.00000
    30.6787     3236.00000
    30.6918     3227.00000
    30.7049     3181.00000
    30.7181     3246.00000
    30.7312     3206.00000
    30.7443     3225.00000
    30.7574     3198.00000
    30.7706     3172.00000
    30.7837     3215.00000
    30.7968     3200.00000
    30.8100     3247.00000
    30.8231     3218.00000
    30.8362     3258.00000
    30.8494     3216.00000
    30.8625     3261.00000
    30.8756     3126.00000
    30.8887     3210.00000
    30.9019     3108.00000
    30.9150     3111.00000
    30.9281     3269.00000
    30.9413     3239.00000
    30.9544     3172.00000
    30.9675     3204.00000
    30.9807     3219.00000
    30.9938     3197.00000
    31.0069     3205.00000
    31.0200     3215.00000
    31.0332     3168.00000
    31.0463     3131.00000
    31.0594     3155.00000
    31.0726     3140.00000
    31.0857     3028.00000
    31.0988     3074.00000
    31.1120     3201.00000
    31.1251     3173.00000
    31.1382     3045.00000
    31.1514     3186.00000
    31.1645     3161.00000
    31.1776     3037.00000
    31.1907     3143.00000
    31.2039     3162.00000
    31.2170     3083.00000
    31.2301     3133.00000
    31.2433     3201.00000
    31.2564     3214.00000
    31.2695     3179.00000
    31.2827     3110.00000
    31.2958     3102.00000
    31.3089     3021.00000
    31.3220     3147.00000
    31.3352     3068.00000
    31.3483     3232.00000
    31.3614     3103.00000
    31.3746     3203.00000
    31.3877     3097.00000
    31.4008     3073.00000
    31.4140     3144.00000
    31.4271     3143.00000
    31.4402     3195.00000
    31.4533     3106.00000
    31.4665     3117.00000
    31.4796     3109.00000
    31.4927     3184.00000
    31.5059     3177.00000
    31.5190     3190.00000
    31.5321     3067.00000
    31.5453     3143.00000
    31.5584     3103.00000
    31.5715     3120.00000
    31.5847     3086.00000
    31.5978     3186.00000
    31.6109     3178.00000
    31.6240     3133.00000
    31.6372     3056.00000
    31.6503     3177.00000
    31.6634     3188.00000
    31.6766     3158.00000
    31.6897     3071.00000
    31.7028     3198.00000
    31.7160     3136.00000
    31.7291     3212.00000
    31.7422     3143.00000
    31.7553     3106.00000
    31.7685     3211.00000
    31.7816     3190.00000
    31.7947     3120.00000
    31.8079     3190.00000
    31.8210     3103.00000
    31.8341     3108.00000
    31.8473     3152.00000
    31.8604     3218.00000
    31.8735     3168.00000
    31.8866     3116.00000
    31.8998     3108.00000
    31.9129     3121.00000
    31.9260     3115.00000
    31.9392     3170.00000
    31.9523     3205.00000
    31.9654     3049.00000
    31.9786     3114.00000
    31.9917     3054.00000
    32.0048     3056.00000
    32.0180     3164.00000
    32.0311     3158.00000
    32.0442     3084.00000
    32.0573     3151.00000
    32.0705     3229.00000
    32.0836     3224.00000
    32.0967     3116.00000
    32.1099     3149.00000
    32.1230     3219.00000
    32.1361     3194.00000
    32.1493     3269.00000
    32.1624     3350.00000
    32.1755     3186.00000
    32.1886     3227.00000
    32.2018     3228.00000
    32.2149     3222.00000
    32.2280     3227.00000
    32.2412     3343.00000
    32.2543     3117.00000
    32.2674     3197.00000
    32.2806     3255.00000
    32.2937     3159.00000
    32.3068     3354.00000
    32.3199     3227.00000
    32.3331     3329.00000
    32.3462     3284.00000
    32.3593     3332.00000
    32.3725     3352.00000
    32.3856     3372.00000
    32.3987     3405.00000
    32.4119     3431.00000
    32.4250     3530.00000
    32.4381     3688.00000
    32.4512     3573.00000
    32.4644     3710.00000
    32.4775     3878.00000
    32.4906     3958.00000
    32.5038     3912.00000
    32.5169     4332.00000
    32.5300     5070.00000
    32.5432     6431.00000
    32.5563     8855.00000
    32.5694    12893.00000
    32.5826    18043.00000
    32.5957    20703.00000
    32.6088    19633.00000
    32.6219    16544.00000
    32.6351    13571.00000
    32.6482    12270.00000
    32.6613    12825.00000
    32.6745    13401.00000
    32.6876    12593.00000
    32.7007    10894.00000
    32.7139     8533.00000
    32.7270     6773.00000
    32.7401     5681.00000
    32.7532     4858.00000
    32.7664     4287.00000
    32.7795     3978.00000
    32.7926     3848.00000
    32.8058     3647.00000
    32.8189     3611.00000
    32.8320     3515.00000
    32.8452     3481.00000
    32.8583     3458.00000
    32.8714     3390.00000
    32.8845     3558.00000
    32.8977     3437.00000
    32.9108     3567.00000
    32.9239     3618.00000
    32.9371     3507.00000
    32.9502     3530.00000
    32.9633     3620.00000
    32.9765     3618.00000
    32.9896     3708.00000
    33.0027     3760.00000
    33.0159     3960.00000
    33.0290     3979.00000
    33.0421     4099.00000
    33.0552     4174.00000
    33.0684     4352.00000
    33.0815     4302.00000
    33.0946     4507.00000
    33.1078     4690.00000
    33.1209     5154.00000
    33.1340     5662.00000
    33.1472     6690.00000
    33.1603     8851.00000
    33.1734    12405.00000
    33.1865    18049.00000
    33.1997    25244.00000
    33.2128    31921.00000
    33.2259    35796.00000
    33.2391    34039.00000
    33.2522    30123.00000
    33.2653    25581.00000
    33.2785    23026.00000
    33.2916    21879.00000
    33.3047    21887.00000
    33.3178    20736.00000
    33.3310    18332.00000
    33.3441    14625.00000
    33.3572    11411.00000
    33.3704     8821.00000
    33.3835     6961.00000
    33.3966     6031.00000
    33.4098     5417.00000
    33.4229     5198.00000
    33.4360     5028.00000
    33.4492     5067.00000
    33.4623     5205.00000
    33.4754     5319.00000
    33.4885     5639.00000
    33.5017     6199.00000
    33.5148     7231.00000
    33.5279     9191.00000
    33.5411    12349.00000
    33.5542    16358.00000
    33.5673    20860.00000
    33.5805    25454.00000
    33.5936    28840.00000
    33.6067    30266.00000
    33.6198    29489.00000
    33.6330    25937.00000
    33.6461    22889.00000
    33.6592    21023.00000
    33.6724    20103.00000
    33.6855    19179.00000
    33.6986    18456.00000
    33.7118    16737.00000
    33.7249    15449.00000
    33.7380    15496.00000
    33.7511    16539.00000
    33.7643    17648.00000
    33.7774    17239.00000
    33.7905    15297.00000
    33.8037    12454.00000
    33.8168    10620.00000
    33.8299    10092.00000
    33.8431    10124.00000
    33.8562    10278.00000
    33.8693     9614.00000
    33.8825     8198.00000
    33.8956     6642.00000
    33.9087     5348.00000
    33.9218     4746.00000
    33.9350     4181.00000
    33.9481     3786.00000
    33.9612     3707.00000
    33.9744     3560.00000
    33.9875     3392.00000
    34.0006     3360.00000
    34.0138     3509.00000
    34.0269     3326.00000
    34.0400     3336.00000
    34.0531     3322.00000
    34.0663     3337.00000
    34.0794     3384.00000
    34.0925     3227.00000
    34.1057     3207.00000
    34.1188     3265.00000
    34.1319     3244.00000
    34.1451     3187.00000
    34.1582     3270.00000
    34.1713     3154.00000
    34.1844     3300.00000
    34.1976     3149.00000
    34.2107     3345.00000
    34.2238     3237.00000
    34.2370     3293.00000
    34.2501     3274.00000
    34.2632     3349.00000
    34.2764     3179.00000
    34.2895     3096.00000
    34.3026     3287.00000
    34.3158     3373.00000
    34.3289     3328.00000
    34.3420     3314.00000
    34.3551     3311.00000
    34.3683     3347.00000
    34.3814     3412.00000
    34.3945     3475.00000
    34.4077     3531.00000
    34.4208     3574.00000
    34.4339     3554.00000
    34.4471     3884.00000
    34.4602     4027.00000
    34.4733     4532.00000
    34.4864     5652.00000
    34.4996     7368.00000
    34.5127     9782.00000
    34.5258    12647.00000
    34.5390    14262.00000
    34.5521    13818.00000
    34.5652    12001.00000
    34.5784    10321.00000
    34.5915     9305.00000
    34.6046     9134.00000
    34.6177     9251.00000
    34.6309     9194.00000
    34.6440     8351.00000
    34.6571     7394.00000
    34.6703     6132.00000
    34.6834     5034.00000
    34.6965     4327.00000
    34.7097     3971.00000
    34.7228     3565.00000
    34.7359     3499.00000
    34.7491     3376.00000
    34.7622     3373.00000
    34.7753     3217.00000
    34.7884     3183.00000
    34.8016     3274.00000
    34.8147     3135.00000
    34.8278     3231.00000
    34.8410     3470.00000
    34.8541     3473.00000
    34.8672     3482.00000
    34.8804     3492.00000
    34.8935     3475.00000
    34.9066     3224.00000
    34.9197     3285.00000
    34.9329     3195.00000
    34.9460     3321.00000
    34.9591     3295.00000
    34.9723     3138.00000
    34.9854     3190.00000
    34.9985     2992.00000
    35.0117     3060.00000
    35.0248     3030.00000
    35.0379     3037.00000
    35.0510     2987.00000
    35.0642     3042.00000
    35.0773     2974.00000
    35.0904     2927.00000
    35.1036     2934.00000
    35.1167     2913.00000
    35.1298     2931.00000
    35.1430     2913.00000
    35.1561     2944.00000
    35.1692     2946.00000
    35.1824     2904.00000
    35.1955     3072.00000
    35.2086     2952.00000
    35.2217     2896.00000
    35.2349     3019.00000
    35.2480     2918.00000
    35.2611     2970.00000
    35.2743     3050.00000
    35.2874     3057.00000
    35.3005     2918.00000
    35.3137     3029.00000
    35.3268     2920.00000
    35.3399     2858.00000
    35.3530     3051.00000
    35.3662     2951.00000
    35.3793     2917.00000
    35.3924     3025.00000
    35.4056     3040.00000
    35.4187     3043.00000
    35.4318     2961.00000
    35.4450     3043.00000
    35.4581     2936.00000
    35.4712     2907.00000
    35.4843     2919.00000
    35.4975     2896.00000
    35.5106     2972.00000
    35.5237     3066.00000
    35.5369     3023.00000
    35.5500     2933.00000
    35.5631     3018.00000
    35.5763     2868.00000
    35.5894     2958.00000
    35.6025     3083.00000
    35.6156     3006.00000
    35.6288     2983.00000
    35.6419     3072.00000
    35.6550     3002.00000
    35.6682     2964.00000
    35.6813     2911.00000
    35.6944     2904.00000
    35.7076     2942.00000
    35.7207     2882.00000
    35.7338     2998.00000
    35.7470     2890.00000
    35.7601     3008.00000
    35.7732     2918.00000
    35.7863     3024.00000
    35.7995     2946.00000
    35.8126     3081.00000
    35.8257     3047.00000
    35.8389     2970.00000
    35.8520     2926.00000
    35.8651     2863.00000
    35.8783     2906.00000
    35.8914     3043.00000
    35.9045     2964.00000
    35.9176     2944.00000
    35.9308     2800.00000
    35.9439     2948.00000
    35.9570     2942.00000
    35.9702     2821.00000
    35.9833     2937.00000
    35.9964     3001.00000
    36.0096     2877.00000
    36.0227     2936.00000
    36.0358     3022.00000
    36.0489     2841.00000
    36.0621     2915.00000
    36.0752     3009.00000
    36.0883     2944.00000
    36.1015     2980.00000
    36.1146     2925.00000
    36.1277     2963.00000
    36.1409     2951.00000
    36.1540     2998.00000
    36.1671     3016.00000
    36.1802     2883.00000
    36.1934     2983.00000
    36.2065     2894.00000
    36.2196     2909.00000
    36.2328     3023.00000
    36.2459     2973.00000
    36.2590     3013.00000
    36.2722     2962.00000
    36.2853     2992.00000
    36.2984     2903.00000
    36.3116     2974.00000
    36.3247     2977.00000
    36.3378     2867.00000
    36.3509     2867.00000
    36.3641     2882.00000
    36.3772     2956.00000
    36.3903     2946.00000
    36.4035     3029.00000
    36.4166     2858.00000
    36.4297     2930.00000
    36.4429     3091.00000
    36.4560     2998.00000
    36.4691     3001.00000
    36.4822     3035.00000
    36.4954     3077.00000
    36.5085     3140.00000
    36.5216     3216.00000
    36.5348     3099.00000
    36.5479     3097.00000
    36.5610     3167.00000
    36.5742     3523.00000
    36.5873     3597.00000
    36.6004     3821.00000
    36.6135     4386.00000
    36.6267     5374.00000
    36.6398     6780.00000
    36.6529     8243.00000
    36.6661     9232.00000
    36.6792     9071.00000
    36.6923     8335.00000
    36.7055     7111.00000
    36.7186     6042.00000
    36.7317     5789.00000
    36.7449     6234.00000
    36.7580     6203.00000
    36.7711     6216.00000
    36.7842     5686.00000
    36.7974     5006.00000
    36.8105     4285.00000
    36.8236     3793.00000
    36.8368     3460.00000
    36.8499     3323.00000
    36.8630     3255.00000
    36.8762     3128.00000
    36.8893     3146.00000
    36.9024     3043.00000
    36.9155     3231.00000
    36.9287     3114.00000
    36.9418     3035.00000
    36.9549     3112.00000
    36.9681     3097.00000
    36.9812     3030.00000
    36.9943     3003.00000
    37.0075     3009.00000
    37.0206     3138.00000
    37.0337     3080.00000
    37.0468     3112.00000
    37.0600     3171.00000
    37.0731     3086.00000
    37.0862     3188.00000
    37.0994     3227.00000
    37.1125     3330.00000
    37.1256     3425.00000
    37.1388     3542.00000
    37.1519     3838.00000
    37.1650     4281.00000
    37.1782     5095.00000
    37.1913     6267.00000
    37.2044     7702.00000
    37.2175     9029.00000
    37.2307    10002.00000
    37.2438    10062.00000
    37.2569     9458.00000
    37.2701     8397.00000
    37.2832     7602.00000
    37.2963     6918.00000
    37.3095     6817.00000
    37.3226     6685.00000
    37.3357     6705.00000
    37.3488     6313.00000
    37.3620     5631.00000
    37.3751     4852.00000
    37.3882     4259.00000
    37.4014     3768.00000
    37.4145     3520.00000
    37.4276     3339.00000
    37.4408     3215.00000
    37.4539     3090.00000
    37.4670     3137.00000
    37.4801     3059.00000
    37.4933     3166.00000
    37.5064     3294.00000
    37.5195     3548.00000
    37.5327     3497.00000
    37.5458     3569.00000
    37.5589     3442.00000
    37.5721     3310.00000
    37.5852     3207.00000
    37.5983     3207.00000
    37.6115     3388.00000
    37.6246     3220.00000
    37.6377     3280.00000
    37.6508     3237.00000
    37.6640     3230.00000
    37.6771     3075.00000
    37.6902     3002.00000
    37.7034     2966.00000
    37.7165     2940.00000
    37.7296     2937.00000
    37.7428     2958.00000
    37.7559     2947.00000
    37.7690     2892.00000
    37.7821     2804.00000
    37.7953     2826.00000
    37.8084     2822.00000
    37.8215     2841.00000
    37.8347     2754.00000
    37.8478     2778.00000
    37.8609     2891.00000
    37.8741     2735.00000
    37.8872     2816.00000
    37.9003     2883.00000
    37.9134     2815.00000
    37.9266     2735.00000
    37.9397     2849.00000
    37.9528     2852.00000
    37.9660     2808.00000
    37.9791     2724.00000
    37.9922     2841.00000
    38.0054     2832.00000
    38.0185     2743.00000
    38.0316     2755.00000
    38.0448     2725.00000
    38.0579     2854.00000
    38.0710     2786.00000
    38.0841     2713.00000
    38.0973     2755.00000
    38.1104     2774.00000
    38.1235     2797.00000
    38.1367     2830.00000
    38.1498     2780.00000
    38.1629     2690.00000
    38.1761     2831.00000
    38.1892     2762.00000
    38.2023     2784.00000
    38.2154     2741.00000
    38.2286     2795.00000
    38.2417     2739.00000
    38.2548     2756.00000
    38.2680     2824.00000
    38.2811     2835.00000
    38.2942     2838.00000
    38.3074     2777.00000
    38.3205     2709.00000
    38.3336     2803.00000
    38.3467     2689.00000
    38.3599     2755.00000
    38.3730     2721.00000
    38.3861     2720.00000
    38.3993     2811.00000
    38.4124     2715.00000
    38.4255     2799.00000
    38.4387     2813.00000
    38.4518     2896.00000
    38.4649     2657.00000
    38.4781     2744.00000
    38.4912     2755.00000
    38.5043     2795.00000
    38.5174     2828.00000
    38.5306     2755.00000
    38.5437     2739.00000
    38.5568     2761.00000
    38.5700     2762.00000
    38.5831     2756.00000
    38.5962     2796.00000
    38.6094     2699.00000
    38.6225     2783.00000
    38.6356     2816.00000
    38.6487     2853.00000
    38.6619     2892.00000
    38.6750     2803.00000
    38.6881     2801.00000
    38.7013     2776.00000
    38.7144     2790.00000
    38.7275     2781.00000
    38.7407     2736.00000
    38.7538     2810.00000
    38.7669     2764.00000
    38.7800     2734.00000
    38.7932     2696.00000
    38.8063     2834.00000
    38.8194     2834.00000
    38.8326     2719.00000
    38.8457     2781.00000
    38.8588     2770.00000
    38.8720     2897.00000
    38.8851     2684.00000
    38.8982     2737.00000
    38.9114     2804.00000
    38.9245     2766.00000
    38.9376     2643.00000
    38.9507     2763.00000
    38.9639     2785.00000
    38.9770     2812.00000
    38.9901     2792.00000
    39.0033     2884.00000
    39.0164     2716.00000
    39.0295     2837.00000
    39.0427     2829.00000
    39.0558     2729.00000
    39.0689     2774.00000
    39.0820     2723.00000
    39.0952     2713.00000
    39.1083     2695.00000
    39.1214     2767.00000
    39.1346     2759.00000
    39.1477     2730.00000
    39.1608     2744.00000
    39.1740     2917.00000
    39.1871     2803.00000
    39.2002     2809.00000
    39.2133     2751.00000
    39.2265     2734.00000
    39.2396     2805.00000
    39.2527     2791.00000
    39.2659     2744.00000
    39.2790     2779.00000
    39.2921     2766.00000
    39.3053     2763.00000
    39.3184     2807.00000
    39.3315     2709.00000
    39.3446     2784.00000
    39.3578     2878.00000
    39.3709     2803.00000
    39.3840     2879.00000
    39.3972     2732.00000
    39.4103     2770.00000
    39.4234     2786.00000
    39.4366     2856.00000
    39.4497     2849.00000
    39.4628     2844.00000
    39.4760     2919.00000
    39.4891     3016.00000
    39.5022     3044.00000
    39.5153     3106.00000
    39.5285     3405.00000
    39.5416     3675.00000
    39.5547     3993.00000
    39.5679     4282.00000
    39.5810     4460.00000
    39.5941     4584.00000
    39.6073     4749.00000
    39.6204     4289.00000
    39.6335     4173.00000
    39.6466     4044.00000
    39.6598     4017.00000
    39.6729     3950.00000
    39.6860     3797.00000
    39.6992     3825.00000
    39.7123     3721.00000
    39.7254     3683.00000
    39.7386     3586.00000
    39.7517     3549.00000
    39.7648     3417.00000
    39.7779     3461.00000
    39.7911     3532.00000
    39.8042     3727.00000
    39.8173     4347.00000
    39.8305     5127.00000
    39.8436     6173.00000
    39.8567     7110.00000
    39.8699     8002.00000
    39.8830     7828.00000
    39.8961     7069.00000
    39.9092     6228.00000
    39.9224     5457.00000
    39.9355     5356.00000
    39.9486     5285.00000
    39.9618     5618.00000
    39.9749     5715.00000
    39.9880     5347.00000
    40.0012     5005.00000
    40.0143     4392.00000
    40.0274     3984.00000
    40.0406     3634.00000
    40.0537     3383.00000
    40.0668     3398.00000
    40.0799     3163.00000
    40.0931     3222.00000
    40.1062     3133.00000
    40.1193     3261.00000
    40.1325     3222.00000
    40.1456     3091.00000
    40.1587     3152.00000
    40.1719     3190.00000
    40.1850     3183.00000
    40.1981     3491.00000
    40.2112     3618.00000
    40.2244     3979.00000
    40.2375     4606.00000
    40.2506     5619.00000
    40.2638     7039.00000
    40.2769     8939.00000
    40.2900    10084.00000
    40.3032    10411.00000
    40.3163     9203.00000
    40.3294     7781.00000
    40.3425     6378.00000
    40.3557     5930.00000
    40.3688     5982.00000
    40.3819     6631.00000
    40.3951     6856.00000
    40.4082     6814.00000
    40.4213     6245.00000
    40.4345     5190.00000
    40.4476     4407.00000
    40.4607     3864.00000
    40.4739     3591.00000
    40.4870     3341.00000
    40.5001     3234.00000
    40.5132     3129.00000
    40.5264     3099.00000
    40.5395     3109.00000
    40.5526     2985.00000
    40.5658     3086.00000
    40.5789     3214.00000
    40.5920     3114.00000
    40.6052     3099.00000
    40.6183     3114.00000
    40.6314     3132.00000
    40.6445     3152.00000
    40.6577     3134.00000
    40.6708     3154.00000
    40.6839     3324.00000
    40.6971     3438.00000
    40.7102     3565.00000
    40.7233     3867.00000
    40.7365     4186.00000
    40.7496     4658.00000
    40.7627     5581.00000
    40.7758     6635.00000
    40.7890     8281.00000
    40.8021     9889.00000
    40.8152    11106.00000
    40.8284    11440.00000
    40.8415    10898.00000
    40.8546     9428.00000
    40.8678     8204.00000
    40.8809     7506.00000
    40.8940     7211.00000
    40.9072     7771.00000
    40.9203     8496.00000
    40.9334     8978.00000
    40.9465     9138.00000
    40.9597     9540.00000
    40.9728    10845.00000
    40.9859    12166.00000
    40.9991    13222.00000
    41.0122    13175.00000
    41.0253    12567.00000
    41.0385    11093.00000
    41.0516    10539.00000
    41.0647    10866.00000
    41.0778    12483.00000
    41.0910    14921.00000
    41.1041    16217.00000
    41.1172    16495.00000
    41.1304    14943.00000
    41.1435    12250.00000
    41.1566     9898.00000
    41.1698     8523.00000
    41.1829     7940.00000
    41.1960     7866.00000
    41.2091     8081.00000
    41.2223     7764.00000
    41.2354     7074.00000
    41.2485     6283.00000
    41.2617     5198.00000
    41.2748     4424.00000
    41.2879     3874.00000
    41.3011     3424.00000
    41.3142     3358.00000
    41.3273     3176.00000
    41.3405     3031.00000
    41.3536     3044.00000
    41.3667     3023.00000
    41.3798     3064.00000
    41.3930     2864.00000
    41.4061     2913.00000
    41.4192     2902.00000
    41.4324     2911.00000
    41.4455     2775.00000
    41.4586     2673.00000
    41.4718     2807.00000
    41.4849     2787.00000
    41.4980     2790.00000
    41.5111     2782.00000
    41.5243     2776.00000
    41.5374     2834.00000
    41.5505     2829.00000
    41.5637     2733.00000
    41.5768     2824.00000
    41.5899     2732.00000
    41.6031     2760.00000
    41.6162     2741.00000
    41.6293     2857.00000
    41.6424     2792.00000
    41.6556     2757.00000
    41.6687     2818.00000
    41.6818     2755.00000
    41.6950     2737.00000
    41.7081     2743.00000
    41.7212     2742.00000
    41.7344     2740.00000
    41.7475     2805.00000
    41.7606     2833.00000
    41.7738     2795.00000
    41.7869     2780.00000
    41.8000     2709.00000
    41.8131     2776.00000
    41.8263     2740.00000
    41.8394     2627.00000
    41.8525     2745.00000
    41.8657     2789.00000
    41.8788     2743.00000
    41.8919     2763.00000
    41.9051     2731.00000
    41.9182     2738.00000
    41.9313     2769.00000
    41.9444     2724.00000
    41.9576     2673.00000
    41.9707     2729.00000
    41.9838     2768.00000
    41.9970     2658.00000
    42.0101     2767.00000
    42.0232     2767.00000
    42.0364     2707.00000
    42.0495     2707.00000
    42.0626     2826.00000
    42.0757     2722.00000
    42.0889     2649.00000
    42.1020     2668.00000
    42.1151     2803.00000
    42.1283     2643.00000
    42.1414     2740.00000
    42.1545     2716.00000
    42.1677     2707.00000
    42.1808     2689.00000
    42.1939     2717.00000
    42.2071     2803.00000
    42.2202     2794.00000
    42.2333     2673.00000
    42.2464     2808.00000
    42.2596     2780.00000
    42.2727     2621.00000
    42.2858     2626.00000
    42.2990     2645.00000
    42.3121     2687.00000
    42.3252     2642.00000
    42.3384     2694.00000
    42.3515     2688.00000
    42.3646     2776.00000
    42.3777     2609.00000
    42.3909     2741.00000
    42.4040     2643.00000
    42.4171     2692.00000
    42.4303     2703.00000
    42.4434     2706.00000
    42.4565     2749.00000
    42.4697     2757.00000
    42.4828     2665.00000
    42.4959     2685.00000
    42.5090     2715.00000
    42.5222     2745.00000
    42.5353     2712.00000
    42.5484     2627.00000
    42.5616     2604.00000
    42.5747     2747.00000
    42.5878     2750.00000
    42.6010     2678.00000
    42.6141     2702.00000
    42.6272     2698.00000
    42.6404     2737.00000
    42.6535     2687.00000
    42.6666     2662.00000
    42.6797     2661.00000
    42.6929     2582.00000
    42.7060     2655.00000
    42.7191     2734.00000
    42.7323     2691.00000
    42.7454     2711.00000
    42.7585     2805.00000
    42.7717     2722.00000
    42.7848     2731.00000
    42.7979     2657.00000
    42.8110     2686.00000
    42.8242     2732.00000
    42.8373     2708.00000
    42.8504     2805.00000
    42.8636     2755.00000
    42.8767     2715.00000
    42.8898     2739.00000
    42.9030     2766.00000
    42.9161     2733.00000
    42.9292     2687.00000
    42.9423     2766.00000
    42.9555     2697.00000
    42.9686     2668.00000
    42.9817     2746.00000
    42.9949     2687.00000
    43.0080     2686.00000
    43.0211     2650.00000
    43.0343     2684.00000
    43.0474     2678.00000
    43.0605     2667.00000
    43.0736     2771.00000
    43.0868     2689.00000
    43.0999     2649.00000
    43.1130     2611.00000
    43.1262     2728.00000
    43.1393     2664.00000
    43.1524     2786.00000
    43.1656     2689.00000
    43.1787     2729.00000
    43.1918     2786.00000
    43.2050     2663.00000
    43.2181     2739.00000
    43.2312     2864.00000
    43.2443     2895.00000
    43.2575     3152.00000
    43.2706     3185.00000
    43.2837     3299.00000
    43.2969     3333.00000
    43.3100     3192.00000
    43.3231     3106.00000
    43.3363     3010.00000
    43.3494     2953.00000
    43.3625     3007.00000
    43.3756     2888.00000
    43.3888     3019.00000
    43.4019     3089.00000
    43.4150     3020.00000
    43.4282     2945.00000
    43.4413     2878.00000
    43.4544     2831.00000
    43.4676     2740.00000
    43.4807     2746.00000
    43.4938     2714.00000
    43.5069     2699.00000
    43.5201     2680.00000
    43.5332     2621.00000
    43.5463     2709.00000
    43.5595     2717.00000
    43.5726     2656.00000
    43.5857     2728.00000
    43.5989     2741.00000
    43.6120     2673.00000
    43.6251     2792.00000
    43.6383     2682.00000
    43.6514     2691.00000
    43.6645     2757.00000
    43.6776     2604.00000
    43.6908     2679.00000
    43.7039     2737.00000
    43.7170     2654.00000
    43.7302     2698.00000
    43.7433     2596.00000
    43.7564     2782.00000
    43.7696     2709.00000
    43.7827     2690.00000
    43.7958     2618.00000
    43.8089     2663.00000
    43.8221     2708.00000
    43.8352     2776.00000
    43.8483     2667.00000
    43.8615     2665.00000
    43.8746     2679.00000
    43.8877     2646.00000
    43.9009     2616.00000
    43.9140     2609.00000
    43.9271     2703.00000
    43.9402     2749.00000
    43.9534     2787.00000
    43.9665     2809.00000
    43.9796     2722.00000
    43.9928     2813.00000
    44.0059     2887.00000
    44.0190     2930.00000
    44.0322     3299.00000
    44.0453     3350.00000
    44.0584     3687.00000
    44.0715     3952.00000
    44.0847     4156.00000
    44.0978     4087.00000
    44.1109     3870.00000
    44.1241     3634.00000
    44.1372     3450.00000
    44.1503     3347.00000
    44.1635     3416.00000
    44.1766     3486.00000
    44.1897     3629.00000
    44.2029     3527.00000
    44.2160     3506.00000
    44.2291     3390.00000
    44.2422     3370.00000
    44.2554     3147.00000
    44.2685     3087.00000
    44.2816     3211.00000
    44.2948     3237.00000
    44.3079     3485.00000
    44.3210     3788.00000
    44.3342     4283.00000
    44.3473     4832.00000
    44.3604     5088.00000
    44.3735     5358.00000
    44.3867     5444.00000
    44.3998     5059.00000
    44.4129     4699.00000
    44.4261     4274.00000
    44.4392     3950.00000
    44.4523     4000.00000
    44.4655     4190.00000
    44.4786     4174.00000
    44.4917     4177.00000
    44.5048     4098.00000
    44.5180     3860.00000
    44.5311     3624.00000
    44.5442     3382.00000
    44.5574     3210.00000
    44.5705     3112.00000
    44.5836     2893.00000
    44.5968     2831.00000
    44.6099     2767.00000
    44.6230     2914.00000
    44.6362     2681.00000
    44.6493     2800.00000
    44.6624     2730.00000
    44.6755     2690.00000
    44.6887     2690.00000
    44.7018     2638.00000
    44.7149     2740.00000
    44.7281     2694.00000
    44.7412     2719.00000
    44.7543     2764.00000
    44.7675     2689.00000
    44.7806     2730.00000
    44.7937     2734.00000
    44.8068     2661.00000
    44.8200     2737.00000
    44.8331     2662.00000
    44.8462     2720.00000
    44.8594     2572.00000
    44.8725     2625.00000
    44.8856     2755.00000
    44.8988     2707.00000
    44.9119     2699.00000
    44.9250     2603.00000
    44.9381     2728.00000
    44.9513     2637.00000
    44.9644     2640.00000
    44.9775     2577.00000
    44.9907     2631.00000
    45.0038     2720.00000
    45.0169     2658.00000
    45.0301     2727.00000
    45.0432     2644.00000
    45.0563     2791.00000
    45.0695     2624.00000
    45.0826     2694.00000
    45.0957     2646.00000
    45.1088     2712.00000
    45.1220     2781.00000
    45.1351     2782.00000
    45.1482     2708.00000
    45.1614     2716.00000
    45.1745     2781.00000
    45.1876     2754.00000
    45.2008     2661.00000
    45.2139     2732.00000
    45.2270     2699.00000
    45.2401     2657.00000
    45.2533     2749.00000
    45.2664     2769.00000
    45.2795     2706.00000
    45.2927     2785.00000
    45.3058     2817.00000
    45.3189     2812.00000
    45.3321     2747.00000
    45.3452     2823.00000
    45.3583     2855.00000
    45.3714     2796.00000
    45.3846     2867.00000
    45.3977     2928.00000
    45.4108     2864.00000
    45.4240     2931.00000
    45.4371     3047.00000
    45.4502     3069.00000
    45.4634     3171.00000
    45.4765     3291.00000
    45.4896     3553.00000
    45.5028     4051.00000
    45.5159     4672.00000
    45.5290     6011.00000
    45.5421     7857.00000
    45.5553     9800.00000
    45.5684    11212.00000
    45.5815    10780.00000
    45.5947     9408.00000
    45.6078     7266.00000
    45.6209     5697.00000
    45.6341     5104.00000
    45.6472     4959.00000
    45.6603     5675.00000
    45.6734     6372.00000
    45.6866     6955.00000
    45.6997     6857.00000
    45.7128     6366.00000
    45.7260     5248.00000
    45.7391     4217.00000
    45.7522     3640.00000
    45.7654     3344.00000
    45.7785     3179.00000
    45.7916     2962.00000
    45.8047     2985.00000
    45.8179     2909.00000
    45.8310     2915.00000
    45.8441     2764.00000
    45.8573     2856.00000
    45.8704     2764.00000
    45.8835     2836.00000
    45.8967     2730.00000
    45.9098     2783.00000
    45.9229     2757.00000
    45.9361     2729.00000
    45.9492     2764.00000
    45.9623     2725.00000
    45.9754     2770.00000
    45.9886     2810.00000
    46.0017     2789.00000
    46.0148     2720.00000
    46.0280     2769.00000
    46.0411     2770.00000
    46.0542     2795.00000
    46.0674     2824.00000
    46.0805     2815.00000
    46.0936     2842.00000
    46.1067     2791.00000
    46.1199     2936.00000
    46.1330     2930.00000
    46.1461     2808.00000
    46.1593     2830.00000
    46.1724     2975.00000
    46.1855     2997.00000
    46.1987     3008.00000
    46.2118     3164.00000
    46.2249     3323.00000
    46.2380     3288.00000
    46.2512     3715.00000
    46.2643     4436.00000
    46.2774     5146.00000
    46.2906     6080.00000
    46.3037     7020.00000
    46.3168     7004.00000
    46.3300     6250.00000
    46.3431     5204.00000
    46.3562     4508.00000
    46.3694     4246.00000
    46.3825     3961.00000
    46.3956     4165.00000
    46.4087     4596.00000
    46.4219     4761.00000
    46.4350     4891.00000
    46.4481     4818.00000
    46.4613     4230.00000
    46.4744     3720.00000
    46.4875     3373.00000
    46.5007     3144.00000
    46.5138     2946.00000
    46.5269     3023.00000
    46.5400     2901.00000
    46.5532     2965.00000
    46.5663     2930.00000
    46.5794     2832.00000
    46.5926     2873.00000
    46.6057     2871.00000
    46.6188     2924.00000
    46.6320     2839.00000
    46.6451     2947.00000
    46.6582     2865.00000
    46.6713     2945.00000
    46.6845     2857.00000
    46.6976     2904.00000
    46.7107     2778.00000
    46.7239     2935.00000
    46.7370     2868.00000
    46.7501     2892.00000
    46.7633     3009.00000
    46.7764     2931.00000
    46.7895     3008.00000
    46.8027     3043.00000
    46.8158     3037.00000
    46.8289     3031.00000
    46.8420     3167.00000
    46.8552     3290.00000
    46.8683     3442.00000
    46.8814     3669.00000
    46.8946     4217.00000
    46.9077     4669.00000
    46.9208     5494.00000
    46.9340     6662.00000
    46.9471     7383.00000
    46.9602     8309.00000
    46.9733     8640.00000
    46.9865     8565.00000
    46.9996     7413.00000
    47.0127     6347.00000
    47.0259     5478.00000
    47.0390     5233.00000
    47.0521     5144.00000
    47.0653     5434.00000
    47.0784     5703.00000
    47.0915     5920.00000
    47.1046     5884.00000
    47.1178     5524.00000
    47.1309     4727.00000
    47.1440     4169.00000
    47.1572     3680.00000
    47.1703     3408.00000
    47.1834     3286.00000
    47.1966     3186.00000
    47.2097     3056.00000
    47.2228     3059.00000
    47.2359     2995.00000
    47.2491     3075.00000
    47.2622     2997.00000
    47.2753     3137.00000
    47.2885     3145.00000
    47.3016     3081.00000
    47.3147     3112.00000
    47.3279     3034.00000
    47.3410     3203.00000
    47.3541     3147.00000
    47.3673     3227.00000
    47.3804     3152.00000
    47.3935     3234.00000
    47.4066     3306.00000
    47.4198     3423.00000
    47.4329     3501.00000
    47.4460     3427.00000
    47.4592     3577.00000
    47.4723     3600.00000
    47.4854     3733.00000
    47.4986     3777.00000
    47.5117     4023.00000
    47.5248     4200.00000
    47.5379     4669.00000
    47.5511     5030.00000
    47.5642     5937.00000
    47.5773     7066.00000
    47.5905     8854.00000
    47.6036    11609.00000
    47.6167    14810.00000
    47.6299    17907.00000
    47.6430    20323.00000
    47.6561    20170.00000
    47.6692    17930.00000
    47.6824    14920.00000
    47.6955    12522.00000
    47.7086    10973.00000
    47.7218     9994.00000
    47.7349    10536.00000
    47.7480    11169.00000
    47.7612    12131.00000
    47.7743    12259.00000
    47.7874    11682.00000
    47.8005     9929.00000
    47.8137     8248.00000
    47.8268     6968.00000
    47.8399     5761.00000
    47.8531     4883.00000
    47.8662     4454.00000
    47.8793     4020.00000
    47.8925     3927.00000
    47.9056     3590.00000
    47.9187     3424.00000
    47.9319     3339.00000
    47.9450     3401.00000
    47.9581     3258.00000
    47.9712     3128.00000
    47.9844     3268.00000
    47.9975     3263.00000
    48.0106     3209.00000
    48.0238     3253.00000
    48.0369     3117.00000
    48.0500     3096.00000
    48.0632     3141.00000
    48.0763     3291.00000
    48.0894     3175.00000
    48.1025     3220.00000
    48.1157     3346.00000
    48.1288     3299.00000
    48.1419     3503.00000
    48.1551     3468.00000
    48.1682     3576.00000
    48.1813     3857.00000
    48.1945     4182.00000
    48.2076     4942.00000
    48.2207     6263.00000
    48.2338     7807.00000
    48.2470     9850.00000
    48.2601    11518.00000
    48.2732    12151.00000
    48.2864    12428.00000
    48.2995    12817.00000
    48.3126    13377.00000
    48.3258    13069.00000
    48.3389    12393.00000
    48.3520    11645.00000
    48.3652    11136.00000
    48.3783    10369.00000
    48.3914     9517.00000
    48.4045     9011.00000
    48.4177     8582.00000
    48.4308     8355.00000
    48.4439     8389.00000
    48.4571     8228.00000
    48.4702     7554.00000
    48.4833     6761.00000
    48.4965     5929.00000
    48.5096     5224.00000
    48.5227     4565.00000
    48.5358     4311.00000
    48.5490     4451.00000
    48.5621     4468.00000
    48.5752     4839.00000
    48.5884     5462.00000
    48.6015     6625.00000
    48.6146     8341.00000
    48.6278    10664.00000
    48.6409    12501.00000
    48.6540    13356.00000
    48.6671    12550.00000
    48.6803    10656.00000
    48.6934     8687.00000
    48.7065     6966.00000
    48.7197     6355.00000
    48.7328     6275.00000
    48.7459     6674.00000
    48.7591     7414.00000
    48.7722     8175.00000
    48.7853     8196.00000
    48.7985     7613.00000
    48.8116     6532.00000
    48.8247     5406.00000
    48.8378     4802.00000
    48.8510     4113.00000
    48.8641     3767.00000
    48.8772     3518.00000
    48.8904     3257.00000
    48.9035     3195.00000
    48.9166     3284.00000
    48.9298     3087.00000
    48.9429     3067.00000
    48.9560     2998.00000
    48.9691     2981.00000
    48.9823     3083.00000
    48.9954     2910.00000
    49.0085     2965.00000
    49.0217     2897.00000
    49.0348     3009.00000
    49.0479     2897.00000
    49.0611     2900.00000
    49.0742     2818.00000
    49.0873     2858.00000
    49.1004     2897.00000
    49.1136     2931.00000
    49.1267     2943.00000
    49.1398     2871.00000
    49.1530     2884.00000
    49.1661     2848.00000
    49.1792     2909.00000
    49.1924     2906.00000
    49.2055     3060.00000
    49.2186     2896.00000
    49.2318     2981.00000
    49.2449     2927.00000
    49.2580     3041.00000
    49.2711     3052.00000
    49.2843     3126.00000
    49.2974     3176.00000
    49.3105     3219.00000
    49.3237     3309.00000
    49.3368     3509.00000
    49.3499     3644.00000
    49.3631     3609.00000
    49.3762     3379.00000
    49.3893     3266.00000
    49.4024     3289.00000
    49.4156     3243.00000
    49.4287     3218.00000
    49.4418     3316.00000
    49.4550     3298.00000
    49.4681     3322.00000
    49.4812     3589.00000
    49.4944     3537.00000
    49.5075     3628.00000
    49.5206     3616.00000
    49.5337     3495.00000
    49.5469     3512.00000
    49.5600     3539.00000
    49.5731     3666.00000
    49.5863     3451.00000
    49.5994     3557.00000
    49.6125     3530.00000
    49.6257     3524.00000
    49.6388     3550.00000
    49.6519     3665.00000
    49.6651     3673.00000
    49.6782     3553.00000
    49.6913     3671.00000
    49.7044     3726.00000
    49.7176     3703.00000
    49.7307     3939.00000
    49.7438     3912.00000
    49.7570     4130.00000
    49.7701     4687.00000
    49.7832     5248.00000
    49.7964     6163.00000
    49.8095     7591.00000
    49.8226     9810.00000
    49.8357    12886.00000
    49.8489    15752.00000
    49.8620    17959.00000
    49.8751    18884.00000
    49.8883    17675.00000
    49.9014    15207.00000
    49.9145    12700.00000
    49.9277    10733.00000
    49.9408     9598.00000
    49.9539     9470.00000
    49.9670    10212.00000
    49.9802    11038.00000
    49.9933    11632.00000
    50.0064    11711.00000
    50.0196    10936.00000
    50.0327     9599.00000
    50.0458     8099.00000
    50.0590     6971.00000
    50.0721     5796.00000
    50.0852     5251.00000
    50.0984     4729.00000
    50.1115     4364.00000
    50.1246     4177.00000
    50.1377     4110.00000
    50.1509     3906.00000
    50.1640     3849.00000
    50.1771     3908.00000
    50.1903     3957.00000
    50.2034     4136.00000
    50.2165     4334.00000
    50.2297     4802.00000
    50.2428     5274.00000
    50.2559     6288.00000
    50.2690     7427.00000
    50.2822     8657.00000
    50.2953    10142.00000
    50.3084    11027.00000
    50.3216    11582.00000
    50.3347    11061.00000
    50.3478     9774.00000
    50.3610     8177.00000
    50.3741     7161.00000
    50.3872     6582.00000
    50.4003     6485.00000
    50.4135     6687.00000
    50.4266     7072.00000
    50.4397     7451.00000
    50.4529     7483.00000
    50.4660     7389.00000
    50.4791     6411.00000
    50.4923     5701.00000
    50.5054     4853.00000
    50.5185     4410.00000
    50.5317     3887.00000
    50.5448     3715.00000
    50.5579     3508.00000
    50.5710     3411.00000
    50.5842     3326.00000
    50.5973     3218.00000
    50.6104     3132.00000
    50.6236     3153.00000
    50.6367     3133.00000
    50.6498     3076.00000
    50.6630     2911.00000
    50.6761     2953.00000
    50.6892     3014.00000
    50.7023     2926.00000
    50.7155     2961.00000
    50.7286     2862.00000
    50.7417     2964.00000
    50.7549     2945.00000
    50.7680     2767.00000
    50.7811     2952.00000
    50.7943     2973.00000
    50.8074     2951.00000
    50.8205     2957.00000
    50.8336     2766.00000
    50.8468     2829.00000
    50.8599     2854.00000
    50.8730     2917.00000
    50.8862     2867.00000
    50.8993     2972.00000
    50.9124     2973.00000
    50.9256     2927.00000
    50.9387     3046.00000
    50.9518     2902.00000
    50.9649     3016.00000
    50.9781     3005.00000
    50.9912     3051.00000
    51.0043     3042.00000
    51.0175     3033.00000
    51.0306     3005.00000
    51.0437     3004.00000
    51.0569     3068.00000
    51.0700     3193.00000
    51.0831     3224.00000
    51.0963     3355.00000
    51.1094     3670.00000
    51.1225     4032.00000
    51.1356     4677.00000
    51.1488     5653.00000
    51.1619     7165.00000
    51.1750     8282.00000
    51.1882     8875.00000
    51.2013     8675.00000
    51.2144     7735.00000
    51.2276     6444.00000
    51.2407     5458.00000
    51.2538     4890.00000
    51.2669     4661.00000
    51.2801     4682.00000
    51.2932     5191.00000
    51.3063     5799.00000
    51.3195     6112.00000
    51.3326     6236.00000
    51.3457     5657.00000
    51.3589     5163.00000
    51.3720     4655.00000
    51.3851     4162.00000
    51.3982     4040.00000
    51.4114     3948.00000
    51.4245     3793.00000
    51.4376     3759.00000
    51.4508     3690.00000
    51.4639     3322.00000
    51.4770     3302.00000
    51.4902     3046.00000
    51.5033     2997.00000
    51.5164     3046.00000
    51.5296     3192.00000
    51.5427     3127.00000
    51.5558     3303.00000
    51.5689     3238.00000
    51.5821     3025.00000
    51.5952     3130.00000
    51.6083     2965.00000
    51.6215     2966.00000
    51.6346     2933.00000
    51.6477     2796.00000
    51.6609     2811.00000
    51.6740     2897.00000
    51.6871     2823.00000
    51.7002     2838.00000
    51.7134     2815.00000
    51.7265     2810.00000
    51.7396     2720.00000
    51.7528     2750.00000
    51.7659     2824.00000
    51.7790     2831.00000
    51.7922     2827.00000
    51.8053     2831.00000
    51.8184     2856.00000
    51.8315     2835.00000
    51.8447     2838.00000
    51.8578     2889.00000
    51.8709     2735.00000
    51.8841     2714.00000
    51.8972     2818.00000
    51.9103     2842.00000
    51.9235     2806.00000
    51.9366     2792.00000
    51.9497     2762.00000
    51.9628     2801.00000
    51.9760     2771.00000
    51.9891     2895.00000
    52.0022     2805.00000
    52.0154     2873.00000
    52.0285     2780.00000
    52.0416     2868.00000
    52.0548     2886.00000
    52.0679     2821.00000
    52.0810     2905.00000
    52.0942     2860.00000
    52.1073     2797.00000
    52.1204     2741.00000
    52.1335     2864.00000
    52.1467     2960.00000
    52.1598     2895.00000
    52.1729     2917.00000
    52.1861     2940.00000
    52.1992     2958.00000
    52.2123     3014.00000
    52.2255     2984.00000
    52.2386     3003.00000
    52.2517     3050.00000
    52.2648     3151.00000
    52.2780     3145.00000
    52.2911     3207.00000
    52.3042     3163.00000
    52.3174     3267.00000
    52.3305     3309.00000
    52.3436     3593.00000
    52.3568     4080.00000
    52.3699     4433.00000
    52.3830     5172.00000
    52.3961     6317.00000
    52.4093     7563.00000
    52.4224     8813.00000
    52.4355     9977.00000
    52.4487    10199.00000
    52.4618    10171.00000
    52.4749     9822.00000
    52.4881     9090.00000
    52.5012     8116.00000
    52.5143     6906.00000
    52.5275     6336.00000
    52.5406     6073.00000
    52.5537     6280.00000
    52.5668     6479.00000
    52.5800     6860.00000
    52.5931     6776.00000
    52.6062     6730.00000
    52.6194     6366.00000
    52.6325     5883.00000
    52.6456     5190.00000
    52.6588     4689.00000
    52.6719     4180.00000
    52.6850     4030.00000
    52.6981     3979.00000
    52.7113     4251.00000
    52.7244     4450.00000
    52.7375     4859.00000
    52.7507     5130.00000
    52.7638     5641.00000
    52.7769     5948.00000
    52.7901     6067.00000
    52.8032     6247.00000
    52.8163     6241.00000
    52.8294     6037.00000
    52.8426     5809.00000
    52.8557     5298.00000
    52.8688     4991.00000
    52.8820     4558.00000
    52.8951     4603.00000
    52.9082     4550.00000
    52.9214     4626.00000
    52.9345     4606.00000
    52.9476     4564.00000
    52.9608     4390.00000
    52.9739     4331.00000
    52.9870     4147.00000
    53.0001     3800.00000
    53.0133     3463.00000
    53.0264     3262.00000
    53.0395     3013.00000
    53.0527     3021.00000
    53.0658     2993.00000
    53.0789     2992.00000
    53.0921     2810.00000
    53.1052     2872.00000
    53.1183     2789.00000
    53.1314     2728.00000
    53.1446     2822.00000
    53.1577     2888.00000
    53.1708     2828.00000
    53.1840     2828.00000
    53.1971     2867.00000
    53.2102     2869.00000
    53.2234     2752.00000
    53.2365     2804.00000
    53.2496     2815.00000
    53.2627     2749.00000
    53.2759     2883.00000
    53.2890     2842.00000
    53.3021     2968.00000
    53.3153     2843.00000
    53.3284     2851.00000
    53.3415     2881.00000
    53.3547     2881.00000
    53.3678     2830.00000
    53.3809     2876.00000
    53.3941     3029.00000
    53.4072     3076.00000
    53.4203     3118.00000
    53.4334     3344.00000
    53.4466     3484.00000
    53.4597     3676.00000
    53.4728     3930.00000
    53.4860     3999.00000
    53.4991     4138.00000
    53.5122     4102.00000
    53.5254     3894.00000
    53.5385     3711.00000
    53.5516     3494.00000
    53.5647     3278.00000
    53.5779     3199.00000
    53.5910     3152.00000
    53.6041     3260.00000
    53.6173     3419.00000
    53.6304     3381.00000
    53.6435     3403.00000
    53.6567     3356.00000
    53.6698     3317.00000
    53.6829     3156.00000
    53.6960     3042.00000
    53.7092     2902.00000
    53.7223     2945.00000
    53.7354     2766.00000
    53.7486     2834.00000
    53.7617     2717.00000
    53.7748     2706.00000
    53.7880     2772.00000
    53.8011     2793.00000
    53.8142     2688.00000
    53.8274     2839.00000
    53.8405     2693.00000
    53.8536     2690.00000
    53.8667     2750.00000
    53.8799     2744.00000
    53.8930     2734.00000
    53.9061     2777.00000
    53.9193     2761.00000
    53.9324     2837.00000
    53.9455     2661.00000
    53.9587     2778.00000
    53.9718     2668.00000
    53.9849     2690.00000
    53.9980     2685.00000
    54.0112     2827.00000
    54.0243     2702.00000
    54.0374     2810.00000
    54.0506     2731.00000
    54.0637     2756.00000
    54.0768     2860.00000
    54.0900     2905.00000
    54.1031     2901.00000
    54.1162     2911.00000
    54.1293     3021.00000
    54.1425     3202.00000
    54.1556     3204.00000
    54.1687     2996.00000
    54.1819     3171.00000
    54.1950     3109.00000
    54.2081     3148.00000
    54.2213     3139.00000
    54.2344     3047.00000
    54.2475     3034.00000
    54.2607     2986.00000
    54.2738     2932.00000
    54.2869     2915.00000
    54.3000     2903.00000
    54.3132     3028.00000
    54.3263     3000.00000
    54.3394     2967.00000
    54.3526     2895.00000
    54.3657     2928.00000
    54.3788     2843.00000
    54.3920     2857.00000
    54.4051     2798.00000
    54.4182     2754.00000
    54.4313     2861.00000
    54.4445     2751.00000
    54.4576     2723.00000
    54.4707     2791.00000
    54.4839     2742.00000
    54.4970     2714.00000
    54.5101     2737.00000
    54.5233     2762.00000
    54.5364     2787.00000
    54.5495     2795.00000
    54.5626     2759.00000
    54.5758     2767.00000
    54.5889     2675.00000
    54.6020     2790.00000
    54.6152     2682.00000
    54.6283     2675.00000
    54.6414     2745.00000
    54.6546     2831.00000
    54.6677     2711.00000
    54.6808     2655.00000
    54.6940     2831.00000
    54.7071     2720.00000
    54.7202     2705.00000
    54.7333     2689.00000
    54.7465     2724.00000
    54.7596     2808.00000
    54.7727     2765.00000
    54.7859     2773.00000
    54.7990     2799.00000
    54.8121     2780.00000
    54.8253     2781.00000
    54.8384     2719.00000
    54.8515     2872.00000
    54.8646     2871.00000
    54.8778     2843.00000
    54.8909     2790.00000
    54.9040     2868.00000
    54.9172     2950.00000
    54.9303     2926.00000
    54.9434     2997.00000
    54.9566     2904.00000
    54.9697     2983.00000
    54.9828     2983.00000
    54.9959     2956.00000
    55.0091     3006.00000
    55.0222     2999.00000
    55.0353     3115.00000
    55.0485     3188.00000
    55.0616     3209.00000
    55.0747     3255.00000
    55.0879     3377.00000
    55.1010     3581.00000
    55.1141     3796.00000
    55.1272     4224.00000
    55.1404     4700.00000
    55.1535     5389.00000
    55.1666     6595.00000
    55.1798     8048.00000
    55.1929     9717.00000
    55.2060    11076.00000
    55.2192    11259.00000
    55.2323    10858.00000
    55.2454     9314.00000
    55.2586     8013.00000
    55.2717     6721.00000
    55.2848     6016.00000
    55.2979     5709.00000
    55.3111     5798.00000
    55.3242     6216.00000
    55.3373     6784.00000
    55.3505     7240.00000
    55.3636     7574.00000
    55.3767     7308.00000
    55.3899     6758.00000
    55.4030     5844.00000
    55.4161     5142.00000
    55.4292     4531.00000
    55.4424     4064.00000
    55.4555     3768.00000
    55.4686     3618.00000
    55.4818     3676.00000
    55.4949     3517.00000
    55.5080     3539.00000
    55.5212     3516.00000
    55.5343     3559.00000
    55.5474     3499.00000
    55.5605     3297.00000
    55.5737     3301.00000
    55.5868     3085.00000
    55.5999     2985.00000
    55.6131     2919.00000
    55.6262     3100.00000
    55.6393     3059.00000
    55.6525     3101.00000
    55.6656     3054.00000
    55.6787     3021.00000
    55.6918     3024.00000
    55.7050     3017.00000
    55.7181     3031.00000
    55.7312     2982.00000
    55.7444     2863.00000
    55.7575     2968.00000
    55.7706     2853.00000
    55.7838     2836.00000
    55.7969     2836.00000
    55.8100     2909.00000
    55.8232     2936.00000
    55.8363     2954.00000
    55.8494     2933.00000
    55.8625     2901.00000
    55.8757     2885.00000
    55.8888     2916.00000
    55.9019     2846.00000
    55.9151     2903.00000
    55.9282     2993.00000
    55.9413     3026.00000
    55.9545     3103.00000
    55.9676     3087.00000
    55.9807     3148.00000
    55.9938     3281.00000
    56.0070     3222.00000
    56.0201     3467.00000
    56.0332     3639.00000
    56.0464     3903.00000
    56.0595     4299.00000
    56.0726     4719.00000
    56.0858     5361.00000
    56.0989     5834.00000
    56.1120     6301.00000
    56.1251     6121.00000
    56.1383     5938.00000
    56.1514     5996.00000
    56.1645     6362.00000
    56.1777     7262.00000
    56.1908     7972.00000
    56.2039     9315.00000
    56.2171    10333.00000
    56.2302    11823.00000
    56.2433    12448.00000
    56.2565    12976.00000
    56.2696    12754.00000
    56.2827    11631.00000
    56.2958     9972.00000
    56.3090     8452.00000
    56.3221     7505.00000
    56.3352     6777.00000
    56.3484     6663.00000
    56.3615     6703.00000
    56.3746     7074.00000
    56.3878     7410.00000
    56.4009     7538.00000
    56.4140     7442.00000
    56.4271     7051.00000
    56.4403     6304.00000
    56.4534     5743.00000
    56.4665     4827.00000
    56.4797     4311.00000
    56.4928     3882.00000
    56.5059     3612.00000
    56.5191     3308.00000
    56.5322     3348.00000
    56.5453     3173.00000
    56.5584     3109.00000
    56.5716     3284.00000
    56.5847     3209.00000
    56.5978     3105.00000
    56.6110     3179.00000
    56.6241     3037.00000
    56.6372     3163.00000
    56.6504     3145.00000
    56.6635     3109.00000
    56.6766     3166.00000
    56.6898     3101.00000
    56.7029     3192.00000
    56.7160     3195.00000
    56.7291     3318.00000
    56.7423     3361.00000
    56.7554     3484.00000
    56.7685     3677.00000
    56.7817     4017.00000
    56.7948     4215.00000
    56.8079     4629.00000
    56.8211     5258.00000
    56.8342     6158.00000
    56.8473     6825.00000
    56.8604     7556.00000
    56.8736     8309.00000
    56.8867     8650.00000
    56.8998     9326.00000
    56.9130     9585.00000
    56.9261     9549.00000
    56.9392     9670.00000
    56.9524     9312.00000
    56.9655     8863.00000
    56.9786     7908.00000
    56.9917     7245.00000
    57.0049     6817.00000
    57.0180     6663.00000
    57.0311     6841.00000
    57.0443     6744.00000
    57.0574     6998.00000
    57.0705     7079.00000
    57.0837     7647.00000
    57.0968     7629.00000
    57.1099     8071.00000
    57.1231     8089.00000
    57.1362     8278.00000
    57.1493     7781.00000
    57.1624     7685.00000
    57.1756     7027.00000
    57.1887     6198.00000
    57.2018     5451.00000
    57.2150     4708.00000
    57.2281     4610.00000
    57.2412     4295.00000
    57.2544     4412.00000
    57.2675     4533.00000
    57.2806     4727.00000
    57.2937     4843.00000
    57.3069     5001.00000
    57.3200     4810.00000
    57.3331     4740.00000
    57.3463     4231.00000
    57.3594     3965.00000
    57.3725     3591.00000
    57.3857     3439.00000
    57.3988     3309.00000
    57.4119     3230.00000
    57.4250     3148.00000
    57.4382     3091.00000
    57.4513     3055.00000
    57.4644     3083.00000
    57.4776     3064.00000
    57.4907     3122.00000
    57.5038     3071.00000
    57.5170     3039.00000
    57.5301     2981.00000
    57.5432     3006.00000
    57.5564     3122.00000
    57.5695     3195.00000
    57.5826     3052.00000
    57.5957     3082.00000
    57.6089     3075.00000
    57.6220     3284.00000
    57.6351     3341.00000
    57.6483     3408.00000
    57.6614     3454.00000
    57.6745     3671.00000
    57.6877     3984.00000
    57.7008     4348.00000
    57.7139     4885.00000
    57.7270     5824.00000
    57.7402     6923.00000
    57.7533     8086.00000
    57.7664     9110.00000
    57.7796     9251.00000
    57.7927     8599.00000
    57.8058     7578.00000
    57.8190     6549.00000
    57.8321     5868.00000
    57.8452     5396.00000
    57.8583     5145.00000
    57.8715     5292.00000
    57.8846     5935.00000
    57.8977     6486.00000
    57.9109     6972.00000
    57.9240     7380.00000
    57.9371     7137.00000
    57.9503     6542.00000
    57.9634     5890.00000
    57.9765     5176.00000
    57.9897     4576.00000
    58.0028     4193.00000
    58.0159     4028.00000
    58.0290     4059.00000
    58.0422     3856.00000
    58.0553     3987.00000
    58.0684     3936.00000
    58.0816     3881.00000
    58.0947     3822.00000
    58.1078     3558.00000
    58.1210     3467.00000
    58.1341     3407.00000
    58.1472     3372.00000
    58.1603     3426.00000
    58.1735     3395.00000
    58.1866     3468.00000
    58.1997     3502.00000
    58.2129     3501.00000
    58.2260     3841.00000
    58.2391     4096.00000
    58.2523     4339.00000
    58.2654     4720.00000
    58.2785     5414.00000
    58.2916     6060.00000
    58.3048     6892.00000
    58.3179     7789.00000
    58.3310     8470.00000
    58.3442     8811.00000
    58.3573     8510.00000
    58.3704     7950.00000
    58.3836     7123.00000
    58.3967     6273.00000
    58.4098     5751.00000
    58.4230     5376.00000
    58.4361     5316.00000
    58.4492     5509.00000
    58.4623     5868.00000
    58.4755     6220.00000
    58.4886     6521.00000
    58.5017     7120.00000
    58.5149     7533.00000
    58.5280     8008.00000
    58.5411     8378.00000
    58.5543     8949.00000
    58.5674     9204.00000
    58.5805     9548.00000
    58.5936     9035.00000
    58.6068     7982.00000
    58.6199     6708.00000
    58.6330     5754.00000
    58.6462     5094.00000
    58.6593     4779.00000
    58.6724     4829.00000
    58.6856     4986.00000
    58.6987     5490.00000
    58.7118     6106.00000
    58.7249     6871.00000
    58.7381     7309.00000
    58.7512     7824.00000
    58.7643     7987.00000
    58.7775     8468.00000
    58.7906     8986.00000
    58.8037     9505.00000
    58.8169     9594.00000
    58.8300     9524.00000
    58.8431     8666.00000
    58.8562     7574.00000
    58.8694     6412.00000
    58.8825     5542.00000
    58.8956     5114.00000
    58.9088     5015.00000
    58.9219     5009.00000
    58.9350     5267.00000
    58.9482     5549.00000
    58.9613     5990.00000
    58.9744     6312.00000
    58.9876     6217.00000
    59.0007     5839.00000
    59.0138     5347.00000
    59.0269     4634.00000
    59.0401     4169.00000
    59.0532     3786.00000
    59.0663     3596.00000
    59.0795     3322.00000
    59.0926     3256.00000
    59.1057     3230.00000
    59.1189     3159.00000
    59.1320     3081.00000
    59.1451     3035.00000
    59.1582     3176.00000
    59.1714     3096.00000
    59.1845     3098.00000
    59.1976     3047.00000
    59.2108     3023.00000
    59.2239     3061.00000
    59.2370     3064.00000
    59.2502     2985.00000
    59.2633     3054.00000
    59.2764     3092.00000
    59.2895     2962.00000
    59.3027     3121.00000
    59.3158     3240.00000
    59.3289     2986.00000
    59.3421     3146.00000
    59.3552     3139.00000
    59.3683     3363.00000
    59.3815     3510.00000
    59.3946     3753.00000
    59.4077     4059.00000
    59.4208     4617.00000
    59.4340     5140.00000
    59.4471     5701.00000
    59.4602     6341.00000
    59.4734     7086.00000
    59.4865     8000.00000
    59.4996     8265.00000
    59.5128     8326.00000
    59.5259     7976.00000
    59.5390     7135.00000
    59.5522     6499.00000
    59.5653     5832.00000
    59.5784     5450.00000
    59.5915     5090.00000
    59.6047     4947.00000
    59.6178     5158.00000
    59.6309     5411.00000
    59.6441     5863.00000
    59.6572     6057.00000
    59.6703     6116.00000
    59.6835     6264.00000
    59.6966     6073.00000
    59.7097     6110.00000
    59.7228     6359.00000
    59.7360     6553.00000
    59.7491     6737.00000
    59.7622     7206.00000
    59.7754     8156.00000
    59.7885     8954.00000
    59.8016     9782.00000
    59.8148    10958.00000
    59.8279    11140.00000
    59.8410    10808.00000
    59.8541     9501.00000
    59.8673     8176.00000
    59.8804     6930.00000
    59.8935     6181.00000
    59.9067     5681.00000
    59.9198     5681.00000
    59.9329     5804.00000
    59.9461     6032.00000
    59.9592     6450.00000
    59.9723     6683.00000
    59.9855     7079.00000
    59.9986     7047.00000
    60.0117     6479.00000
    60.0248     5663.00000
    60.0380     5031.00000
    60.0511     4302.00000
    60.0642     3978.00000
    60.0774     3636.00000
    60.0905     3333.00000
    60.1036     3326.00000
    60.1168     3116.00000
    60.1299     3205.00000
    60.1430     3138.00000
    60.1561     3108.00000
    60.1693     3084.00000
    60.1824     3058.00000
    60.1955     3048.00000
    60.2087     3155.00000
    60.2218     3179.00000
    60.2349     3077.00000
    60.2481     3194.00000
    60.2612     3093.00000
    60.2743     3067.00000
    60.2874     3103.00000
    60.3006     3163.00000
    60.3137     3235.00000
    60.3268     3262.00000
    60.3400     3302.00000
    60.3531     3329.00000
    60.3662     3446.00000
    60.3794     3472.00000
    60.3925     3709.00000
    60.4056     3821.00000
    60.4188     4098.00000
    60.4319     4516.00000
    60.4450     4914.00000
    60.4581     5700.00000
    60.4713     6721.00000
    60.4844     8424.00000
    60.4975    10201.00000
    60.5107    12389.00000
    60.5238    14265.00000
    60.5369    14993.00000
    60.5501    14496.00000
    60.5632    13056.00000
    60.5763    11056.00000
    60.5894     9204.00000
    60.6026     8144.00000
    60.6157     7518.00000
    60.6288     7330.00000
    60.6420     7458.00000
    60.6551     8129.00000
    60.6682     8858.00000
    60.6814     9967.00000
    60.6945    10365.00000
    60.7076    10634.00000
    60.7207    10321.00000
    60.7339     9336.00000
    60.7470     8090.00000
    60.7601     7248.00000
    60.7733     6494.00000
    60.7864     5677.00000
    60.7995     5319.00000
    60.8127     5179.00000
    60.8258     5076.00000
    60.8389     5163.00000
    60.8521     5470.00000
    60.8652     5488.00000
    60.8783     5492.00000
    60.8914     5375.00000
    60.9046     5481.00000
    60.9177     5605.00000
    60.9308     5310.00000
    60.9440     4989.00000
    60.9571     4790.00000
    60.9702     4362.00000
    60.9834     3894.00000
    60.9965     3820.00000
    61.0096     3633.00000
    61.0227     3645.00000
    61.0359     3627.00000
    61.0490     3748.00000
    61.0621     3695.00000
    61.0753     3582.00000
    61.0884     3535.00000
    61.1015     3684.00000
    61.1147     3509.00000
    61.1278     3418.00000
    61.1409     3213.00000
    61.1540     3158.00000
    61.1672     2944.00000
    61.1803     2795.00000
    61.1934     2891.00000
    61.2066     2747.00000
    61.2197     2664.00000
    61.2328     2767.00000
    61.2460     2773.00000
    61.2591     2686.00000
    61.2722     2714.00000
    61.2854     2757.00000
    61.2985     2705.00000
    61.3116     2700.00000
    61.3247     2690.00000
    61.3379     2599.00000
    61.3510     2698.00000
    61.3641     2682.00000
    61.3773     2611.00000
    61.3904     2691.00000
    61.4035     2617.00000
    61.4167     2586.00000
    61.4298     2654.00000
    61.4429     2598.00000
    61.4560     2612.00000
    61.4692     2746.00000
    61.4823     2627.00000
    61.4954     2735.00000
    61.5086     2604.00000
    61.5217     2612.00000
    61.5348     2744.00000
    61.5480     2684.00000
    61.5611     2616.00000
    61.5742     2593.00000
    61.5873     2607.00000
    61.6005     2607.00000
    61.6136     2579.00000
    61.6267     2567.00000
    61.6399     2645.00000
    61.6530     2622.00000
    61.6661     2631.00000
    61.6793     2653.00000
    61.6924     2698.00000
    61.7055     2558.00000
    61.7187     2616.00000
    61.7318     2639.00000
    61.7449     2608.00000
    61.7580     2618.00000
    61.7712     2557.00000
    61.7843     2623.00000
    61.7974     2480.00000
    61.8106     2487.00000
    61.8237     2516.00000
    61.8368     2572.00000
    61.8500     2517.00000
    61.8631     2489.00000
    61.8762     2574.00000
    61.8893     2509.00000
    61.9025     2628.00000
    61.9156     2674.00000
    61.9287     2542.00000
    61.9419     2534.00000
    61.9550     2595.00000
    61.9681     2583.00000
    61.9813     2536.00000
    61.9944     2547.00000
    62.0075     2573.00000
    62.0206     2541.00000
    62.0338     2497.00000
    62.0469     2572.00000
    62.0600     2463.00000
    62.0732     2576.00000
    62.0863     2513.00000
    62.0994     2584.00000
    62.1126     2505.00000
    62.1257     2524.00000
    62.1388     2498.00000
    62.1520     2469.00000
    62.1651     2527.00000
    62.1782     2588.00000
    62.1913     2581.00000
    62.2045     2534.00000
    62.2176     2546.00000
    62.2307     2560.00000
    62.2439     2588.00000
    62.2570     2511.00000
    62.2701     2595.00000
    62.2833     2476.00000
    62.2964     2611.00000
    62.3095     2616.00000
    62.3226     2567.00000
    62.3358     2610.00000
    62.3489     2598.00000
    62.3620     2549.00000
    62.3752     2552.00000
    62.3883     2630.00000
    62.4014     2543.00000
    62.4146     2518.00000
    62.4277     2593.00000
    62.4408     2699.00000
    62.4539     2543.00000
    62.4671     2576.00000
    62.4802     2594.00000
    62.4933     2603.00000
    62.5065     2561.00000
    62.5196     2567.00000
    62.5327     2475.00000
    62.5459     2582.00000
    62.5590     2447.00000
    62.5721     2533.00000
    62.5852     2489.00000
    62.5984     2551.00000
    62.6115     2589.00000
    62.6246     2499.00000
    62.6378     2518.00000
    62.6509     2560.00000
    62.6640     2519.00000
    62.6772     2570.00000
    62.6903     2554.00000
    62.7034     2471.00000
    62.7166     2474.00000
    62.7297     2550.00000
    62.7428     2619.00000
    62.7559     2551.00000
    62.7691     2558.00000
    62.7822     2468.00000
    62.7953     2534.00000
    62.8085     2551.00000
    62.8216     2500.00000
    62.8347     2559.00000
    62.8479     2540.00000
    62.8610     2533.00000
    62.8741     2602.00000
    62.8872     2564.00000
    62.9004     2521.00000
    62.9135     2522.00000
    62.9266     2478.00000
    62.9398     2535.00000
    62.9529     2586.00000
    62.9660     2608.00000
    62.9792     2528.00000
    62.9923     2514.00000
    63.0054     2568.00000
    63.0185     2384.00000
    63.0317     2518.00000
    63.0448     2572.00000
    63.0579     2569.00000
    63.0711     2495.00000
    63.0842     2528.00000
    63.0973     2538.00000
    63.1105     2607.00000
    63.1236     2627.00000
    63.1367     2599.00000
    63.1499     2682.00000
    63.1630     2696.00000
    63.1761     2549.00000
    63.1892     2666.00000
    63.2024     2727.00000
    63.2155     2705.00000
    63.2286     2732.00000
    63.2418     2782.00000
    63.2549     2694.00000
    63.2680     2849.00000
    63.2812     2940.00000
    63.2943     2866.00000
    63.3074     2811.00000
    63.3205     3019.00000
    63.3337     3016.00000
    63.3468     3190.00000
    63.3599     3357.00000
    63.3731     3502.00000
    63.3862     3759.00000
    63.3993     4018.00000
    63.4125     4137.00000
    63.4256     3849.00000
    63.4387     3767.00000
    63.4518     3469.00000
    63.4650     3389.00000
    63.4781     3202.00000
    63.4912     3224.00000
    63.5044     3030.00000
    63.5175     2963.00000
    63.5306     3005.00000
    63.5438     3171.00000
    63.5569     3325.00000
    63.5700     3145.00000
    63.5831     3355.00000
    63.5963     3323.00000
    63.6094     3395.00000
    63.6225     3140.00000
    63.6357     2992.00000
    63.6488     3004.00000
    63.6619     2979.00000
    63.6751     2994.00000
    63.6882     2962.00000
    63.7013     2956.00000
    63.7145     3176.00000
    63.7276     3322.00000
    63.7407     3369.00000
    63.7538     3826.00000
    63.7670     3842.00000
    63.7801     4123.00000
    63.7932     4261.00000
    63.8064     4195.00000
    63.8195     4085.00000
    63.8326     3776.00000
    63.8458     3605.00000
    63.8589     3396.00000
    63.8720     3185.00000
    63.8851     3185.00000
    63.8983     3058.00000
    63.9114     3207.00000
    63.9245     3201.00000
    63.9377     3333.00000
    63.9508     3450.00000
    63.9639     3464.00000
    63.9771     3618.00000
    63.9902     3638.00000
    64.0033     3743.00000
    64.0164     3742.00000
    64.0296     3672.00000
    64.0427     3775.00000
    64.0558     3941.00000
    64.0690     3956.00000
    64.0821     3819.00000
    64.0952     3751.00000
    64.1084     3546.00000
    64.1215     3309.00000
    64.1346     3171.00000
    64.1478     2945.00000
    64.1609     2853.00000
    64.1740     2897.00000
    64.1871     2935.00000
    64.2003     2994.00000
    64.2134     2913.00000
    64.2265     3042.00000
    64.2397     3219.00000
    64.2528     3078.00000
    64.2659     3136.00000
    64.2791     2964.00000
    64.2922     2911.00000
    64.3053     2749.00000
    64.3184     2670.00000
    64.3316     2584.00000
    64.3447     2589.00000
    64.3578     2626.00000
    64.3710     2553.00000
    64.3841     2575.00000
    64.3972     2509.00000
    64.4104     2546.00000
    64.4235     2454.00000
    64.4366     2562.00000
    64.4498     2490.00000
    64.4629     2443.00000
    64.4760     2590.00000
    64.4891     2488.00000
    64.5023     2520.00000
    64.5154     2561.00000
    64.5285     2543.00000
    64.5417     2534.00000
    64.5548     2595.00000
    64.5679     2443.00000
    64.5811     2569.00000
    64.5942     2679.00000
    64.6073     2606.00000
    64.6204     2680.00000
    64.6336     2668.00000
    64.6467     2843.00000
    64.6598     2755.00000
    64.6730     2826.00000
    64.6861     2745.00000
    64.6992     2771.00000
    64.7124     2707.00000
    64.7255     2793.00000
    64.7386     2674.00000
    64.7517     2658.00000
    64.7649     2792.00000
    64.7780     2704.00000
    64.7911     2888.00000
    64.8043     2779.00000
    64.8174     2805.00000
    64.8305     2769.00000
    64.8437     2723.00000
    64.8568     2665.00000
    64.8699     2704.00000
    64.8830     2682.00000
    64.8962     2588.00000
    64.9093     2584.00000
    64.9224     2651.00000
    64.9356     2549.00000
    64.9487     2556.00000
    64.9618     2552.00000
    64.9750     2579.00000
    64.9881     2669.00000
    65.0012     2583.00000
    65.0144     2574.00000
    65.0275     2528.00000
    65.0406     2404.00000
    65.0537     2565.00000
    65.0669     2486.00000
    65.0800     2519.00000
    65.0931     2485.00000
    65.1063     2497.00000
    65.1194     2546.00000
    65.1325     2462.00000
    65.1457     2487.00000
    65.1588     2589.00000
    65.1719     2415.00000
    65.1850     2440.00000
    65.1982     2457.00000
    65.2113     2516.00000
    65.2244     2480.00000
    65.2376     2509.00000
    65.2507     2298.00000
    65.2638     2420.00000
    65.2770     2429.00000
    65.2901     2422.00000
    65.3032     2521.00000
    65.3163     2488.00000
    65.3295     2410.00000
    65.3426     2368.00000
    65.3557     2415.00000
    65.3689     2421.00000
    65.3820     2409.00000
    65.3951     2546.00000
    65.4083     2499.00000
    65.4214     2359.00000
    65.4345     2406.00000
    65.4476     2409.00000
    65.4608     2524.00000
    65.4739     2463.00000
    65.4870     2498.00000
    65.5002     2477.00000
    65.5133     2509.00000
    65.5264     2403.00000
    65.5396     2411.00000
    65.5527     2485.00000
    65.5658     2418.00000
    65.5790     2501.00000
    65.5921     2450.00000
    65.6052     2383.00000
    65.6183     2462.00000
    65.6315     2466.00000
    65.6446     2530.00000
    65.6577     2400.00000
    65.6709     2518.00000
    65.6840     2474.00000
    65.6971     2514.00000
    65.7103     2522.00000
    65.7234     2518.00000
    65.7365     2365.00000
    65.7496     2485.00000
    65.7628     2414.00000
    65.7759     2462.00000
    65.7890     2428.00000
    65.8022     2457.00000
    65.8153     2524.00000
    65.8284     2373.00000
    65.8416     2368.00000
    65.8547     2425.00000
    65.8678     2488.00000
    65.8810     2386.00000
    65.8941     2510.00000
    65.9072     2406.00000
    65.9203     2433.00000
    65.9335     2458.00000
    65.9466     2349.00000
    65.9597     2502.00000
    65.9729     2461.00000
    65.9860     2476.00000
    65.9991     2432.00000
    66.0123     2470.00000
    66.0254     2442.00000
    66.0385     2373.00000
    66.0516     2375.00000
    66.0648     2450.00000
    66.0779     2478.00000
    66.0910     2370.00000
    66.1042     2404.00000
    66.1173     2569.00000
    66.1304     2392.00000
    66.1436     2413.00000
    66.1567     2441.00000
    66.1698     2360.00000
    66.1829     2481.00000
    66.1961     2453.00000
    66.2092     2461.00000
    66.2223     2455.00000
    66.2355     2575.00000
    66.2486     2616.00000
    66.2617     2553.00000
    66.2749     2501.00000
    66.2880     2514.00000
    66.3011     2421.00000
    66.3142     2495.00000
    66.3274     2459.00000
    66.3405     2501.00000
    66.3536     2473.00000
    66.3668     2355.00000
    66.3799     2414.00000
    66.3930     2508.00000
    66.4062     2478.00000
    66.4193     2445.00000
    66.4324     2447.00000
    66.4455     2478.00000
    66.4587     2466.00000
    66.4718     2441.00000
    66.4849     2456.00000
    66.4981     2460.00000
    66.5112     2565.00000
    66.5243     2451.00000
    66.5375     2543.00000
    66.5506     2528.00000
    66.5637     2578.00000
    66.5769     2543.00000
    66.5900     2622.00000
    66.6031     2490.00000
    66.6162     2534.00000
    66.6294     2642.00000
    66.6425     2531.00000
    66.6556     2493.00000
    66.6688     2413.00000
    66.6819     2301.00000
    66.6950     2472.00000
    66.7082     2453.00000
    66.7213     2414.00000
    66.7344     2444.00000
    66.7476     2401.00000
    66.7607     2410.00000
    66.7738     2478.00000
    66.7869     2478.00000
    66.8001     2557.00000
    66.8132     2562.00000
    66.8263     2538.00000
    66.8395     2464.00000
    66.8526     2411.00000
    66.8657     2380.00000
    66.8789     2307.00000
    66.8920     2397.00000
    66.9051     2433.00000
    66.9182     2414.00000
    66.9314     2372.00000
    66.9445     2426.00000
    66.9576     2433.00000
    66.9708     2471.00000
    66.9839     2378.00000
    66.9970     2468.00000
    67.0102     2458.00000
    67.0233     2409.00000
    67.0364     2408.00000
    67.0495     2399.00000
    67.0627     2390.00000
    67.0758     2429.00000
    67.0889     2387.00000
    67.1021     2398.00000
    67.1152     2461.00000
    67.1283     2496.00000
    67.1415     2454.00000
    67.1546     2465.00000
    67.1677     2527.00000
    67.1808     2493.00000
    67.1940     2535.00000
    67.2071     2390.00000
    67.2202     2378.00000
    67.2334     2478.00000
    67.2465     2364.00000
    67.2596     2379.00000
    67.2728     2443.00000
    67.2859     2341.00000
    67.2990     2455.00000
    67.3121     2473.00000
    67.3253     2493.00000
    67.3384     2545.00000
    67.3515     2470.00000
    67.3647     2463.00000
    67.3778     2468.00000
    67.3909     2578.00000
    67.4041     2468.00000
    67.4172     2517.00000
    67.4303     2464.00000
    67.4435     2447.00000
    67.4566     2551.00000
    67.4697     2491.00000
    67.4828     2505.00000
    67.4960     2361.00000
    67.5091     2394.00000
    67.5222     2455.00000
    67.5354     2500.00000
    67.5485     2484.00000
    67.5616     2497.00000
    67.5748     2549.00000
    67.5879     2379.00000
    67.6010     2458.00000
    67.6142     2481.00000
    67.6273     2453.00000
    67.6404     2489.00000
    67.6535     2501.00000
    67.6667     2546.00000
    67.6798     2451.00000
    67.6929     2543.00000
    67.7061     2434.00000
    67.7192     2365.00000
    67.7323     2471.00000
    67.7455     2555.00000
    67.7586     2555.00000
    67.7717     2484.00000
    67.7848     2477.00000
    67.7980     2421.00000
    67.8111     2530.00000
    67.8242     2542.00000
    67.8374     2515.00000
    67.8505     2510.00000
    67.8636     2607.00000
    67.8768     2660.00000
    67.8899     2792.00000
    67.9030     2751.00000
    67.9161     2756.00000
    67.9293     2944.00000
    67.9424     3206.00000
    67.9555     3277.00000
    67.9687     3552.00000
    67.9818     3782.00000
    67.9949     4065.00000
    68.0081     4068.00000
    68.0212     4050.00000
    68.0343     3910.00000
    68.0474     3667.00000
    68.0606     3535.00000
    68.0737     3342.00000
    68.0868     3270.00000
    68.1000     3177.00000
    68.1131     3196.00000
    68.1262     3129.00000
    68.1394     3123.00000
    68.1525     3205.00000
    68.1656     3415.00000
    68.1787     3342.00000
    68.1919     3464.00000
    68.2050     3548.00000
    68.2181     3730.00000
    68.2313     3707.00000
    68.2444     3990.00000
    68.2575     4288.00000
    68.2707     4863.00000
    68.2838     4984.00000
    68.2969     5170.00000
    68.3101     5073.00000
    68.3232     4693.00000
    68.3363     4226.00000
    68.3494     3770.00000
    68.3626     3563.00000
    68.3757     3305.00000
    68.3888     3113.00000
    68.4020     2983.00000
    68.4151     2970.00000
    68.4282     3177.00000
    68.4414     3160.00000
    68.4545     3331.00000
    68.4676     3580.00000
    68.4807     3748.00000
    68.4939     3696.00000
    68.5070     3650.00000
    68.5201     3388.00000
    68.5333     3336.00000
    68.5464     3106.00000
    68.5595     2752.00000
    68.5727     2795.00000
    68.5858     2735.00000
    68.5989     2735.00000
    68.6120     2552.00000
    68.6252     2643.00000
    68.6383     2694.00000
    68.6514     2594.00000
    68.6646     2599.00000
    68.6777     2530.00000
    68.6908     2571.00000
    68.7040     2607.00000
    68.7171     2609.00000
    68.7302     2642.00000
    68.7434     2557.00000
    68.7565     2508.00000
    68.7696     2527.00000
    68.7827     2580.00000
    68.7959     2532.00000
    68.8090     2595.00000
    68.8221     2577.00000
    68.8353     2512.00000
    68.8484     2549.00000
    68.8615     2531.00000
    68.8747     2469.00000
    68.8878     2600.00000
    68.9009     2538.00000
    68.9140     2639.00000
    68.9272     2651.00000
    68.9403     2480.00000
    68.9534     2561.00000
    68.9666     2601.00000
    68.9797     2680.00000
    68.9928     2684.00000
    69.0060     2743.00000
    69.0191     2653.00000
    69.0322     2756.00000
    69.0453     2760.00000
    69.0585     2904.00000
    69.0716     3112.00000
    69.0847     3224.00000
    69.0979     3472.00000
    69.1110     3780.00000
    69.1241     3972.00000
    69.1373     4497.00000
    69.1504     4633.00000
    69.1635     4818.00000
    69.1767     4813.00000
    69.1898     4585.00000
    69.2029     4264.00000
    69.2160     3952.00000
    69.2292     3818.00000
    69.2423     3381.00000
    69.2554     3336.00000
    69.2686     3378.00000
    69.2817     3225.00000
    69.2948     3270.00000
    69.3080     3365.00000
    69.3211     3538.00000
    69.3342     3659.00000
    69.3473     3921.00000
    69.3605     3718.00000
    69.3736     3740.00000
    69.3867     3682.00000
    69.3999     3695.00000
    69.4130     3668.00000
    69.4261     3710.00000
    69.4393     3658.00000
    69.4524     3681.00000
    69.4655     3524.00000
    69.4786     3299.00000
    69.4918     3261.00000
    69.5049     3119.00000
    69.5180     3047.00000
    69.5312     2975.00000
    69.5443     3004.00000
    69.5574     2899.00000
    69.5706     3034.00000
    69.5837     3125.00000
    69.5968     3213.00000
    69.6099     3233.00000
    69.6231     3431.00000
    69.6362     3594.00000
    69.6493     3769.00000
    69.6625     4120.00000
    69.6756     4432.00000
    69.6887     4687.00000
    69.7019     5079.00000
    69.7150     5534.00000
    69.7281     6332.00000
    69.7413     6945.00000
    69.7544     7604.00000
    69.7675     7968.00000
    69.7806     7775.00000
    69.7938     7405.00000
    69.8069     6483.00000
    69.8200     5923.00000
    69.8332     5363.00000
    69.8463     4710.00000
    69.8594     4377.00000
    69.8726     4264.00000
    69.8857     4133.00000
    69.8988     4413.00000
    69.9119     4618.00000
    69.9251     5036.00000
    69.9382     5387.00000
    69.9513     5527.00000
    69.9645     5809.00000
    69.9776     5767.00000
    69.9907     5470.00000
    70.0039     5054.00000
    70.0170     4542.00000
    70.0301     3985.00000
    70.0433     3699.00000
    70.0564     3475.00000
    70.0695     3307.00000
    70.0826     3174.00000
    70.0958     2957.00000
    70.1089     3097.00000
    70.1220     3073.00000
    70.1352     3088.00000
    70.1483     3031.00000
    70.1614     3104.00000
    70.1746     2986.00000
    70.1877     3011.00000
    70.2008     2971.00000
    70.2139     2974.00000
    70.2271     2960.00000
    70.2402     3078.00000
    70.2533     2974.00000
    70.2665     2964.00000
    70.2796     3129.00000
    70.2927     3142.00000
    70.3059     3295.00000
    70.3190     3452.00000
    70.3321     3533.00000
    70.3452     3745.00000
    70.3584     4137.00000
    70.3715     4725.00000
    70.3846     4823.00000
    70.3978     5152.00000
    70.4109     5235.00000
    70.4240     5178.00000
    70.4372     4846.00000
    70.4503     4464.00000
    70.4634     4125.00000
    70.4765     4056.00000
    70.4897     3802.00000
    70.5028     3835.00000
    70.5159     3846.00000
    70.5291     3924.00000
    70.5422     4193.00000
    70.5553     4601.00000
    70.5685     4906.00000
    70.5816     5118.00000
    70.5947     5511.00000
    70.6078     5809.00000
    70.6210     5757.00000
    70.6341     5606.00000
    70.6472     5145.00000
    70.6604     5167.00000
    70.6735     4837.00000
    70.6866     4317.00000
    70.6998     4290.00000
    70.7129     3971.00000
    70.7260     3803.00000
    70.7392     3684.00000
    70.7523     3655.00000
    70.7654     3578.00000
    70.7785     3669.00000
    70.7917     3653.00000
    70.8048     3623.00000
    70.8179     3689.00000
    70.8311     3733.00000
    70.8442     3651.00000
    70.8573     3670.00000
    70.8705     3561.00000
    70.8836     3479.00000
    70.8967     3411.00000
    70.9099     3323.00000
    70.9230     3263.00000
    70.9361     3225.00000
    70.9492     3241.00000
    70.9624     3353.00000
    70.9755     3651.00000
    70.9886     3901.00000
    71.0018     4190.00000
    71.0149     5007.00000
    71.0280     5202.00000
    71.0412     5083.00000
    71.0543     4534.00000
    71.0674     4092.00000
    71.0805     3670.00000
    71.0937     3305.00000
    71.1068     3173.00000
    71.1199     2987.00000
    71.1331     3045.00000
    71.1462     3005.00000
    71.1593     3004.00000
    71.1725     3141.00000
    71.1856     3228.00000
    71.1987     3231.00000
    71.2118     3501.00000
    71.2250     3736.00000
    71.2381     3792.00000
    71.2512     3782.00000
    71.2644     3484.00000
    71.2775     3203.00000
    71.2906     3073.00000
    71.3038     3003.00000
    71.3169     2913.00000
    71.3300     2919.00000
    71.3431     2896.00000
    71.3563     2899.00000
    71.3694     2830.00000
    71.3825     2828.00000
    71.3957     2935.00000
    71.4088     2859.00000
    71.4219     2792.00000
    71.4351     2930.00000
    71.4482     3089.00000
    71.4613     3317.00000
    71.4744     3360.00000
    71.4876     3611.00000
    71.5007     3794.00000
    71.5138     4083.00000
    71.5270     4385.00000
    71.5401     4833.00000
    71.5532     4909.00000
    71.5664     5232.00000
    71.5795     4957.00000
    71.5926     4830.00000
    71.6058     4483.00000
    71.6189     4111.00000
    71.6320     3731.00000
    71.6451     3529.00000
    71.6583     3465.00000
    71.6714     3335.00000
    71.6845     3363.00000
    71.6977     3366.00000
    71.7108     3282.00000
    71.7239     3486.00000
    71.7371     3633.00000
    71.7502     3692.00000
    71.7633     3862.00000
    71.7764     3657.00000
    71.7896     3708.00000
    71.8027     3675.00000
    71.8158     3439.00000
    71.8290     3229.00000
    71.8421     3088.00000
    71.8552     2936.00000
    71.8684     2824.00000
    71.8815     2844.00000
    71.8946     2798.00000
    71.9078     2670.00000
    71.9209     2646.00000
    71.9340     2551.00000
    71.9471     2688.00000
    71.9603     2634.00000
    71.9734     2682.00000
    71.9865     2560.00000
    71.9997     2554.00000
    72.0128     2669.00000
    72.0259     2659.00000
    72.0391     2635.00000
    72.0522     2618.00000
    72.0653     2639.00000
    72.0784     2515.00000
    72.0916     2634.00000
    72.1047     2553.00000
    72.1178     2602.00000
    72.1310     2722.00000
    72.1441     2531.00000
    72.1572     2668.00000
    72.1704     2623.00000
    72.1835     2595.00000
    72.1966     2669.00000
    72.2097     2664.00000
    72.2229     2782.00000
    72.2360     2739.00000
    72.2491     2880.00000
    72.2623     3011.00000
    72.2754     3053.00000
    72.2885     3225.00000
    72.3017     3463.00000
    72.3148     3699.00000
    72.3279     3958.00000
    72.3410     4086.00000
    72.3542     4155.00000
    72.3673     4110.00000
    72.3804     3862.00000
    72.3936     3586.00000
    72.4067     3316.00000
    72.4198     3292.00000
    72.4330     3016.00000
    72.4461     2906.00000
    72.4592     2891.00000
    72.4724     2979.00000
    72.4855     2951.00000
    72.4986     3006.00000
    72.5117     3161.00000
    72.5249     3130.00000
    72.5380     3192.00000
    72.5511     3284.00000
    72.5643     3251.00000
    72.5774     3334.00000
    72.5905     3114.00000
    72.6037     3081.00000
    72.6168     2830.00000
    72.6299     2848.00000
    72.6430     2642.00000
    72.6562     2695.00000
    72.6693     2675.00000
    72.6824     2652.00000
    72.6956     2676.00000
    72.7087     2656.00000
    72.7218     2653.00000
    72.7350     2819.00000
    72.7481     2740.00000
    72.7612     2798.00000
    72.7743     2984.00000
    72.7875     3002.00000
    72.8006     3106.00000
    72.8137     3435.00000
    72.8269     3518.00000
    72.8400     3808.00000
    72.8531     3951.00000
    72.8663     4134.00000
    72.8794     4257.00000
    72.8925     4304.00000
    72.9057     4216.00000
    72.9188     4025.00000
    72.9319     3796.00000
    72.9450     3526.00000
    72.9582     3346.00000
    72.9713     3321.00000
    72.9844     3117.00000
    72.9976     3217.00000
    73.0107     3105.00000
    73.0238     3110.00000
    73.0370     3273.00000
    73.0501     3439.00000
    73.0632     3628.00000
    73.0763     3805.00000
    73.0895     3903.00000
    73.1026     3942.00000
    73.1157     4047.00000
    73.1289     4251.00000
    73.1420     4039.00000
    73.1551     4079.00000
    73.1683     4042.00000
    73.1814     3966.00000
    73.1945     3927.00000
    73.2076     3837.00000
    73.2208     3613.00000
    73.2339     3448.00000
    73.2470     3375.00000
    73.2602     3097.00000
    73.2733     3189.00000
    73.2864     3167.00000
    73.2996     3125.00000
    73.3127     3221.00000
    73.3258     3201.00000
    73.3390     3259.00000
    73.3521     3583.00000
    73.3652     3485.00000
    73.3783     3730.00000
    73.3915     3735.00000
    73.4046     3806.00000
    73.4177     3659.00000
    73.4309     3483.00000
    73.4440     3384.00000
    73.4571     3237.00000
    73.4703     3154.00000
    73.4834     2994.00000
    73.4965     3066.00000
    73.5096     3156.00000
    73.5228     3242.00000
    73.5359     3351.00000
    73.5490     3366.00000
    73.5622     3668.00000
    73.5753     4092.00000
    73.5884     4601.00000
    73.6016     5089.00000
    73.6147     5429.00000
    73.6278     5774.00000
    73.6409     5836.00000
    73.6541     5927.00000
    73.6672     5795.00000
    73.6803     5586.00000
    73.6935     5603.00000
    73.7066     5377.00000
    73.7197     5107.00000
    73.7329     4651.00000
    73.7460     4241.00000
    73.7591     4050.00000
    73.7722     3709.00000
    73.7854     3804.00000
    73.7985     3708.00000
    73.8116     4049.00000
    73.8248     4019.00000
    73.8379     4280.00000
    73.8510     4222.00000
    73.8642     4244.00000
    73.8773     4162.00000
    73.8904     4298.00000
    73.9035     4091.00000
    73.9167     4014.00000
    73.9298     3874.00000
    73.9429     3627.00000
    73.9561     3417.00000
    73.9692     3260.00000
    73.9823     2923.00000
    73.9955     2777.00000
    74.0086     2808.00000
    74.0217     2713.00000
    74.0349     2773.00000
    74.0480     2656.00000
    74.0611     2702.00000
    74.0742     2498.00000
    74.0874     2476.00000
    74.1005     2616.00000
    74.1136     2549.00000
    74.1268     2547.00000
    74.1399     2532.00000
    74.1530     2535.00000
    74.1662     2565.00000
    74.1793     2451.00000
    74.1924     2439.00000
    74.2056     2594.00000
    74.2187     2492.00000
    74.2318     2473.00000
    74.2449     2423.00000
    74.2581     2497.00000
    74.2712     2497.00000
    74.2843     2456.00000
    74.2975     2515.00000
    74.3106     2453.00000
    74.3237     2446.00000
    74.3369     2596.00000
    74.3500     2504.00000
    74.3631     2450.00000
    74.3762     2392.00000
    74.3894     2531.00000
    74.4025     2418.00000
    74.4156     2509.00000
    74.4288     2337.00000
    74.4419     2431.00000
    74.4550     2481.00000
    74.4682     2404.00000
    74.4813     2409.00000
    74.4944     2426.00000
    74.5075     2447.00000
    74.5207     2516.00000
    74.5338     2492.00000
    74.5469     2487.00000
    74.5601     2499.00000
    74.5732     2523.00000
    74.5863     2397.00000
    74.5995     2517.00000
    74.6126     2425.00000
    74.6257     2438.00000
    74.6388     2467.00000
    74.6520     2449.00000
    74.6651     2436.00000
    74.6782     2376.00000
    74.6914     2498.00000
    74.7045     2505.00000
    74.7176     2438.00000
    74.7308     2474.00000
    74.7439     2389.00000
    74.7570     2474.00000
    74.7701     2475.00000
    74.7833     2455.00000
    74.7964     2422.00000
    74.8095     2482.00000
    74.8227     2501.00000
    74.8358     2411.00000
    74.8489     2414.00000
    74.8621     2524.00000
    74.8752     2509.00000
    74.8883     2484.00000
    74.9015     2483.00000
    74.9146     2406.00000
    74.9277     2460.00000
    74.9408     2402.00000
    74.9540     2410.00000
    74.9671     2380.00000
    74.9802     2424.00000
    74.9934     2432.00000
    75.0065     2362.00000
    75.0196     2365.00000
    75.0328     2463.00000
    75.0459     2496.00000
    75.0590     2484.00000
    75.0722     2432.00000
    75.0853     2417.00000
    75.0984     2439.00000
    75.1115     2443.00000
    75.1247     2504.00000
    75.1378     2395.00000
    75.1509     2443.00000
    75.1641     2485.00000
    75.1772     2445.00000
    75.1903     2560.00000
    75.2035     2547.00000
    75.2166     2534.00000
    75.2297     2507.00000
    75.2428     2515.00000
    75.2560     2444.00000
    75.2691     2548.00000
    75.2822     2554.00000
    75.2954     2526.00000
    75.3085     2509.00000
    75.3216     2563.00000
    75.3348     2565.00000
    75.3479     2517.00000
    75.3610     2537.00000
    75.3741     2537.00000
    75.3873     2491.00000
    75.4004     2473.00000
    75.4135     2514.00000
    75.4267     2464.00000
    75.4398     2585.00000
    75.4529     2477.00000
    75.4661     2550.00000
    75.4792     2437.00000
    75.4923     2473.00000
    75.5054     2467.00000
    75.5186     2582.00000
    75.5317     2615.00000
    75.5448     2588.00000
    75.5580     2590.00000
    75.5711     2562.00000
    75.5842     2538.00000
    75.5974     2593.00000
    75.6105     2532.00000
    75.6236     2500.00000
    75.6367     2679.00000
    75.6499     2554.00000
    75.6630     2470.00000
    75.6761     2509.00000
    75.6893     2587.00000
    75.7024     2605.00000
    75.7155     2618.00000
    75.7287     2536.00000
    75.7418     2494.00000
    75.7549     2591.00000
    75.7681     2635.00000
    75.7812     2631.00000
    75.7943     2634.00000
    75.8074     2639.00000
    75.8206     2737.00000
    75.8337     2814.00000
    75.8468     2776.00000
    75.8600     2908.00000
    75.8731     2835.00000
    75.8862     2970.00000
    75.8994     2918.00000
    75.9125     3021.00000
    75.9256     3118.00000
    75.9387     3251.00000
    75.9519     3239.00000
    75.9650     3282.00000
    75.9781     3369.00000
    75.9913     3613.00000
    76.0044     3535.00000
    76.0175     3781.00000
    76.0307     3958.00000
    76.0438     4263.00000
    76.0569     4426.00000
    76.0701     4646.00000
    76.0832     4684.00000
    76.0963     4796.00000
    76.1094     4867.00000
    76.1226     4913.00000
    76.1357     4561.00000
    76.1488     4350.00000
    76.1620     4227.00000
    76.1751     3852.00000
    76.1882     3641.00000
    76.2014     3641.00000
    76.2145     3478.00000
    76.2276     3530.00000
    76.2407     3323.00000
    76.2539     3526.00000
    76.2670     3402.00000
    76.2801     3580.00000
    76.2933     3619.00000
    76.3064     3599.00000
    76.3195     3589.00000
    76.3327     3580.00000
    76.3458     3655.00000
    76.3589     3435.00000
    76.3720     3299.00000
    76.3852     3197.00000
    76.3983     3032.00000
    76.4114     2954.00000
    76.4246     2981.00000
    76.4377     2944.00000
    76.4508     2836.00000
    76.4640     2866.00000
    76.4771     2802.00000
    76.4902     2877.00000
    76.5033     2894.00000
    76.5165     2927.00000
    76.5296     3051.00000
    76.5427     3227.00000
    76.5559     3284.00000
    76.5690     3408.00000
    76.5821     3560.00000
    76.5953     3814.00000
    76.6084     3952.00000
    76.6215     4251.00000
    76.6347     4356.00000
    76.6478     4482.00000
    76.6609     4447.00000
    76.6740     4397.00000
    76.6872     4482.00000
    76.7003     4189.00000
    76.7134     3908.00000
    76.7266     3656.00000
    76.7397     3515.00000
    76.7528     3284.00000
    76.7660     3336.00000
    76.7791     3292.00000
    76.7922     3138.00000
    76.8053     3159.00000
    76.8185     3259.00000
    76.8316     3454.00000
    76.8447     3436.00000
    76.8579     3420.00000
    76.8710     3400.00000
    76.8841     3477.00000
    76.8973     3355.00000
    76.9104     3471.00000
    76.9235     3334.00000
    76.9366     3196.00000
    76.9498     3076.00000
    76.9629     3031.00000
    76.9760     2830.00000
    76.9892     2831.00000
    77.0023     2659.00000
    77.0154     2625.00000
    77.0286     2697.00000
    77.0417     2650.00000
    77.0548     2578.00000
    77.0679     2629.00000
    77.0811     2484.00000
    77.0942     2528.00000
    77.1073     2534.00000
    77.1205     2522.00000
    77.1336     2442.00000
    77.1467     2596.00000
    77.1599     2478.00000
    77.1730     2510.00000
    77.1861     2543.00000
    77.1993     2550.00000
    77.2124     2438.00000
    77.2255     2479.00000
    77.2386     2483.00000
    77.2518     2456.00000
    77.2649     2533.00000
    77.2780     2546.00000
    77.2912     2458.00000
    77.3043     2587.00000
    77.3174     2551.00000
    77.3306     2565.00000
    77.3437     2556.00000
    77.3568     2629.00000
    77.3699     2659.00000
    77.3831     2672.00000
    77.3962     2890.00000
    77.4093     2892.00000
    77.4225     2995.00000
    77.4356     3022.00000
    77.4487     3212.00000
    77.4619     3232.00000
    77.4750     3255.00000
    77.4881     3131.00000
    77.5013     2968.00000
    77.5144     2973.00000
    77.5275     2791.00000
    77.5406     2777.00000
    77.5538     2668.00000
    77.5669     2597.00000
    77.5800     2623.00000
    77.5932     2679.00000
    77.6063     2705.00000
    77.6194     2660.00000
    77.6326     2682.00000
    77.6457     2840.00000
    77.6588     2774.00000
    77.6719     2777.00000
    77.6851     2916.00000
    77.6982     2859.00000
    77.7113     2866.00000
    77.7245     2823.00000
    77.7376     2894.00000
    77.7507     2737.00000
    77.7639     2742.00000
    77.7770     2720.00000
    77.7901     2596.00000
    77.8032     2679.00000
    77.8164     2576.00000
    77.8295     2672.00000
    77.8426     2575.00000
    77.8558     2490.00000
    77.8689     2663.00000
    77.8820     2571.00000
    77.8952     2586.00000
    77.9083     2698.00000
    77.9214     2694.00000
    77.9345     2788.00000
    77.9477     2780.00000
    77.9608     2843.00000
    77.9739     2835.00000
    77.9871     2857.00000
    78.0002     2960.00000
    78.0133     2777.00000
    78.0265     2824.00000
    78.0396     2739.00000
    78.0527     2885.00000
    78.0658     2805.00000
    78.0790     2877.00000
    78.0921     2849.00000
    78.1052     2947.00000
    78.1184     3111.00000
    78.1315     3270.00000
    78.1446     3290.00000
    78.1578     3326.00000
    78.1709     3525.00000
    78.1840     3486.00000
    78.1972     3594.00000
    78.2103     3554.00000
    78.2234     3615.00000
    78.2365     3551.00000
    78.2497     3645.00000
    78.2628     3527.00000
    78.2759     3411.00000
    78.2891     3441.00000
    78.3022     3525.00000
    78.3153     3377.00000
    78.3285     3499.00000
    78.3416     3495.00000
    78.3547     3647.00000
    78.3679     3868.00000
    78.3810     3939.00000
    78.3941     4128.00000
    78.4072     4361.00000
    78.4204     4377.00000
    78.4335     4247.00000
    78.4466     4280.00000
    78.4598     4154.00000
    78.4729     4137.00000
    78.4860     4117.00000
    78.4992     4206.00000
    78.5123     4303.00000
    78.5254     4198.00000
    78.5385     4423.00000
    78.5517     4391.00000
    78.5648     4480.00000
    78.5779     4429.00000
    78.5911     4319.00000
    78.6042     4490.00000
    78.6173     4399.00000
    78.6305     4263.00000
    78.6436     4088.00000
    78.6567     3953.00000
    78.6698     3801.00000
    78.6830     3654.00000
    78.6961     3557.00000
    78.7092     3572.00000
    78.7224     3421.00000
    78.7355     3396.00000
    78.7486     3322.00000
    78.7618     3203.00000
    78.7749     3298.00000
    78.7880     3272.00000
    78.8011     3320.00000
    78.8143     3262.00000
    78.8274     3219.00000
    78.8405     3205.00000
    78.8537     3150.00000
    78.8668     3115.00000
    78.8799     3076.00000
    78.8931     2924.00000
    78.9062     2844.00000
    78.9193     2751.00000
    78.9324     2795.00000
    78.9456     2726.00000
    78.9587     2551.00000
    78.9718     2749.00000
    78.9850     2710.00000
    78.9981     2755.00000
    79.0112     2797.00000
    79.0244     2732.00000
    79.0375     2810.00000
    79.0506     2798.00000
    79.0638     2819.00000
    79.0769     2845.00000
    79.0900     2859.00000
    79.1031     3004.00000
    79.1163     3175.00000
    79.1294     3324.00000
    79.1425     3418.00000
    79.1557     3574.00000
    79.1688     3842.00000
    79.1819     3973.00000
    79.1951     4032.00000
    79.2082     3943.00000
    79.2213     3876.00000
    79.2345     3768.00000
    79.2476     3523.00000
    79.2607     3457.00000
    79.2738     3364.00000
    79.2870     3322.00000
    79.3001     3321.00000
    79.3132     3176.00000
    79.3264     3272.00000
    79.3395     3359.00000
    79.3526     3305.00000
    79.3658     3333.00000
    79.3789     3391.00000
    79.3920     3440.00000
    79.4051     3512.00000
    79.4183     3348.00000
    79.4314     3469.00000
    79.4445     3370.00000
    79.4577     3340.00000
    79.4708     3289.00000
    79.4839     3185.00000
    79.4971     3138.00000
    79.5102     3038.00000
    79.5233     2965.00000
    79.5364     2935.00000
    79.5496     2945.00000
    79.5627     3034.00000
    79.5758     2943.00000
    79.5890     3026.00000
    79.6021     3038.00000
    79.6152     2937.00000
    79.6284     3040.00000
    79.6415     2953.00000
    79.6546     3083.00000
    79.6677     3144.00000
    79.6809     3109.00000
    79.6940     3201.00000
    79.7071     3178.00000
    79.7203     3335.00000
    79.7334     3591.00000
    79.7465     3709.00000
    79.7597     3962.00000
    79.7728     4183.00000
    79.7859     4436.00000
    79.7990     4630.00000
    79.8122     4865.00000
    79.8253     4956.00000
    79.8384     4862.00000
    79.8516     4714.00000
    79.8647     4504.00000
    79.8778     4156.00000
    79.8910     3909.00000
    79.9041     3769.00000
    79.9172     3760.00000
    79.9304     3522.00000
    79.9435     3440.00000
    79.9566     3500.00000
    79.9697     3630.00000
    79.9829     3595.00000
    79.9960     3681.00000
    80.0091     3930.00000
    80.0223     4083.00000
    80.0354     4390.00000
    80.0485     4575.00000
    80.0617     4859.00000
    80.0748     5172.00000
    80.0879     5361.00000
    80.1010     5290.00000
    80.1142     5468.00000
    80.1273     5241.00000
    80.1404     5279.00000
    80.1536     4920.00000
    80.1667     4938.00000
    80.1798     4749.00000
    80.1930     4917.00000
    80.2061     4841.00000
    80.2192     5092.00000
    80.2323     5159.00000
    80.2455     5433.00000
    80.2586     5777.00000
    80.2717     5853.00000
    80.2849     5736.00000
    80.2980     5772.00000
    80.3111     5711.00000
    80.3243     5607.00000
    80.3374     5549.00000
    80.3505     5741.00000
    80.3637     5624.00000
    80.3768     5521.00000
    80.3899     5245.00000
    80.4030     5064.00000
    80.4162     4929.00000
    80.4293     4883.00000
    80.4424     4936.00000
    80.4556     4811.00000
    80.4687     4883.00000
    80.4818     4722.00000
    80.4950     4711.00000
    80.5081     4724.00000
    80.5212     4588.00000
    80.5343     4400.00000
    80.5475     4212.00000
    80.5606     4030.00000
    80.5737     3910.00000
    80.5869     3807.00000
    80.6000     3805.00000
    80.6131     3708.00000
    80.6263     3669.00000
    80.6394     3541.00000
    80.6525     3527.00000
    80.6656     3507.00000
    80.6788     3581.00000
    80.6919     3639.00000
    80.7050     3681.00000
    80.7182     3676.00000
    80.7313     3628.00000
    80.7444     3513.00000
    80.7576     3573.00000
    80.7707     3517.00000
    80.7838     3405.00000
    80.7970     3433.00000
    80.8101     3409.00000
    80.8232     3268.00000
    80.8363     3451.00000
    80.8495     3430.00000
    80.8626     3231.00000
    80.8757     3411.00000
    80.8889     3328.00000
    80.9020     3274.00000
    80.9151     3311.00000
    80.9283     3149.00000
    80.9414     3139.00000
    80.9545     3029.00000
    80.9676     2934.00000
    80.9808     3036.00000
    80.9939     2961.00000
    81.0070     3061.00000
    81.0202     2904.00000
    81.0333     3102.00000
    81.0464     2897.00000
    81.0596     2954.00000
    81.0727     3012.00000
    81.0858     2909.00000
    81.0989     2964.00000
    81.1121     2961.00000
    81.1252     2894.00000
    81.1383     2949.00000
    81.1515     2827.00000
    81.1646     2846.00000
    81.1777     2728.00000
    81.1909     2703.00000
    81.2040     2656.00000
    81.2171     2555.00000
    81.2302     2637.00000
    81.2434     2598.00000
    81.2565     2469.00000
    81.2696     2631.00000
    81.2828     2550.00000
    81.2959     2557.00000
    81.3090     2542.00000
    81.3222     2607.00000
    81.3353     2525.00000
    81.3484     2620.00000
    81.3616     2639.00000
    81.3747     2560.00000
    81.3878     2632.00000
    81.4009     2529.00000
    81.4141     2488.00000
    81.4272     2611.00000
    81.4403     2604.00000
    81.4535     2570.00000
    81.4666     2696.00000
    81.4797     2726.00000
    81.4929     2672.00000
    81.5060     2784.00000
    81.5191     2838.00000
    81.5322     2840.00000
    81.5454     2831.00000
    81.5585     2835.00000
    81.5716     3080.00000
    81.5848     3317.00000
    81.5979     3431.00000
    81.6110     3502.00000
    81.6242     3460.00000
    81.6373     3632.00000
    81.6504     3666.00000
    81.6636     3750.00000
    81.6767     3758.00000
    81.6898     3680.00000
    81.7029     3598.00000
    81.7161     3520.00000
    81.7292     3451.00000
    81.7423     3189.00000
    81.7555     3086.00000
    81.7686     3040.00000
    81.7817     2932.00000
    81.7949     2939.00000
    81.8080     2864.00000
    81.8211     2963.00000
    81.8342     2948.00000
    81.8474     2992.00000
    81.8605     3021.00000
    81.8736     3107.00000
    81.8868     3156.00000
    81.8999     3244.00000
    81.9130     3143.00000
    81.9262     3230.00000
    81.9393     3190.00000
    81.9524     3291.00000
    81.9655     3173.00000
    81.9787     3233.00000
    81.9918     3031.00000
    82.0049     3116.00000
    82.0181     3046.00000
    82.0312     3007.00000
    82.0443     3060.00000
    82.0575     3059.00000
    82.0706     3046.00000
    82.0837     2950.00000
    82.0968     3020.00000
    82.1100     3006.00000
    82.1231     2862.00000
    82.1362     2853.00000
    82.1494     2778.00000
    82.1625     2744.00000
    82.1756     2642.00000
    82.1888     2715.00000
    82.2019     2662.00000
    82.2150     2707.00000
    82.2281     2715.00000
    82.2413     2702.00000
    82.2544     2820.00000
    82.2675     2871.00000
    82.2807     2828.00000
    82.2938     2905.00000
    82.3069     2959.00000
    82.3201     2822.00000
    82.3332     3044.00000
    82.3463     2977.00000
    82.3595     3148.00000
    82.3726     3187.00000
    82.3857     3333.00000
    82.3988     3643.00000
    82.4120     3662.00000
    82.4251     3809.00000
    82.4382     3798.00000
    82.4514     3448.00000
    82.4645     3236.00000
    82.4776     3081.00000
    82.4908     2859.00000
    82.5039     2704.00000
    82.5170     2756.00000
    82.5302     2733.00000
    82.5433     2790.00000
    82.5564     2707.00000
    82.5695     2767.00000
    82.5827     2741.00000
    82.5958     2784.00000
    82.6089     2758.00000
    82.6221     2869.00000
    82.6352     2974.00000
    82.6483     3028.00000
    82.6615     2990.00000
    82.6746     3072.00000
    82.6877     3100.00000
    82.7008     2921.00000
    82.7140     2764.00000
    82.7271     2744.00000
    82.7402     2648.00000
    82.7534     2539.00000
    82.7665     2693.00000
    82.7796     2618.00000
    82.7928     2479.00000
    82.8059     2611.00000
    82.8190     2609.00000
    82.8321     2629.00000
    82.8453     2481.00000
    82.8584     2548.00000
    82.8715     2515.00000
    82.8847     2537.00000
    82.8978     2656.00000
    82.9109     2650.00000
    82.9241     2666.00000
    82.9372     2561.00000
    82.9503     2603.00000
    82.9634     2663.00000
    82.9766     2850.00000
    82.9897     2782.00000
    83.0028     2824.00000
    83.0160     2779.00000
    83.0291     2713.00000
    83.0422     2794.00000
    83.0554     2821.00000
    83.0685     2870.00000
    83.0816     2902.00000
    83.0947     2852.00000
    83.1079     2703.00000
    83.1210     2873.00000
    83.1341     2714.00000
    83.1473     2786.00000
    83.1604     2682.00000
    83.1735     2833.00000
    83.1867     2701.00000
    83.1998     2790.00000
    83.2129     2922.00000
    83.2261     2920.00000
    83.2392     2943.00000
    83.2523     2978.00000
    83.2654     3081.00000
    83.2786     3309.00000
    83.2917     3447.00000
    83.3048     3502.00000
    83.3180     3444.00000
    83.3311     3367.00000
    83.3442     3435.00000
    83.3574     3248.00000
    83.3705     3155.00000
    83.3836     3018.00000
    83.3967     2880.00000
    83.4099     2895.00000
    83.4230     2754.00000
    83.4361     2744.00000
    83.4493     2780.00000
    83.4624     2706.00000
    83.4755     2674.00000
    83.4887     2699.00000
    83.5018     2739.00000
    83.5149     2786.00000
    83.5281     2783.00000
    83.5412     2822.00000
    83.5543     2888.00000
    83.5674     2909.00000
    83.5806     2873.00000
    83.5937     2921.00000
    83.6068     2795.00000
    83.6200     2712.00000
    83.6331     2706.00000
    83.6462     2694.00000
    83.6594     2586.00000
    83.6725     2495.00000
    83.6856     2548.00000
    83.6987     2551.00000
    83.7119     2481.00000
    83.7250     2539.00000
    83.7381     2596.00000
    83.7513     2425.00000
    83.7644     2452.00000
    83.7775     2420.00000
    83.7907     2456.00000
    83.8038     2436.00000
    83.8169     2511.00000
    83.8300     2514.00000
    83.8432     2429.00000
    83.8563     2488.00000
    83.8694     2408.00000
    83.8826     2508.00000
    83.8957     2398.00000
    83.9088     2383.00000
    83.9220     2403.00000
    83.9351     2383.00000
    83.9482     2415.00000
    83.9613     2460.00000
    83.9745     2432.00000
    83.9876     2420.00000
    84.0007     2457.00000
    84.0139     2480.00000
    84.0270     2496.00000
    84.0401     2389.00000
    84.0533     2405.00000
    84.0664     2389.00000
    84.0795     2406.00000
    84.0927     2466.00000
    84.1058     2479.00000
    84.1189     2484.00000
    84.1320     2429.00000
    84.1452     2455.00000
    84.1583     2552.00000
    84.1714     2421.00000
    84.1846     2457.00000
    84.1977     2531.00000
    84.2108     2460.00000
    84.2240     2550.00000
    84.2371     2601.00000
    84.2502     2495.00000
    84.2633     2490.00000
    84.2765     2567.00000
    84.2896     2697.00000
    84.3027     2719.00000
    84.3159     2633.00000
    84.3290     2683.00000
    84.3421     2636.00000
    84.3553     2511.00000
    84.3684     2696.00000
    84.3815     2575.00000
    84.3946     2584.00000
    84.4078     2549.00000
    84.4209     2582.00000
    84.4340     2543.00000
    84.4472     2517.00000
    84.4603     2573.00000
    84.4734     2623.00000
    84.4866     2492.00000
    84.4997     2569.00000
    84.5128     2564.00000
    84.5260     2552.00000
    84.5391     2574.00000
    84.5522     2575.00000
    84.5653     2592.00000
    84.5785     2583.00000
    84.5916     2655.00000
    84.6047     2546.00000
    84.6179     2541.00000
    84.6310     2619.00000
    84.6441     2535.00000
    84.6573     2593.00000
    84.6704     2734.00000
    84.6835     2577.00000
    84.6966     2509.00000
    84.7098     2589.00000
    84.7229     2530.00000
    84.7360     2541.00000
    84.7492     2497.00000
    84.7623     2446.00000
    84.7754     2464.00000
    84.7886     2567.00000
    84.8017     2500.00000
    84.8148     2439.00000
    84.8279     2488.00000
    84.8411     2506.00000
    84.8542     2524.00000
    84.8673     2554.00000
    84.8805     2519.00000
    84.8936     2564.00000
    84.9067     2658.00000
    84.9199     2580.00000
    84.9330     2694.00000
    84.9461     2737.00000
    84.9593     2789.00000
    84.9724     2923.00000
    84.9855     2914.00000
    84.9986     2906.00000
    85.0118     2921.00000
    85.0249     3008.00000
    85.0380     3037.00000
    85.0512     2973.00000
    85.0643     3141.00000
    85.0774     3094.00000
    85.0906     3253.00000
    85.1037     3193.00000
    85.1168     3324.00000
    85.1299     3460.00000
    85.1431     3437.00000
    85.1562     3365.00000
    85.1693     3465.00000
    85.1825     3409.00000
    85.1956     3488.00000
    85.2087     3537.00000
    85.2219     3788.00000
    85.2350     3706.00000
    85.2481     3873.00000
    85.2612     3947.00000
    85.2744     3987.00000
    85.2875     3946.00000
    85.3006     4278.00000
    85.3138     4294.00000
    85.3269     4336.00000
    85.3400     4223.00000
    85.3532     4141.00000
    85.3663     4109.00000
    85.3794     3881.00000
    85.3925     3723.00000
    85.4057     3576.00000
    85.4188     3530.00000
    85.4319     3530.00000
    85.4451     3355.00000
    85.4582     3305.00000
    85.4713     3412.00000
    85.4845     3262.00000
    85.4976     3236.00000
    85.5107     3128.00000
    85.5238     3265.00000
    85.5370     3170.00000
    85.5501     3273.00000
    85.5632     3270.00000
    85.5764     3301.00000
    85.5895     3368.00000
    85.6026     3186.00000
    85.6158     3241.00000
    85.6289     3142.00000
    85.6420     2868.00000
    85.6552     2976.00000
    85.6683     2801.00000
    85.6814     2822.00000
    85.6945     2679.00000
    85.7077     2700.00000
    85.7208     2720.00000
    85.7339     2725.00000
    85.7471     2602.00000
    85.7602     2643.00000
    85.7733     2609.00000
    85.7865     2586.00000
    85.7996     2639.00000
    85.8127     2569.00000
    85.8259     2566.00000
    85.8390     2637.00000
    85.8521     2593.00000
    85.8652     2601.00000
    85.8784     2590.00000
    85.8915     2662.00000
    85.9046     2653.00000
    85.9178     2716.00000
    85.9309     2774.00000
    85.9440     2811.00000
    85.9572     2967.00000
    85.9703     3048.00000
    85.9834     3098.00000
    85.9965     2996.00000
    86.0097     3121.00000
    86.0228     3050.00000
    86.0359     3016.00000
    86.0491     2853.00000
    86.0622     2824.00000
    86.0753     2796.00000
    86.0885     2795.00000
    86.1016     2706.00000
    86.1147     2591.00000
    86.1278     2661.00000
    86.1410     2540.00000
    86.1541     2585.00000
    86.1672     2687.00000
    86.1804     2677.00000
    86.1935     2678.00000
    86.2066     2723.00000
    86.2198     2874.00000
    86.2329     2758.00000
    86.2460     2898.00000
    86.2591     2792.00000
    86.2723     2785.00000
    86.2854     2789.00000
    86.2985     2785.00000
    86.3117     2762.00000
    86.3248     2742.00000
    86.3379     2615.00000
    86.3511     2686.00000
    86.3642     2590.00000
    86.3773     2766.00000
    86.3904     2623.00000
    86.4036     2691.00000
    86.4167     2681.00000
    86.4298     2746.00000
    86.4430     2767.00000
    86.4561     2899.00000
    86.4692     2971.00000
    86.4824     3008.00000
    86.4955     3200.00000
    86.5086     3254.00000
    86.5218     3269.00000
    86.5349     3363.00000
    86.5480     3422.00000
    86.5611     3193.00000
    86.5743     3164.00000
    86.5874     2951.00000
    86.6005     3017.00000
    86.6137     2933.00000
    86.6268     2722.00000
    86.6399     2761.00000
    86.6531     2693.00000
    86.6662     2747.00000
    86.6793     2675.00000
    86.6925     2669.00000
    86.7056     2668.00000
    86.7187     2702.00000
    86.7318     2716.00000
    86.7450     2745.00000
    86.7581     2865.00000
    86.7712     2876.00000
    86.7844     2968.00000
    86.7975     2989.00000
    86.8106     2939.00000
    86.8238     2977.00000
    86.8369     2892.00000
    86.8500     2900.00000
    86.8631     2922.00000
    86.8763     2814.00000
    86.8894     2888.00000
    86.9025     2868.00000
    86.9157     2870.00000
    86.9288     2987.00000
    86.9419     2922.00000
    86.9551     3036.00000
    86.9682     3124.00000
    86.9813     3315.00000
    86.9944     3207.00000
    87.0076     3369.00000
    87.0207     3481.00000
    87.0338     3341.00000
    87.0470     3423.00000
    87.0601     3345.00000
    87.0732     3370.00000
    87.0864     3158.00000
    87.0995     2996.00000
    87.1126     3033.00000
    87.1257     3016.00000
    87.1389     2832.00000
    87.1520     2870.00000
    87.1651     2885.00000
    87.1783     2772.00000
    87.1914     2793.00000
    87.2045     2824.00000
    87.2177     2797.00000
    87.2308     2805.00000
    87.2439     3020.00000
    87.2570     2972.00000
    87.2702     2894.00000
    87.2833     2983.00000
    87.2964     2911.00000
    87.3096     2986.00000
    87.3227     2885.00000
    87.3358     3000.00000
    87.3490     2931.00000
    87.3621     2887.00000
    87.3752     2759.00000
    87.3884     2775.00000
    87.4015     2803.00000
    87.4146     2775.00000
    87.4277     2751.00000
    87.4409     2753.00000
    87.4540     2767.00000
    87.4671     2734.00000
    87.4803     2846.00000
    87.4934     2816.00000
    87.5065     2833.00000
    87.5197     2925.00000
    87.5328     2895.00000
    87.5459     3035.00000
    87.5590     3274.00000
    87.5722     3378.00000
    87.5853     3612.00000
    87.5984     3595.00000
    87.6116     3562.00000
    87.6247     3438.00000
    87.6378     3314.00000
    87.6510     3090.00000
    87.6641     3137.00000
    87.6772     2908.00000
    87.6904     2883.00000
    87.7035     2801.00000
    87.7166     2827.00000
    87.7297     2764.00000
    87.7429     2767.00000
    87.7560     2836.00000
    87.7691     2726.00000
    87.7823     2883.00000
    87.7954     2772.00000
    87.8085     2824.00000
    87.8217     2922.00000
    87.8348     3002.00000
    87.8479     3043.00000
    87.8610     3217.00000
    87.8742     3165.00000
    87.8873     3224.00000
    87.9004     3207.00000
    87.9136     3269.00000
    87.9267     3388.00000
    87.9398     3506.00000
    87.9530     3573.00000
    87.9661     3629.00000
    87.9792     3818.00000
    87.9923     3700.00000
    88.0055     3914.00000
    88.0186     3719.00000
    88.0317     3805.00000
    88.0449     3584.00000
    88.0580     3533.00000
    88.0711     3325.00000
    88.0843     3176.00000
    88.0974     3038.00000
    88.1105     2919.00000
    88.1236     2852.00000
    88.1368     2843.00000
    88.1499     2768.00000
    88.1630     2866.00000
    88.1762     2782.00000
    88.1893     2843.00000
    88.2024     2880.00000
    88.2156     3011.00000
    88.2287     3099.00000
    88.2418     3103.00000
    88.2550     3298.00000
    88.2681     3360.00000
    88.2812     3353.00000
    88.2943     3250.00000
    88.3075     3417.00000
    88.3206     3434.00000
    88.3337     3285.00000
    88.3469     3195.00000
    88.3600     3043.00000
    88.3731     2849.00000
    88.3863     2989.00000
    88.3994     2813.00000
    88.4125     2730.00000
    88.4256     2707.00000
    88.4388     2669.00000
    88.4519     2674.00000
    88.4650     2664.00000
    88.4782     2558.00000
    88.4913     2637.00000
    88.5044     2600.00000
    88.5176     2563.00000
    88.5307     2566.00000
    88.5438     2585.00000
    88.5569     2546.00000
    88.5701     2575.00000
    88.5832     2723.00000
    88.5963     2696.00000
    88.6095     2622.00000
    88.6226     2609.00000
    88.6357     2646.00000
    88.6489     2637.00000
    88.6620     2663.00000
    88.6751     2640.00000
    88.6882     2659.00000
    88.7014     2641.00000
    88.7145     2640.00000
    88.7276     2564.00000
    88.7408     2661.00000
    88.7539     2830.00000
    88.7670     2805.00000
    88.7802     2937.00000
    88.7933     3018.00000
    88.8064     3166.00000
    88.8196     3148.00000
    88.8327     3344.00000
    88.8458     3379.00000
    88.8589     3358.00000
    88.8721     3298.00000
    88.8852     3198.00000
    88.8983     3083.00000
    88.9115     3068.00000
    88.9246     2869.00000
    88.9377     2910.00000
    88.9509     2757.00000
    88.9640     2761.00000
    88.9771     2794.00000
    88.9902     2703.00000
    89.0034     2688.00000
    89.0165     2689.00000
    89.0296     2687.00000
    89.0428     2673.00000
    89.0559     2713.00000
    89.0690     2845.00000
    89.0822     2897.00000
    89.0953     2981.00000
    89.1084     2862.00000
    89.1216     3051.00000
    89.1347     3101.00000
    89.1478     3133.00000
    89.1609     3209.00000
    89.1741     3120.00000
    89.1872     3008.00000
    89.2003     3017.00000
    89.2135     2954.00000
    89.2266     2996.00000
    89.2397     2904.00000
    89.2529     3057.00000
    89.2660     2821.00000
    89.2791     2751.00000
    89.2922     2672.00000
    89.3054     2693.00000
    89.3185     2646.00000
    89.3316     2603.00000
    89.3448     2547.00000
    89.3579     2569.00000
    89.3710     2529.00000
    89.3842     2603.00000
    89.3973     2692.00000
    89.4104     2588.00000
    89.4235     2676.00000
    89.4367     2522.00000
    89.4498     2552.00000
    89.4629     2706.00000
    89.4761     2696.00000
    89.4892     2681.00000
    89.5023     2714.00000
    89.5155     2725.00000
    89.5286     2651.00000
    89.5417     2787.00000
    89.5548     2684.00000
    89.5680     2760.00000
    89.5811     2746.00000
    89.5942     2641.00000
    89.6074     2836.00000
    89.6205     2857.00000
    89.6336     2823.00000
    89.6468     2869.00000
    89.6599     3035.00000
    89.6730     3172.00000
    89.6861     3193.00000
    89.6993     3265.00000
    89.7124     3505.00000
    89.7255     3414.00000
    89.7387     3671.00000
    89.7518     3700.00000
    89.7649     3742.00000
    89.7781     3639.00000
    89.7912     3392.00000
    89.8043     3356.00000
    89.8175     3294.00000
    89.8306     3357.00000
    89.8437     3307.00000
    89.8568     3285.00000
    89.8700     3351.00000
    89.8831     3421.00000
    89.8962     3435.00000
    89.9094     3558.00000
    89.9225     3614.00000
    89.9356     3640.00000
    89.9488     3545.00000
    89.9619     3598.00000
    89.9750     3582.00000
    89.9882     3555.00000
    90.0013     3573.00000
    90.0144     3542.00000
    90.0275     3479.00000
    90.0407     3459.00000
    90.0538     3356.00000
    90.0669     3208.00000
    90.0801     3269.00000
    90.0932     3206.00000
    90.1063     3157.00000
    90.1195     3185.00000
    90.1326     3103.00000
    90.1457     3201.00000
    90.1588     3309.00000
    90.1720     3498.00000
    90.1851     3438.00000
    90.1982     3709.00000
    90.2114     3612.00000
    90.2245     3643.00000
    90.2376     3719.00000
    90.2508     3424.00000
    90.2639     3200.00000
    90.2770     3056.00000
    90.2901     3086.00000
    90.3033     2986.00000
    90.3164     2792.00000
    90.3295     2693.00000
    90.3427     2691.00000
    90.3558     2786.00000
    90.3689     2729.00000
    90.3821     2633.00000
    90.3952     2676.00000
    90.4083     2793.00000
    90.4214     2700.00000
    90.4346     2802.00000
    90.4477     2874.00000
    90.4608     2846.00000
    90.4740     2900.00000
    90.4871     2942.00000
    90.5002     3016.00000
    90.5134     2926.00000
    90.5265     2931.00000
    90.5396     2901.00000
    90.5527     2925.00000
    90.5659     2927.00000
    90.5790     3030.00000
    90.5921     2913.00000
    90.6053     2975.00000
    90.6184     2961.00000
    90.6315     2947.00000
    90.6447     3105.00000
    90.6578     3043.00000
    90.6709     3132.00000
    90.6841     3093.00000
    90.6972     3145.00000
    90.7103     3099.00000
    90.7234     3016.00000
    90.7366     2915.00000
    90.7497     3005.00000
    90.7628     2864.00000
    90.7760     2875.00000
    90.7891     2800.00000
    90.8022     2789.00000
    90.8154     2725.00000
    90.8285     2807.00000
    90.8416     2713.00000
    90.8548     2794.00000
    90.8679     2756.00000
    90.8810     2772.00000
    90.8941     2848.00000
    90.9073     2821.00000
    90.9204     2983.00000
    90.9335     2826.00000
    90.9467     2976.00000
    90.9598     3030.00000
    90.9729     3121.00000
    90.9861     3081.00000
    90.9992     3199.00000
    91.0123     3282.00000
    91.0254     3237.00000
    91.0386     3331.00000
    91.0517     3384.00000
    91.0648     3401.00000
    91.0780     3420.00000
    91.0911     3470.00000
    91.1042     3443.00000
    91.1174     3544.00000
    91.1305     3448.00000
    91.1436     3413.00000
    91.1567     3398.00000
    91.1699     3293.00000
    91.1830     3386.00000
    91.1961     3117.00000
    91.2093     3037.00000
    91.2224     3107.00000
    91.2355     3022.00000
    91.2487     2942.00000
    91.2618     3049.00000
    91.2749     2942.00000
    91.2880     2999.00000
    91.3012     3206.00000
    91.3143     3211.00000
    91.3274     3281.00000
    91.3406     3359.00000
    91.3537     3507.00000
    91.3668     3498.00000
    91.3800     3547.00000
    91.3931     3707.00000
    91.4062     3743.00000
    91.4193     3754.00000
    91.4325     3931.00000
    91.4456     4040.00000
    91.4587     4166.00000
    91.4719     4090.00000
    91.4850     3930.00000
    91.4981     3701.00000
    91.5113     3616.00000
    91.5244     3428.00000
    91.5375     3397.00000
    91.5507     3159.00000
    91.5638     3036.00000
    91.5769     3040.00000
    91.5900     2823.00000
    91.6032     2949.00000
    91.6163     2961.00000
    91.6294     2961.00000
    91.6426     3022.00000
    91.6557     3060.00000
    91.6688     3180.00000
    91.6820     3055.00000
    91.6951     3239.00000
    91.7082     3104.00000
    91.7213     3256.00000
    91.7345     3161.00000
    91.7476     3128.00000
    91.7607     3204.00000
    91.7739     3104.00000
    91.7870     3127.00000
    91.8001     3035.00000
    91.8133     3002.00000
    91.8264     2883.00000
    91.8395     2870.00000
    91.8526     2872.00000
    91.8658     2760.00000
    91.8789     2773.00000
    91.8920     2720.00000
    91.9052     2716.00000
    91.9183     2771.00000
    91.9314     2694.00000
    91.9446     2829.00000
    91.9577     2773.00000
    91.9708     2974.00000
    91.9840     2865.00000
    91.9971     3022.00000
    92.0102     2958.00000
    92.0233     3048.00000
    92.0365     3022.00000
    92.0496     3069.00000
    92.0627     3154.00000
    92.0759     3011.00000
    92.0890     2947.00000
    92.1021     3015.00000
    92.1153     2986.00000
    92.1284     3031.00000
    92.1415     2865.00000
    92.1546     2979.00000
    92.1678     2963.00000
    92.1809     2874.00000
    92.1940     2968.00000
    92.2072     2934.00000
    92.2203     3059.00000
    92.2334     3012.00000
    92.2466     3153.00000
    92.2597     3139.00000
    92.2728     3217.00000
    92.2859     3338.00000
    92.2991     3367.00000
    92.3122     3499.00000
    92.3253     3697.00000
    92.3385     3776.00000
    92.3516     3696.00000
    92.3647     3735.00000
    92.3779     3747.00000
    92.3910     3654.00000
    92.4041     3431.00000
    92.4173     3319.00000
    92.4304     3166.00000
    92.4435     3107.00000
    92.4566     3025.00000
    92.4698     2920.00000
    92.4829     2977.00000
    92.4960     2873.00000
    92.5092     2954.00000
    92.5223     2829.00000
    92.5354     2835.00000
    92.5486     2849.00000
    92.5617     2810.00000
    92.5748     2854.00000
    92.5879     2886.00000
    92.6011     2849.00000
    92.6142     2922.00000
    92.6273     2984.00000
    92.6405     2980.00000
    92.6536     3056.00000
    92.6667     3054.00000
    92.6799     3055.00000
    92.6930     2970.00000
    92.7061     2795.00000
    92.7192     2790.00000
    92.7324     2730.00000
    92.7455     2626.00000
    92.7586     2680.00000
    92.7718     2637.00000
    92.7849     2516.00000
    92.7980     2491.00000
    92.8112     2559.00000
    92.8243     2580.00000
    92.8374     2487.00000
    92.8505     2487.00000
    92.8637     2480.00000
    92.8768     2478.00000
    92.8899     2505.00000
    92.9031     2468.00000
    92.9162     2477.00000
    92.9293     2501.00000
    92.9425     2490.00000
    92.9556     2539.00000
    92.9687     2547.00000
    92.9819     2466.00000
    92.9950     2534.00000
    93.0081     2386.00000
    93.0212     2383.00000
    93.0344     2445.00000
    93.0475     2477.00000
    93.0606     2439.00000
    93.0738     2556.00000
    93.0869     2415.00000
    93.1000     2499.00000
    93.1132     2519.00000
    93.1263     2428.00000
    93.1394     2424.00000
    93.1525     2414.00000
    93.1657     2498.00000
    93.1788     2503.00000
    93.1919     2472.00000
    93.2051     2382.00000
    93.2182     2509.00000
    93.2313     2497.00000
    93.2445     2394.00000
    93.2576     2497.00000
    93.2707     2592.00000
    93.2839     2546.00000
    93.2970     2602.00000
    93.3101     2570.00000
    93.3232     2596.00000
    93.3364     2644.00000
    93.3495     2721.00000
    93.3626     2729.00000
    93.3758     2780.00000
    93.3889     2898.00000
    93.4020     2997.00000
    93.4152     3019.00000
    93.4283     3133.00000
    93.4414     3238.00000
    93.4545     3115.00000
    93.4677     2913.00000
    93.4808     2942.00000
    93.4939     2871.00000
    93.5071     2790.00000
    93.5202     2795.00000
    93.5333     2781.00000
    93.5465     2686.00000
    93.5596     2753.00000
    93.5727     2755.00000
    93.5858     2651.00000
    93.5990     2887.00000
    93.6121     2733.00000
    93.6252     2842.00000
    93.6384     2899.00000
    93.6515     2910.00000
    93.6646     2936.00000
    93.6778     3102.00000
    93.6909     2903.00000
    93.7040     3021.00000
    93.7171     2927.00000
    93.7303     3079.00000
    93.7434     2888.00000
    93.7565     2984.00000
    93.7697     2834.00000
    93.7828     2847.00000
    93.7959     2731.00000
    93.8091     2743.00000
    93.8222     2649.00000
    93.8353     2674.00000
    93.8484     2530.00000
    93.8616     2512.00000
    93.8747     2635.00000
    93.8878     2703.00000
    93.9010     2671.00000
    93.9141     2700.00000
    93.9272     2589.00000
    93.9404     2585.00000
    93.9535     2635.00000
    93.9666     2675.00000
    93.9798     2697.00000
    93.9929     2662.00000
    94.0060     2767.00000
    94.0191     2654.00000
    94.0323     2650.00000
    94.0454     2715.00000
    94.0585     2596.00000
    94.0717     2772.00000
    94.0848     2768.00000
    94.0979     2792.00000
    94.1111     2809.00000
    94.1242     2955.00000
    94.1373     2963.00000
    94.1505     2962.00000
    94.1636     3026.00000
    94.1767     3112.00000
    94.1898     2978.00000
    94.2030     3054.00000
    94.2161     2899.00000
    94.2292     2950.00000
    94.2424     2998.00000
    94.2555     2972.00000
    94.2686     2977.00000
    94.2818     2921.00000
    94.2949     2870.00000
    94.3080     2988.00000
    94.3211     3043.00000
    94.3343     3198.00000
    94.3474     3155.00000
    94.3605     3234.00000
    94.3737     3296.00000
    94.3868     3357.00000
    94.3999     3243.00000
    94.4131     3127.00000
    94.4262     3090.00000
    94.4393     3012.00000
    94.4524     3045.00000
    94.4656     2937.00000
    94.4787     2786.00000
    94.4918     2859.00000
    94.5050     2766.00000
    94.5181     2662.00000
    94.5312     2901.00000
    94.5444     2839.00000
    94.5575     2756.00000
    94.5706     2765.00000
    94.5837     2705.00000
    94.5969     2835.00000
    94.6100     2691.00000
    94.6231     2695.00000
    94.6363     2729.00000
    94.6494     2833.00000
    94.6625     2826.00000
    94.6757     2820.00000
    94.6888     2822.00000
    94.7019     2770.00000
    94.7150     2752.00000
    94.7282     2730.00000
    94.7413     2631.00000
    94.7544     2617.00000
    94.7676     2552.00000
    94.7807     2677.00000
    94.7938     2450.00000
    94.8070     2532.00000
    94.8201     2543.00000
    94.8332     2485.00000
    94.8464     2541.00000
    94.8595     2480.00000
    94.8726     2543.00000
    94.8857     2482.00000
    94.8989     2419.00000
    94.9120     2529.00000
    94.9251     2356.00000
    94.9383     2527.00000
    94.9514     2500.00000
    94.9645     2485.00000
    94.9777     2377.00000
    94.9908     2370.00000
    95.0039     2357.00000
    95.0170     2432.00000
    95.0302     2463.00000
    95.0433     2426.00000
    95.0564     2501.00000
    95.0696     2483.00000
    95.0827     2425.00000
    95.0958     2439.00000
    95.1090     2457.00000
    95.1221     2451.00000
    95.1352     2556.00000
    95.1484     2439.00000
    95.1615     2459.00000
    95.1746     2490.00000
    95.1877     2416.00000
    95.2009     2469.00000
    95.2140     2392.00000
    95.2271     2318.00000
    95.2403     2460.00000
    95.2534     2451.00000
    95.2665     2412.00000
    95.2797     2433.00000
    95.2928     2342.00000
    95.3059     2449.00000
    95.3190     2350.00000
    95.3322     2463.00000
    95.3453     2484.00000
    95.3584     2436.00000
    95.3716     2484.00000
    95.3847     2407.00000
    95.3978     2395.00000
    95.4110     2487.00000
    95.4241     2500.00000
    95.4372     2480.00000
    95.4503     2404.00000
    95.4635     2436.00000
    95.4766     2464.00000
    95.4897     2412.00000
    95.5029     2431.00000
    95.5160     2475.00000
    95.5291     2507.00000
    95.5423     2436.00000
    95.5554     2584.00000
    95.5685     2414.00000
    95.5816     2435.00000
    95.5948     2444.00000
    95.6079     2438.00000
    95.6210     2459.00000
    95.6342     2685.00000
    95.6473     2486.00000
    95.6604     2614.00000
    95.6736     2606.00000
    95.6867     2513.00000
    95.6998     2606.00000
    95.7130     2581.00000
    95.7261     2516.00000
    95.7392     2636.00000
    95.7523     2512.00000
    95.7655     2545.00000
    95.7786     2543.00000
    95.7917     2556.00000
    95.8049     2546.00000
    95.8180     2553.00000
    95.8311     2511.00000
    95.8443     2462.00000
    95.8574     2533.00000
    95.8705     2528.00000
    95.8836     2513.00000
    95.8968     2517.00000
    95.9099     2407.00000
    95.9230     2512.00000
    95.9362     2521.00000
    95.9493     2564.00000
    95.9624     2538.00000
    95.9756     2553.00000
    95.9887     2641.00000
    96.0018     2505.00000
    96.0149     2551.00000
    96.0281     2631.00000
    96.0412     2535.00000
    96.0543     2604.00000
    96.0675     2514.00000
    96.0806     2506.00000
    96.0937     2504.00000
    96.1069     2476.00000
    96.1200     2651.00000
    96.1331     2711.00000
    96.1463     2743.00000
    96.1594     2766.00000
    96.1725     2772.00000
    96.1856     2883.00000
    96.1988     3097.00000
    96.2119     3174.00000
    96.2250     3218.00000
    96.2382     3375.00000
    96.2513     3320.00000
    96.2644     3478.00000
    96.2776     3475.00000
    96.2907     3485.00000
    96.3038     3329.00000
    96.3169     3391.00000
    96.3301     3319.00000
    96.3432     3258.00000
    96.3563     3247.00000
    96.3695     3397.00000
    96.3826     3241.00000
    96.3957     3318.00000
    96.4089     3498.00000
    96.4220     3558.00000
    96.4351     3417.00000
    96.4482     3452.00000
    96.4614     3518.00000
    96.4745     3445.00000
    96.4876     3337.00000
    96.5008     3286.00000
    96.5139     3346.00000
    96.5270     3330.00000
    96.5402     3268.00000
    96.5533     3231.00000
    96.5664     3278.00000
    96.5796     3210.00000
    96.5927     3129.00000
    96.6058     3175.00000
    96.6189     3134.00000
    96.6321     3027.00000
    96.6452     3002.00000
    96.6583     2934.00000
    96.6715     3003.00000
    96.6846     2972.00000
    96.6977     2900.00000
    96.7109     2889.00000
    96.7240     2916.00000
    96.7371     2896.00000
    96.7502     3003.00000
    96.7634     2933.00000
    96.7765     2912.00000
    96.7896     2831.00000
    96.8028     2908.00000
    96.8159     2755.00000
    96.8290     2694.00000
    96.8422     2766.00000
    96.8553     2634.00000
    96.8684     2566.00000
    96.8815     2624.00000
    96.8947     2591.00000
    96.9078     2638.00000
    96.9209     2530.00000
    96.9341     2615.00000
    96.9472     2544.00000
    96.9603     2544.00000
    96.9735     2573.00000
    96.9866     2482.00000
    96.9997     2428.00000
    97.0128     2512.00000
    97.0260     2556.00000
    97.0391     2438.00000
    97.0522     2615.00000
    97.0654     2605.00000
    97.0785     2584.00000
    97.0916     2491.00000
    97.1048     2579.00000
    97.1179     2542.00000
    97.1310     2602.00000
    97.1442     2575.00000
    97.1573     2550.00000
    97.1704     2667.00000
    97.1835     2764.00000
    97.1967     2760.00000
    97.2098     2776.00000
    97.2229     2965.00000
    97.2361     3160.00000
    97.2492     3082.00000
    97.2623     3237.00000
    97.2755     3286.00000
    97.2886     3415.00000
    97.3017     3339.00000
    97.3148     3326.00000
    97.3280     3357.00000
    97.3411     3275.00000
    97.3542     3300.00000
    97.3674     3214.00000
    97.3805     3302.00000
    97.3936     3099.00000
    97.4068     3036.00000
    97.4199     3043.00000
    97.4330     2917.00000
    97.4462     2929.00000
    97.4593     2890.00000
    97.4724     2864.00000
    97.4855     2758.00000
    97.4987     2865.00000
    97.5118     2824.00000
    97.5249     2729.00000
    97.5381     2809.00000
    97.5512     2770.00000
    97.5643     2768.00000
    97.5775     2763.00000
    97.5906     2912.00000
    97.6037     2985.00000
    97.6168     2920.00000
    97.6300     2972.00000
    97.6431     2909.00000
    97.6562     2973.00000
    97.6694     2937.00000
    97.6825     2887.00000
    97.6956     2838.00000
    97.7088     2793.00000
    97.7219     2858.00000
    97.7350     2836.00000
    97.7481     2728.00000
    97.7613     2721.00000
    97.7744     2679.00000
    97.7875     2602.00000
    97.8007     2713.00000
    97.8138     2632.00000
    97.8269     2575.00000
    97.8401     2641.00000
    97.8532     2696.00000
    97.8663     2653.00000
    97.8794     2564.00000
    97.8926     2539.00000
    97.9057     2622.00000
    97.9188     2481.00000
    97.9320     2604.00000
    97.9451     2598.00000
    97.9582     2677.00000
    97.9714     2627.00000
    97.9845     2702.00000
    97.9976     2726.00000
    98.0107     2760.00000
    98.0239     2771.00000
    98.0370     2853.00000
    98.0501     2877.00000
    98.0633     2934.00000
    98.0764     2867.00000
    98.0895     2938.00000
    98.1027     2991.00000
    98.1158     2982.00000
    98.1289     3105.00000
    98.1421     2987.00000
    98.1552     3043.00000
    98.1683     2968.00000
    98.1814     2986.00000
    98.1946     2959.00000
    98.2077     2906.00000
    98.2208     3060.00000
    98.2340     3036.00000
    98.2471     3254.00000
    98.2602     3143.00000
    98.2734     3250.00000
    98.2865     3211.00000
    98.2996     3278.00000
    98.3128     3427.00000
    98.3259     3467.00000
    98.3390     3513.00000
    98.3521     3540.00000
    98.3653     3633.00000
    98.3784     3751.00000
    98.3915     3828.00000
    98.4047     3866.00000
    98.4178     3826.00000
    98.4309     3915.00000
    98.4441     3735.00000
    98.4572     3733.00000
    98.4703     3484.00000
    98.4834     3437.00000
    98.4966     3312.00000
    98.5097     3281.00000
    98.5228     3275.00000
    98.5360     3102.00000
    98.5491     3143.00000
    98.5622     3087.00000
    98.5754     3023.00000
    98.5885     3164.00000
    98.6016     3223.00000
    98.6147     3243.00000
    98.6279     3294.00000
    98.6410     3318.00000
    98.6541     3328.00000
    98.6673     3432.00000
    98.6804     3469.00000
    98.6935     3572.00000
    98.7067     3704.00000
    98.7198     3933.00000
    98.7329     3865.00000
    98.7460     3884.00000
    98.7592     3960.00000
    98.7723     4196.00000
    98.7854     4152.00000
    98.7986     4359.00000
    98.8117     4179.00000
    98.8248     4345.00000
    98.8380     4344.00000
    98.8511     4189.00000
    98.8642     4216.00000
    98.8773     4216.00000
    98.8905     4118.00000
    98.9036     4149.00000
    98.9167     4219.00000
    98.9299     4216.00000
    98.9430     4190.00000
    98.9561     4417.00000
    98.9693     4466.00000
    98.9824     4592.00000
    98.9955     4595.00000
    99.0087     4493.00000
    99.0218     4440.00000
    99.0349     4382.00000
    99.0480     4265.00000
    99.0612     4017.00000
    99.0743     4027.00000
    99.0874     3789.00000
    99.1006     3563.00000
    99.1137     3556.00000
    99.1268     3448.00000
    99.1400     3532.00000
    99.1531     3540.00000
    99.1662     3335.00000
    99.1793     3449.00000
    99.1925     3399.00000
    99.2056     3350.00000
    99.2187     3377.00000
    99.2319     3261.00000
    99.2450     3442.00000
    99.2581     3379.00000
    99.2713     3404.00000
    99.2844     3431.00000
    99.2975     3440.00000
    99.3107     3345.00000
    99.3238     3525.00000
    99.3369     3417.00000
    99.3500     3343.00000
    99.3632     3364.00000
    99.3763     3197.00000
    99.3894     3157.00000
    99.4026     3141.00000
    99.4157     2889.00000
    99.4288     2875.00000
    99.4420     2781.00000
    99.4551     2729.00000
    99.4682     2722.00000
    99.4813     2762.00000
    99.4945     2741.00000
    99.5076     2676.00000
    99.5207     2761.00000
    99.5339     2664.00000
    99.5470     2731.00000
    99.5601     2734.00000
    99.5733     2783.00000
    99.5864     2702.00000
    99.5995     2779.00000
    99.6126     2799.00000
    99.6258     2783.00000
    99.6389     2801.00000
    99.6520     2925.00000
    99.6652     3162.00000
    99.6783     3065.00000
    99.6914     3273.00000
    99.7046     3443.00000
    99.7177     3501.00000
    99.7308     3461.00000
    99.7439     3416.00000
    99.7571     3359.00000
    99.7702     3281.00000
    99.7833     3237.00000
    99.7965     3118.00000
    99.8096     3153.00000
    99.8227     3086.00000
    99.8359     2961.00000
    99.8490     2945.00000
    99.8621     2895.00000
    99.8753     3038.00000
    99.8884     2789.00000
    99.9015     2746.00000
    99.9146     2772.00000
    99.9278     2821.00000
    99.9409     2782.00000
    99.9540     2660.00000
    99.9672     2761.00000
    99.9803     2809.00000
    99.9934     2817.00000
