! Initial file:   D:\ZAKARY_OUAIL\MA_THESE\Deuxième_année_de_thèse\DRX\Manips_DRX\1st_NaTaO2F2_XRK900\NaTaO2F2-Lent_300°C.xrdml
! Initial format:  58
! WAVE (A):      1.54060     1.54060     1.00000
! REM : data have been multiplied by     1.0000
! X_data : 2 Theta (deg.)                                                                                                                                                                                                                                                  
! Y_data : Intensity (arb. units)                                                                                                                                                                                                                                          
!     X         Y
!--------------------------------------------------------------------------------
    10.0116     6326.00000
    10.0247     6334.00000
    10.0379     6315.00000
    10.0510     6338.00000
    10.0641     6214.00000
    10.0772     6330.00000
    10.0904     6250.00000
    10.1035     6251.00000
    10.1166     6288.00000
    10.1298     6109.00000
    10.1429     6214.00000
    10.1560     6178.00000
    10.1692     6255.00000
    10.1823     6053.00000
    10.1954     6157.00000
    10.2086     6101.00000
    10.2217     6277.00000
    10.2348     6150.00000
    10.2479     6153.00000
    10.2611     6044.00000
    10.2742     6211.00000
    10.2873     6055.00000
    10.3005     6131.00000
    10.3136     6089.00000
    10.3267     6252.00000
    10.3399     6094.00000
    10.3530     5985.00000
    10.3661     6086.00000
    10.3792     6067.00000
    10.3924     6061.00000
    10.4055     6100.00000
    10.4186     5969.00000
    10.4318     6055.00000
    10.4449     6114.00000
    10.4580     5990.00000
    10.4712     5995.00000
    10.4843     6049.00000
    10.4974     5950.00000
    10.5105     6007.00000
    10.5237     6060.00000
    10.5368     6067.00000
    10.5499     6190.00000
    10.5631     5986.00000
    10.5762     5967.00000
    10.5893     5997.00000
    10.6025     5807.00000
    10.6156     6065.00000
    10.6287     5992.00000
    10.6418     5853.00000
    10.6550     6022.00000
    10.6681     5961.00000
    10.6812     5967.00000
    10.6944     5958.00000
    10.7075     6050.00000
    10.7206     6068.00000
    10.7338     6139.00000
    10.7469     6088.00000
    10.7600     6016.00000
    10.7732     6221.00000
    10.7863     6354.00000
    10.7994     6265.00000
    10.8125     6318.00000
    10.8257     6309.00000
    10.8388     6172.00000
    10.8519     6281.00000
    10.8651     6270.00000
    10.8782     6304.00000
    10.8913     6584.00000
    10.9045     6386.00000
    10.9176     6518.00000
    10.9307     6633.00000
    10.9438     6810.00000
    10.9570     7318.00000
    10.9701     7909.00000
    10.9832     8602.00000
    10.9964     9579.00000
    11.0095    10831.00000
    11.0226    12536.00000
    11.0358    16026.00000
    11.0489    21457.00000
    11.0620    26750.00000
    11.0751    33421.00000
    11.0883    41267.00000
    11.1014    46730.00000
    11.1145    48532.00000
    11.1277    46014.00000
    11.1408    39427.00000
    11.1539    32895.00000
    11.1671    25938.00000
    11.1802    19607.00000
    11.1933    15317.00000
    11.2065    11246.00000
    11.2196     9112.00000
    11.2327     7805.00000
    11.2458     7126.00000
    11.2590     6733.00000
    11.2721     6561.00000
    11.2852     6554.00000
    11.2984     6460.00000
    11.3115     6172.00000
    11.3246     6136.00000
    11.3378     6087.00000
    11.3509     5972.00000
    11.3640     5881.00000
    11.3771     5875.00000
    11.3903     5925.00000
    11.4034     5760.00000
    11.4165     5831.00000
    11.4297     5923.00000
    11.4428     5902.00000
    11.4559     5937.00000
    11.4691     5857.00000
    11.4822     5893.00000
    11.4953     5890.00000
    11.5084     5820.00000
    11.5216     5930.00000
    11.5347     5817.00000
    11.5478     5820.00000
    11.5610     5710.00000
    11.5741     5697.00000
    11.5872     5673.00000
    11.6004     5628.00000
    11.6135     5624.00000
    11.6266     5719.00000
    11.6398     5790.00000
    11.6529     5725.00000
    11.6660     5775.00000
    11.6791     5762.00000
    11.6923     5658.00000
    11.7054     5606.00000
    11.7185     5473.00000
    11.7317     5689.00000
    11.7448     5659.00000
    11.7579     5717.00000
    11.7711     5522.00000
    11.7842     5738.00000
    11.7973     5542.00000
    11.8104     5587.00000
    11.8236     5636.00000
    11.8367     5681.00000
    11.8498     5512.00000
    11.8630     5565.00000
    11.8761     5794.00000
    11.8892     5566.00000
    11.9024     5620.00000
    11.9155     5634.00000
    11.9286     5575.00000
    11.9417     5641.00000
    11.9549     5653.00000
    11.9680     5525.00000
    11.9811     5557.00000
    11.9943     5496.00000
    12.0074     5559.00000
    12.0205     5447.00000
    12.0337     5541.00000
    12.0468     5603.00000
    12.0599     5464.00000
    12.0731     5551.00000
    12.0862     5545.00000
    12.0993     5459.00000
    12.1124     5590.00000
    12.1256     5526.00000
    12.1387     5556.00000
    12.1518     5546.00000
    12.1650     5573.00000
    12.1781     5456.00000
    12.1912     5577.00000
    12.2044     5452.00000
    12.2175     5537.00000
    12.2306     5464.00000
    12.2437     5541.00000
    12.2569     5287.00000
    12.2700     5254.00000
    12.2831     5347.00000
    12.2963     5434.00000
    12.3094     5562.00000
    12.3225     5480.00000
    12.3357     5361.00000
    12.3488     5428.00000
    12.3619     5405.00000
    12.3750     5412.00000
    12.3882     5346.00000
    12.4013     5444.00000
    12.4144     5337.00000
    12.4276     5475.00000
    12.4407     5452.00000
    12.4538     5393.00000
    12.4670     5433.00000
    12.4801     5356.00000
    12.4932     5523.00000
    12.5063     5335.00000
    12.5195     5453.00000
    12.5326     5252.00000
    12.5457     5391.00000
    12.5589     5434.00000
    12.5720     5272.00000
    12.5851     5435.00000
    12.5983     5293.00000
    12.6114     5354.00000
    12.6245     5564.00000
    12.6377     5203.00000
    12.6508     5361.00000
    12.6639     5328.00000
    12.6770     5251.00000
    12.6902     5283.00000
    12.7033     5469.00000
    12.7164     5276.00000
    12.7296     5226.00000
    12.7427     5453.00000
    12.7558     5282.00000
    12.7690     5328.00000
    12.7821     5250.00000
    12.7952     5416.00000
    12.8083     5315.00000
    12.8215     5261.00000
    12.8346     5362.00000
    12.8477     5361.00000
    12.8609     5170.00000
    12.8740     5243.00000
    12.8871     5125.00000
    12.9003     5213.00000
    12.9134     5245.00000
    12.9265     5271.00000
    12.9396     5289.00000
    12.9528     5299.00000
    12.9659     5237.00000
    12.9790     5144.00000
    12.9922     5313.00000
    13.0053     5344.00000
    13.0184     5084.00000
    13.0316     5248.00000
    13.0447     5106.00000
    13.0578     5264.00000
    13.0710     5273.00000
    13.0841     5117.00000
    13.0972     5335.00000
    13.1103     5050.00000
    13.1235     5200.00000
    13.1366     5224.00000
    13.1497     5209.00000
    13.1629     5284.00000
    13.1760     5307.00000
    13.1891     5188.00000
    13.2023     5165.00000
    13.2154     5183.00000
    13.2285     5123.00000
    13.2416     5225.00000
    13.2548     5163.00000
    13.2679     5134.00000
    13.2810     5149.00000
    13.2942     5165.00000
    13.3073     5064.00000
    13.3204     5089.00000
    13.3336     5089.00000
    13.3467     5103.00000
    13.3598     5181.00000
    13.3729     5117.00000
    13.3861     5100.00000
    13.3992     5047.00000
    13.4123     5109.00000
    13.4255     5068.00000
    13.4386     5191.00000
    13.4517     5036.00000
    13.4649     5061.00000
    13.4780     5122.00000
    13.4911     5065.00000
    13.5043     5109.00000
    13.5174     5211.00000
    13.5305     5021.00000
    13.5436     5014.00000
    13.5568     4896.00000
    13.5699     5065.00000
    13.5830     5021.00000
    13.5962     5104.00000
    13.6093     5093.00000
    13.6224     5073.00000
    13.6356     5020.00000
    13.6487     5017.00000
    13.6618     4988.00000
    13.6749     5037.00000
    13.6881     5026.00000
    13.7012     5126.00000
    13.7143     5103.00000
    13.7275     4965.00000
    13.7406     5001.00000
    13.7537     5005.00000
    13.7669     4999.00000
    13.7800     5172.00000
    13.7931     5074.00000
    13.8062     5073.00000
    13.8194     4952.00000
    13.8325     5088.00000
    13.8456     5027.00000
    13.8588     5066.00000
    13.8719     4995.00000
    13.8850     4950.00000
    13.8982     5074.00000
    13.9113     4971.00000
    13.9244     4874.00000
    13.9376     4798.00000
    13.9507     5095.00000
    13.9638     4920.00000
    13.9769     4836.00000
    13.9901     4762.00000
    14.0032     5024.00000
    14.0163     5122.00000
    14.0295     4882.00000
    14.0426     4913.00000
    14.0557     4925.00000
    14.0689     4908.00000
    14.0820     4854.00000
    14.0951     4878.00000
    14.1082     4873.00000
    14.1214     4988.00000
    14.1345     4833.00000
    14.1476     4848.00000
    14.1608     4906.00000
    14.1739     4752.00000
    14.1870     4749.00000
    14.2002     4869.00000
    14.2133     4879.00000
    14.2264     4868.00000
    14.2395     4924.00000
    14.2527     4842.00000
    14.2658     4949.00000
    14.2789     5033.00000
    14.2921     4750.00000
    14.3052     4963.00000
    14.3183     4921.00000
    14.3315     4936.00000
    14.3446     4708.00000
    14.3577     4779.00000
    14.3708     4845.00000
    14.3840     4744.00000
    14.3971     4777.00000
    14.4102     4978.00000
    14.4234     5028.00000
    14.4365     4843.00000
    14.4496     4747.00000
    14.4628     4916.00000
    14.4759     4779.00000
    14.4890     4842.00000
    14.5022     4721.00000
    14.5153     4707.00000
    14.5284     4881.00000
    14.5415     4871.00000
    14.5547     4713.00000
    14.5678     4849.00000
    14.5809     4794.00000
    14.5941     4933.00000
    14.6072     4738.00000
    14.6203     4872.00000
    14.6335     4815.00000
    14.6466     4770.00000
    14.6597     4709.00000
    14.6728     4852.00000
    14.6860     4911.00000
    14.6991     4799.00000
    14.7122     4817.00000
    14.7254     4877.00000
    14.7385     4688.00000
    14.7516     4788.00000
    14.7648     4808.00000
    14.7779     4843.00000
    14.7910     4707.00000
    14.8041     4739.00000
    14.8173     4735.00000
    14.8304     4757.00000
    14.8435     4773.00000
    14.8567     4844.00000
    14.8698     4775.00000
    14.8829     4775.00000
    14.8961     4721.00000
    14.9092     4761.00000
    14.9223     4875.00000
    14.9355     4799.00000
    14.9486     4792.00000
    14.9617     4753.00000
    14.9748     4636.00000
    14.9880     4659.00000
    15.0011     4695.00000
    15.0142     4798.00000
    15.0274     4674.00000
    15.0405     4707.00000
    15.0536     4871.00000
    15.0668     4753.00000
    15.0799     4767.00000
    15.0930     4697.00000
    15.1061     4792.00000
    15.1193     4742.00000
    15.1324     4660.00000
    15.1455     4676.00000
    15.1587     4611.00000
    15.1718     4699.00000
    15.1849     4831.00000
    15.1981     4496.00000
    15.2112     4709.00000
    15.2243     4561.00000
    15.2374     4677.00000
    15.2506     4698.00000
    15.2637     4704.00000
    15.2768     4635.00000
    15.2900     4700.00000
    15.3031     4526.00000
    15.3162     4572.00000
    15.3294     4449.00000
    15.3425     4578.00000
    15.3556     4611.00000
    15.3688     4772.00000
    15.3819     4685.00000
    15.3950     4644.00000
    15.4081     4682.00000
    15.4213     4728.00000
    15.4344     4710.00000
    15.4475     4765.00000
    15.4607     4510.00000
    15.4738     4616.00000
    15.4869     4550.00000
    15.5001     4582.00000
    15.5132     4696.00000
    15.5263     4706.00000
    15.5394     4562.00000
    15.5526     4536.00000
    15.5657     4620.00000
    15.5788     4595.00000
    15.5920     4659.00000
    15.6051     4658.00000
    15.6182     4688.00000
    15.6314     4617.00000
    15.6445     4621.00000
    15.6576     4737.00000
    15.6707     4617.00000
    15.6839     4614.00000
    15.6970     4634.00000
    15.7101     4540.00000
    15.7233     4650.00000
    15.7364     4618.00000
    15.7495     4563.00000
    15.7627     4497.00000
    15.7758     4616.00000
    15.7889     4700.00000
    15.8021     4639.00000
    15.8152     4636.00000
    15.8283     4609.00000
    15.8414     4562.00000
    15.8546     4592.00000
    15.8677     4557.00000
    15.8808     4575.00000
    15.8940     4536.00000
    15.9071     4602.00000
    15.9202     4614.00000
    15.9334     4634.00000
    15.9465     4478.00000
    15.9596     4518.00000
    15.9727     4519.00000
    15.9859     4611.00000
    15.9990     4610.00000
    16.0121     4575.00000
    16.0253     4541.00000
    16.0384     4659.00000
    16.0515     4635.00000
    16.0647     4523.00000
    16.0778     4633.00000
    16.0909     4637.00000
    16.1040     4662.00000
    16.1172     4698.00000
    16.1303     4710.00000
    16.1434     4773.00000
    16.1566     4775.00000
    16.1697     4809.00000
    16.1828     4605.00000
    16.1960     4592.00000
    16.2091     4750.00000
    16.2222     4590.00000
    16.2353     4811.00000
    16.2485     4774.00000
    16.2616     4663.00000
    16.2747     4785.00000
    16.2879     4637.00000
    16.3010     4648.00000
    16.3141     4660.00000
    16.3273     4646.00000
    16.3404     4711.00000
    16.3535     4635.00000
    16.3667     4527.00000
    16.3798     4662.00000
    16.3929     4575.00000
    16.4060     4702.00000
    16.4192     4566.00000
    16.4323     4574.00000
    16.4454     4764.00000
    16.4586     4730.00000
    16.4717     4627.00000
    16.4848     4574.00000
    16.4980     4632.00000
    16.5111     4646.00000
    16.5242     4531.00000
    16.5373     4573.00000
    16.5505     4637.00000
    16.5636     4529.00000
    16.5767     4511.00000
    16.5899     4365.00000
    16.6030     4379.00000
    16.6161     4521.00000
    16.6293     4336.00000
    16.6424     4358.00000
    16.6555     4342.00000
    16.6686     4562.00000
    16.6818     4445.00000
    16.6949     4591.00000
    16.7080     4518.00000
    16.7212     4374.00000
    16.7343     4403.00000
    16.7474     4467.00000
    16.7606     4415.00000
    16.7737     4401.00000
    16.7868     4407.00000
    16.8000     4422.00000
    16.8131     4487.00000
    16.8262     4483.00000
    16.8393     4562.00000
    16.8525     4464.00000
    16.8656     4420.00000
    16.8787     4285.00000
    16.8919     4433.00000
    16.9050     4456.00000
    16.9181     4379.00000
    16.9313     4468.00000
    16.9444     4429.00000
    16.9575     4576.00000
    16.9706     4485.00000
    16.9838     4367.00000
    16.9969     4524.00000
    17.0100     4308.00000
    17.0232     4384.00000
    17.0363     4403.00000
    17.0494     4417.00000
    17.0626     4626.00000
    17.0757     4420.00000
    17.0888     4410.00000
    17.1019     4392.00000
    17.1151     4429.00000
    17.1282     4584.00000
    17.1413     4511.00000
    17.1545     4418.00000
    17.1676     4419.00000
    17.1807     4524.00000
    17.1939     4494.00000
    17.2070     4465.00000
    17.2201     4513.00000
    17.2333     4519.00000
    17.2464     4431.00000
    17.2595     4479.00000
    17.2726     4461.00000
    17.2858     4367.00000
    17.2989     4419.00000
    17.3120     4403.00000
    17.3252     4506.00000
    17.3383     4373.00000
    17.3514     4413.00000
    17.3646     4413.00000
    17.3777     4258.00000
    17.3908     4353.00000
    17.4039     4189.00000
    17.4171     4346.00000
    17.4302     4405.00000
    17.4433     4412.00000
    17.4565     4228.00000
    17.4696     4362.00000
    17.4827     4389.00000
    17.4959     4368.00000
    17.5090     4349.00000
    17.5221     4250.00000
    17.5352     4261.00000
    17.5484     4398.00000
    17.5615     4258.00000
    17.5746     4434.00000
    17.5878     4410.00000
    17.6009     4317.00000
    17.6140     4292.00000
    17.6272     4292.00000
    17.6403     4360.00000
    17.6534     4377.00000
    17.6666     4431.00000
    17.6797     4520.00000
    17.6928     4646.00000
    17.7059     4656.00000
    17.7191     4543.00000
    17.7322     4676.00000
    17.7453     4552.00000
    17.7585     4564.00000
    17.7716     4440.00000
    17.7847     4352.00000
    17.7979     4332.00000
    17.8110     4365.00000
    17.8241     4304.00000
    17.8372     4206.00000
    17.8504     4297.00000
    17.8635     4359.00000
    17.8766     4136.00000
    17.8898     4203.00000
    17.9029     4241.00000
    17.9160     4133.00000
    17.9292     4270.00000
    17.9423     4249.00000
    17.9554     4261.00000
    17.9685     4185.00000
    17.9817     4178.00000
    17.9948     4319.00000
    18.0079     4258.00000
    18.0211     4347.00000
    18.0342     4116.00000
    18.0473     4203.00000
    18.0605     4178.00000
    18.0736     4230.00000
    18.0867     4162.00000
    18.0998     4292.00000
    18.1130     4067.00000
    18.1261     4166.00000
    18.1392     4182.00000
    18.1524     4267.00000
    18.1655     4233.00000
    18.1786     4135.00000
    18.1918     4166.00000
    18.2049     4167.00000
    18.2180     4141.00000
    18.2312     4133.00000
    18.2443     4132.00000
    18.2574     4295.00000
    18.2705     4154.00000
    18.2837     4148.00000
    18.2968     4148.00000
    18.3099     4155.00000
    18.3231     4113.00000
    18.3362     4038.00000
    18.3493     4166.00000
    18.3625     4114.00000
    18.3756     4141.00000
    18.3887     4210.00000
    18.4018     4142.00000
    18.4150     4260.00000
    18.4281     4067.00000
    18.4412     4152.00000
    18.4544     4179.00000
    18.4675     3925.00000
    18.4806     4102.00000
    18.4938     4147.00000
    18.5069     4017.00000
    18.5200     4168.00000
    18.5331     4270.00000
    18.5463     4247.00000
    18.5594     4229.00000
    18.5725     4164.00000
    18.5857     4251.00000
    18.5988     4193.00000
    18.6119     4194.00000
    18.6251     4140.00000
    18.6382     4178.00000
    18.6513     4146.00000
    18.6645     4156.00000
    18.6776     4171.00000
    18.6907     4217.00000
    18.7038     4139.00000
    18.7170     4155.00000
    18.7301     4103.00000
    18.7432     4144.00000
    18.7564     4080.00000
    18.7695     4129.00000
    18.7826     4068.00000
    18.7958     4026.00000
    18.8089     4043.00000
    18.8220     4076.00000
    18.8351     4083.00000
    18.8483     4093.00000
    18.8614     4049.00000
    18.8745     4226.00000
    18.8877     4154.00000
    18.9008     4160.00000
    18.9139     4167.00000
    18.9271     4149.00000
    18.9402     4246.00000
    18.9533     4291.00000
    18.9664     4284.00000
    18.9796     4357.00000
    18.9927     4361.00000
    19.0058     4560.00000
    19.0190     4508.00000
    19.0321     4445.00000
    19.0452     4376.00000
    19.0584     4532.00000
    19.0715     4524.00000
    19.0846     4578.00000
    19.0978     4419.00000
    19.1109     4547.00000
    19.1240     4513.00000
    19.1371     4560.00000
    19.1503     4573.00000
    19.1634     4417.00000
    19.1765     4621.00000
    19.1897     4612.00000
    19.2028     4557.00000
    19.2159     4520.00000
    19.2291     4478.00000
    19.2422     4669.00000
    19.2553     4476.00000
    19.2684     4568.00000
    19.2816     4597.00000
    19.2947     4552.00000
    19.3078     4720.00000
    19.3210     4614.00000
    19.3341     4778.00000
    19.3472     4819.00000
    19.3604     4901.00000
    19.3735     5053.00000
    19.3866     5175.00000
    19.3997     5294.00000
    19.4129     5370.00000
    19.4260     5630.00000
    19.4391     5899.00000
    19.4523     5977.00000
    19.4654     6165.00000
    19.4785     6751.00000
    19.4917     7652.00000
    19.5048     9050.00000
    19.5179    11055.00000
    19.5311    14182.00000
    19.5442    18390.00000
    19.5573    26268.00000
    19.5704    39399.00000
    19.5836    58780.00000
    19.5967    82344.00000
    19.6098   106234.00000
    19.6230   121952.00000
    19.6361   120696.00000
    19.6492   115336.00000
    19.6624   107700.00000
    19.6755    92848.00000
    19.6886    73273.00000
    19.7017    54904.00000
    19.7149    40425.00000
    19.7280    28189.00000
    19.7411    19729.00000
    19.7543    13963.00000
    19.7674    10686.00000
    19.7805     8403.00000
    19.7937     7214.00000
    19.8068     6427.00000
    19.8199     5987.00000
    19.8330     5704.00000
    19.8462     5489.00000
    19.8593     5125.00000
    19.8724     4872.00000
    19.8856     4801.00000
    19.8987     4826.00000
    19.9118     4784.00000
    19.9250     4527.00000
    19.9381     4508.00000
    19.9512     4448.00000
    19.9643     4446.00000
    19.9775     4373.00000
    19.9906     4344.00000
    20.0037     4290.00000
    20.0169     4406.00000
    20.0300     4193.00000
    20.0431     4241.00000
    20.0563     4256.00000
    20.0694     4247.00000
    20.0825     4354.00000
    20.0957     4397.00000
    20.1088     4255.00000
    20.1219     4421.00000
    20.1350     4374.00000
    20.1482     4398.00000
    20.1613     4380.00000
    20.1744     4509.00000
    20.1876     4372.00000
    20.2007     4358.00000
    20.2138     4261.00000
    20.2270     4203.00000
    20.2401     4241.00000
    20.2532     4164.00000
    20.2663     3911.00000
    20.2795     4055.00000
    20.2926     4189.00000
    20.3057     4008.00000
    20.3189     4132.00000
    20.3320     3985.00000
    20.3451     4197.00000
    20.3583     4020.00000
    20.3714     4116.00000
    20.3845     4060.00000
    20.3976     4042.00000
    20.4108     4084.00000
    20.4239     3989.00000
    20.4370     3949.00000
    20.4502     4057.00000
    20.4633     4073.00000
    20.4764     4032.00000
    20.4896     3911.00000
    20.5027     3804.00000
    20.5158     3885.00000
    20.5290     4069.00000
    20.5421     4117.00000
    20.5552     3882.00000
    20.5683     3880.00000
    20.5815     3998.00000
    20.5946     3930.00000
    20.6077     4022.00000
    20.6209     4008.00000
    20.6340     3925.00000
    20.6471     3966.00000
    20.6603     3955.00000
    20.6734     3921.00000
    20.6865     3958.00000
    20.6996     3946.00000
    20.7128     3891.00000
    20.7259     3869.00000
    20.7390     3826.00000
    20.7522     3885.00000
    20.7653     4054.00000
    20.7784     3880.00000
    20.7916     3878.00000
    20.8047     3931.00000
    20.8178     3963.00000
    20.8309     3897.00000
    20.8441     3944.00000
    20.8572     3863.00000
    20.8703     3820.00000
    20.8835     3921.00000
    20.8966     3919.00000
    20.9097     3811.00000
    20.9229     3832.00000
    20.9360     3963.00000
    20.9491     3977.00000
    20.9623     3956.00000
    20.9754     3910.00000
    20.9885     3829.00000
    21.0016     3883.00000
    21.0148     3863.00000
    21.0279     3859.00000
    21.0410     3801.00000
    21.0542     3921.00000
    21.0673     3837.00000
    21.0804     3748.00000
    21.0936     3794.00000
    21.1067     3912.00000
    21.1198     3883.00000
    21.1329     3854.00000
    21.1461     3879.00000
    21.1592     3844.00000
    21.1723     3903.00000
    21.1855     3722.00000
    21.1986     3786.00000
    21.2117     3943.00000
    21.2249     3871.00000
    21.2380     3728.00000
    21.2511     3952.00000
    21.2642     3780.00000
    21.2774     3873.00000
    21.2905     3822.00000
    21.3036     3927.00000
    21.3168     3833.00000
    21.3299     3892.00000
    21.3430     3819.00000
    21.3562     3880.00000
    21.3693     3848.00000
    21.3824     3834.00000
    21.3956     3889.00000
    21.4087     3809.00000
    21.4218     3859.00000
    21.4349     3808.00000
    21.4481     3766.00000
    21.4612     3738.00000
    21.4743     3729.00000
    21.4875     3784.00000
    21.5006     3743.00000
    21.5137     3752.00000
    21.5269     3832.00000
    21.5400     3812.00000
    21.5531     3904.00000
    21.5662     3797.00000
    21.5794     3900.00000
    21.5925     3810.00000
    21.6056     3874.00000
    21.6188     3818.00000
    21.6319     3787.00000
    21.6450     3850.00000
    21.6582     3811.00000
    21.6713     3838.00000
    21.6844     3824.00000
    21.6975     3842.00000
    21.7107     3831.00000
    21.7238     3955.00000
    21.7369     3808.00000
    21.7501     3862.00000
    21.7632     3959.00000
    21.7763     3974.00000
    21.7895     4029.00000
    21.8026     4162.00000
    21.8157     4110.00000
    21.8288     4135.00000
    21.8420     4036.00000
    21.8551     3895.00000
    21.8682     3938.00000
    21.8814     3761.00000
    21.8945     3827.00000
    21.9076     3821.00000
    21.9208     3801.00000
    21.9339     3856.00000
    21.9470     3934.00000
    21.9602     3872.00000
    21.9733     3763.00000
    21.9864     3874.00000
    21.9995     3819.00000
    22.0127     3864.00000
    22.0258     3816.00000
    22.0389     3878.00000
    22.0521     3901.00000
    22.0652     3901.00000
    22.0783     3944.00000
    22.0915     3772.00000
    22.1046     3884.00000
    22.1177     4000.00000
    22.1308     3853.00000
    22.1440     3804.00000
    22.1571     4032.00000
    22.1702     4008.00000
    22.1834     3956.00000
    22.1965     4193.00000
    22.2096     4371.00000
    22.2228     4583.00000
    22.2359     4827.00000
    22.2490     5497.00000
    22.2621     6534.00000
    22.2753     8134.00000
    22.2884    10596.00000
    22.3015    13935.00000
    22.3147    17186.00000
    22.3278    18255.00000
    22.3409    18084.00000
    22.3541    16685.00000
    22.3672    15426.00000
    22.3803    14189.00000
    22.3935    12140.00000
    22.4066     9977.00000
    22.4197     8060.00000
    22.4328     6517.00000
    22.4460     5413.00000
    22.4591     4762.00000
    22.4722     4377.00000
    22.4854     4131.00000
    22.4985     4074.00000
    22.5116     4013.00000
    22.5248     3925.00000
    22.5379     4015.00000
    22.5510     3866.00000
    22.5641     3757.00000
    22.5773     3656.00000
    22.5904     3748.00000
    22.6035     3749.00000
    22.6167     3731.00000
    22.6298     3698.00000
    22.6429     3839.00000
    22.6561     3654.00000
    22.6692     3640.00000
    22.6823     3664.00000
    22.6954     3771.00000
    22.7086     3735.00000
    22.7217     3702.00000
    22.7348     3775.00000
    22.7480     3770.00000
    22.7611     3755.00000
    22.7742     3777.00000
    22.7874     3822.00000
    22.8005     3662.00000
    22.8136     3721.00000
    22.8268     3871.00000
    22.8399     3846.00000
    22.8530     3873.00000
    22.8661     3680.00000
    22.8793     3637.00000
    22.8924     3692.00000
    22.9055     3636.00000
    22.9187     3695.00000
    22.9318     3624.00000
    22.9449     3736.00000
    22.9581     3679.00000
    22.9712     3706.00000
    22.9843     3653.00000
    22.9974     3659.00000
    23.0106     3613.00000
    23.0237     3733.00000
    23.0368     3587.00000
    23.0500     3570.00000
    23.0631     3633.00000
    23.0762     3641.00000
    23.0894     3661.00000
    23.1025     3669.00000
    23.1156     3646.00000
    23.1287     3605.00000
    23.1419     3594.00000
    23.1550     3716.00000
    23.1681     3601.00000
    23.1813     3735.00000
    23.1944     3615.00000
    23.2075     3476.00000
    23.2207     3548.00000
    23.2338     3620.00000
    23.2469     3601.00000
    23.2601     3748.00000
    23.2732     3717.00000
    23.2863     3673.00000
    23.2994     3645.00000
    23.3126     3598.00000
    23.3257     3670.00000
    23.3388     3625.00000
    23.3520     3615.00000
    23.3651     3603.00000
    23.3782     3654.00000
    23.3914     3763.00000
    23.4045     3735.00000
    23.4176     3716.00000
    23.4307     3747.00000
    23.4439     3753.00000
    23.4570     3668.00000
    23.4701     3698.00000
    23.4833     3845.00000
    23.4964     3779.00000
    23.5095     3947.00000
    23.5227     3839.00000
    23.5358     3912.00000
    23.5489     3874.00000
    23.5620     3818.00000
    23.5752     3828.00000
    23.5883     3795.00000
    23.6014     3925.00000
    23.6146     3908.00000
    23.6277     3828.00000
    23.6408     3804.00000
    23.6540     4017.00000
    23.6671     3844.00000
    23.6802     3916.00000
    23.6933     3853.00000
    23.7065     3950.00000
    23.7196     3986.00000
    23.7327     3930.00000
    23.7459     3874.00000
    23.7590     3895.00000
    23.7721     4026.00000
    23.7853     3994.00000
    23.7984     3942.00000
    23.8115     3864.00000
    23.8247     3892.00000
    23.8378     3875.00000
    23.8509     3946.00000
    23.8640     3912.00000
    23.8772     4109.00000
    23.8903     4124.00000
    23.9034     4026.00000
    23.9166     4271.00000
    23.9297     4215.00000
    23.9428     4371.00000
    23.9560     4283.00000
    23.9691     4388.00000
    23.9822     4422.00000
    23.9953     4554.00000
    24.0085     4644.00000
    24.0216     4652.00000
    24.0347     4901.00000
    24.0479     5172.00000
    24.0610     5490.00000
    24.0741     5883.00000
    24.0873     6810.00000
    24.1004     8164.00000
    24.1135    10905.00000
    24.1266    15689.00000
    24.1398    22620.00000
    24.1529    30808.00000
    24.1660    38438.00000
    24.1792    43391.00000
    24.1923    44727.00000
    24.2054    42317.00000
    24.2186    39494.00000
    24.2317    35965.00000
    24.2448    33055.00000
    24.2580    29134.00000
    24.2711    26147.00000
    24.2842    25662.00000
    24.2973    29726.00000
    24.3105    35427.00000
    24.3236    40490.00000
    24.3367    43936.00000
    24.3499    48497.00000
    24.3630    48010.00000
    24.3761    43950.00000
    24.3893    39510.00000
    24.4024    35931.00000
    24.4155    31344.00000
    24.4286    25003.00000
    24.4418    18749.00000
    24.4549    14530.00000
    24.4680    11259.00000
    24.4812     8492.00000
    24.4943     6716.00000
    24.5074     5663.00000
    24.5206     4994.00000
    24.5337     4780.00000
    24.5468     4462.00000
    24.5599     4371.00000
    24.5731     4334.00000
    24.5862     4117.00000
    24.5993     4134.00000
    24.6125     3923.00000
    24.6256     3997.00000
    24.6387     3904.00000
    24.6519     3891.00000
    24.6650     3770.00000
    24.6781     3909.00000
    24.6913     3854.00000
    24.7044     3768.00000
    24.7175     3732.00000
    24.7306     3701.00000
    24.7438     3779.00000
    24.7569     3721.00000
    24.7700     3732.00000
    24.7832     3702.00000
    24.7963     3727.00000
    24.8094     3797.00000
    24.8226     3616.00000
    24.8357     3697.00000
    24.8488     3647.00000
    24.8619     3663.00000
    24.8751     3734.00000
    24.8882     3775.00000
    24.9013     3708.00000
    24.9145     3753.00000
    24.9276     3808.00000
    24.9407     3903.00000
    24.9539     3913.00000
    24.9670     3912.00000
    24.9801     3946.00000
    24.9932     3788.00000
    25.0064     3858.00000
    25.0195     3717.00000
    25.0326     3655.00000
    25.0458     3643.00000
    25.0589     3618.00000
    25.0720     3656.00000
    25.0852     3551.00000
    25.0983     3467.00000
    25.1114     3546.00000
    25.1246     3608.00000
    25.1377     3635.00000
    25.1508     3583.00000
    25.1639     3684.00000
    25.1771     3556.00000
    25.1902     3616.00000
    25.2033     3626.00000
    25.2165     3578.00000
    25.2296     3618.00000
    25.2427     3593.00000
    25.2559     3710.00000
    25.2690     3568.00000
    25.2821     3573.00000
    25.2952     3638.00000
    25.3084     3596.00000
    25.3215     3503.00000
    25.3346     3559.00000
    25.3478     3549.00000
    25.3609     3632.00000
    25.3740     3618.00000
    25.3872     3512.00000
    25.4003     3621.00000
    25.4134     3600.00000
    25.4265     3617.00000
    25.4397     3540.00000
    25.4528     3592.00000
    25.4659     3501.00000
    25.4791     3682.00000
    25.4922     3687.00000
    25.5053     3573.00000
    25.5185     3469.00000
    25.5316     3525.00000
    25.5447     3585.00000
    25.5579     3470.00000
    25.5710     3465.00000
    25.5841     3599.00000
    25.5972     3491.00000
    25.6104     3559.00000
    25.6235     3466.00000
    25.6366     3431.00000
    25.6498     3476.00000
    25.6629     3440.00000
    25.6760     3519.00000
    25.6892     3566.00000
    25.7023     3544.00000
    25.7154     3569.00000
    25.7285     3455.00000
    25.7417     3446.00000
    25.7548     3380.00000
    25.7679     3554.00000
    25.7811     3493.00000
    25.7942     3372.00000
    25.8073     3570.00000
    25.8205     3320.00000
    25.8336     3461.00000
    25.8467     3463.00000
    25.8598     3477.00000
    25.8730     3477.00000
    25.8861     3539.00000
    25.8992     3450.00000
    25.9124     3442.00000
    25.9255     3453.00000
    25.9386     3517.00000
    25.9518     3472.00000
    25.9649     3488.00000
    25.9780     3538.00000
    25.9911     3517.00000
    26.0043     3451.00000
    26.0174     3557.00000
    26.0305     3487.00000
    26.0437     3541.00000
    26.0568     3562.00000
    26.0699     3507.00000
    26.0831     3513.00000
    26.0962     3560.00000
    26.1093     3701.00000
    26.1225     3678.00000
    26.1356     3665.00000
    26.1487     3566.00000
    26.1618     3694.00000
    26.1750     3630.00000
    26.1881     3633.00000
    26.2012     3569.00000
    26.2144     3617.00000
    26.2275     3558.00000
    26.2406     3574.00000
    26.2538     3746.00000
    26.2669     3576.00000
    26.2800     3618.00000
    26.2931     3557.00000
    26.3063     3548.00000
    26.3194     3600.00000
    26.3325     3604.00000
    26.3457     3545.00000
    26.3588     3581.00000
    26.3719     3462.00000
    26.3851     3588.00000
    26.3982     3416.00000
    26.4113     3473.00000
    26.4244     3427.00000
    26.4376     3422.00000
    26.4507     3446.00000
    26.4638     3442.00000
    26.4770     3470.00000
    26.4901     3444.00000
    26.5032     3484.00000
    26.5164     3501.00000
    26.5295     3466.00000
    26.5426     3415.00000
    26.5558     3393.00000
    26.5689     3397.00000
    26.5820     3519.00000
    26.5951     3422.00000
    26.6083     3467.00000
    26.6214     3476.00000
    26.6345     3375.00000
    26.6477     3482.00000
    26.6608     3529.00000
    26.6739     3469.00000
    26.6871     3483.00000
    26.7002     3568.00000
    26.7133     3560.00000
    26.7264     3592.00000
    26.7396     3624.00000
    26.7527     3501.00000
    26.7658     3633.00000
    26.7790     3543.00000
    26.7921     3616.00000
    26.8052     3724.00000
    26.8184     3558.00000
    26.8315     3668.00000
    26.8446     3708.00000
    26.8577     3569.00000
    26.8709     3610.00000
    26.8840     3620.00000
    26.8971     3683.00000
    26.9103     3735.00000
    26.9234     3638.00000
    26.9365     3671.00000
    26.9497     3597.00000
    26.9628     3619.00000
    26.9759     3794.00000
    26.9891     3718.00000
    27.0022     3624.00000
    27.0153     3692.00000
    27.0284     3735.00000
    27.0416     3559.00000
    27.0547     3705.00000
    27.0678     3515.00000
    27.0810     3630.00000
    27.0941     3571.00000
    27.1072     3650.00000
    27.1204     3589.00000
    27.1335     3582.00000
    27.1466     3623.00000
    27.1597     3667.00000
    27.1729     3723.00000
    27.1860     3627.00000
    27.1991     3643.00000
    27.2123     3675.00000
    27.2254     3735.00000
    27.2385     3825.00000
    27.2517     3724.00000
    27.2648     3828.00000
    27.2779     3721.00000
    27.2910     3787.00000
    27.3042     3816.00000
    27.3173     3786.00000
    27.3304     3759.00000
    27.3436     3780.00000
    27.3567     3869.00000
    27.3698     4018.00000
    27.3830     4031.00000
    27.3961     4075.00000
    27.4092     4239.00000
    27.4224     4397.00000
    27.4355     4491.00000
    27.4486     4684.00000
    27.4617     4727.00000
    27.4749     5025.00000
    27.4880     5431.00000
    27.5011     5672.00000
    27.5143     6014.00000
    27.5274     6646.00000
    27.5405     7029.00000
    27.5537     8170.00000
    27.5668     9415.00000
    27.5799    11976.00000
    27.5930    16234.00000
    27.6062    23883.00000
    27.6193    35949.00000
    27.6324    52613.00000
    27.6456    70653.00000
    27.6587    82191.00000
    27.6718    83145.00000
    27.6850    77279.00000
    27.6981    70398.00000
    27.7112    66445.00000
    27.7243    61601.00000
    27.7375    53608.00000
    27.7506    44126.00000
    27.7637    34493.00000
    27.7769    26200.00000
    27.7900    19197.00000
    27.8031    14098.00000
    27.8163    10069.00000
    27.8294     8035.00000
    27.8425     6730.00000
    27.8556     6101.00000
    27.8688     5427.00000
    27.8819     5044.00000
    27.8950     4745.00000
    27.9082     4627.00000
    27.9213     4382.00000
    27.9344     4285.00000
    27.9476     3963.00000
    27.9607     3919.00000
    27.9738     3954.00000
    27.9870     3896.00000
    28.0001     3848.00000
    28.0132     3887.00000
    28.0263     3657.00000
    28.0395     3776.00000
    28.0526     3718.00000
    28.0657     3701.00000
    28.0789     3572.00000
    28.0920     3706.00000
    28.1051     3583.00000
    28.1183     3653.00000
    28.1314     3661.00000
    28.1445     3675.00000
    28.1576     3704.00000
    28.1708     3733.00000
    28.1839     3804.00000
    28.1970     3911.00000
    28.2102     3978.00000
    28.2233     3776.00000
    28.2364     3809.00000
    28.2496     3850.00000
    28.2627     3800.00000
    28.2758     3701.00000
    28.2889     3756.00000
    28.3021     3772.00000
    28.3152     3800.00000
    28.3283     3729.00000
    28.3415     3579.00000
    28.3546     3554.00000
    28.3677     3636.00000
    28.3809     3686.00000
    28.3940     3730.00000
    28.4071     3702.00000
    28.4203     3549.00000
    28.4334     3581.00000
    28.4465     3568.00000
    28.4596     3468.00000
    28.4728     3494.00000
    28.4859     3637.00000
    28.4990     3613.00000
    28.5122     3612.00000
    28.5253     3520.00000
    28.5384     3548.00000
    28.5516     3544.00000
    28.5647     3548.00000
    28.5778     3599.00000
    28.5909     3550.00000
    28.6041     3506.00000
    28.6172     3637.00000
    28.6303     3554.00000
    28.6435     3554.00000
    28.6566     3607.00000
    28.6697     3511.00000
    28.6829     3506.00000
    28.6960     3456.00000
    28.7091     3520.00000
    28.7222     3464.00000
    28.7354     3404.00000
    28.7485     3495.00000
    28.7616     3528.00000
    28.7748     3551.00000
    28.7879     3642.00000
    28.8010     3475.00000
    28.8142     3596.00000
    28.8273     3604.00000
    28.8404     3641.00000
    28.8536     3679.00000
    28.8667     3529.00000
    28.8798     3593.00000
    28.8929     3523.00000
    28.9061     3707.00000
    28.9192     3533.00000
    28.9323     3676.00000
    28.9455     3647.00000
    28.9586     3712.00000
    28.9717     3764.00000
    28.9849     3777.00000
    28.9980     3938.00000
    29.0111     3936.00000
    29.0242     4176.00000
    29.0374     4118.00000
    29.0505     4289.00000
    29.0636     4351.00000
    29.0768     4662.00000
    29.0899     4681.00000
    29.1030     5046.00000
    29.1162     5804.00000
    29.1293     6668.00000
    29.1424     8616.00000
    29.1555    12061.00000
    29.1687    17558.00000
    29.1818    24338.00000
    29.1949    29736.00000
    29.2081    32284.00000
    29.2212    31386.00000
    29.2343    28020.00000
    29.2475    26201.00000
    29.2606    25938.00000
    29.2737    25188.00000
    29.2869    24485.00000
    29.3000    23847.00000
    29.3131    22692.00000
    29.3262    22677.00000
    29.3394    23025.00000
    29.3525    22736.00000
    29.3656    20838.00000
    29.3788    18170.00000
    29.3919    15856.00000
    29.4050    14295.00000
    29.4182    13229.00000
    29.4313    12023.00000
    29.4444    10371.00000
    29.4575     8739.00000
    29.4707     7049.00000
    29.4838     5693.00000
    29.4969     4652.00000
    29.5101     4261.00000
    29.5232     4136.00000
    29.5363     3901.00000
    29.5495     3730.00000
    29.5626     3747.00000
    29.5757     3760.00000
    29.5888     3521.00000
    29.6020     3680.00000
    29.6151     3629.00000
    29.6282     3518.00000
    29.6414     3472.00000
    29.6545     3438.00000
    29.6676     3464.00000
    29.6808     3468.00000
    29.6939     3469.00000
    29.7070     3373.00000
    29.7201     3392.00000
    29.7333     3394.00000
    29.7464     3344.00000
    29.7595     3310.00000
    29.7727     3203.00000
    29.7858     3353.00000
    29.7989     3435.00000
    29.8121     3425.00000
    29.8252     3355.00000
    29.8383     3389.00000
    29.8515     3417.00000
    29.8646     3374.00000
    29.8777     3385.00000
    29.8908     3375.00000
    29.9040     3341.00000
    29.9171     3375.00000
    29.9302     3451.00000
    29.9434     3428.00000
    29.9565     3415.00000
    29.9696     3416.00000
    29.9828     3349.00000
    29.9959     3432.00000
    30.0090     3364.00000
    30.0221     3313.00000
    30.0353     3292.00000
    30.0484     3249.00000
    30.0615     3279.00000
    30.0747     3369.00000
    30.0878     3301.00000
    30.1009     3292.00000
    30.1141     3195.00000
    30.1272     3345.00000
    30.1403     3176.00000
    30.1535     3329.00000
    30.1666     3209.00000
    30.1797     3299.00000
    30.1928     3382.00000
    30.2060     3387.00000
    30.2191     3398.00000
    30.2322     3319.00000
    30.2454     3433.00000
    30.2585     3331.00000
    30.2716     3392.00000
    30.2848     3428.00000
    30.2979     3383.00000
    30.3110     3306.00000
    30.3241     3326.00000
    30.3373     3258.00000
    30.3504     3242.00000
    30.3635     3190.00000
    30.3767     3222.00000
    30.3898     3341.00000
    30.4029     3130.00000
    30.4161     3243.00000
    30.4292     3201.00000
    30.4423     3214.00000
    30.4554     3221.00000
    30.4686     3152.00000
    30.4817     3240.00000
    30.4948     3200.00000
    30.5080     3127.00000
    30.5211     3196.00000
    30.5342     3159.00000
    30.5474     3090.00000
    30.5605     3155.00000
    30.5736     3204.00000
    30.5868     3202.00000
    30.5999     3234.00000
    30.6130     3160.00000
    30.6261     3232.00000
    30.6393     3244.00000
    30.6524     3231.00000
    30.6655     3197.00000
    30.6787     3160.00000
    30.6918     3236.00000
    30.7049     3199.00000
    30.7181     3233.00000
    30.7312     3265.00000
    30.7443     3188.00000
    30.7574     3186.00000
    30.7706     3141.00000
    30.7837     3171.00000
    30.7968     3220.00000
    30.8100     3164.00000
    30.8231     3232.00000
    30.8362     3186.00000
    30.8494     3238.00000
    30.8625     3184.00000
    30.8756     3188.00000
    30.8887     3042.00000
    30.9019     3157.00000
    30.9150     3216.00000
    30.9281     3092.00000
    30.9413     3102.00000
    30.9544     3101.00000
    30.9675     3156.00000
    30.9807     3164.00000
    30.9938     3177.00000
    31.0069     3082.00000
    31.0200     3135.00000
    31.0332     3185.00000
    31.0463     3157.00000
    31.0594     3090.00000
    31.0726     3217.00000
    31.0857     3280.00000
    31.0988     3228.00000
    31.1120     3128.00000
    31.1251     3226.00000
    31.1382     3176.00000
    31.1514     3142.00000
    31.1645     3122.00000
    31.1776     3068.00000
    31.1907     3220.00000
    31.2039     3100.00000
    31.2170     3195.00000
    31.2301     3119.00000
    31.2433     3149.00000
    31.2564     3107.00000
    31.2695     3106.00000
    31.2827     3047.00000
    31.2958     3088.00000
    31.3089     3046.00000
    31.3220     3157.00000
    31.3352     3092.00000
    31.3483     3233.00000
    31.3614     3186.00000
    31.3746     3157.00000
    31.3877     3199.00000
    31.4008     3143.00000
    31.4140     3245.00000
    31.4271     3170.00000
    31.4402     3053.00000
    31.4533     3114.00000
    31.4665     3202.00000
    31.4796     2984.00000
    31.4927     3092.00000
    31.5059     3125.00000
    31.5190     3110.00000
    31.5321     3064.00000
    31.5453     3088.00000
    31.5584     3122.00000
    31.5715     3106.00000
    31.5847     3071.00000
    31.5978     3109.00000
    31.6109     3165.00000
    31.6240     3117.00000
    31.6372     3094.00000
    31.6503     3053.00000
    31.6634     3174.00000
    31.6766     3188.00000
    31.6897     3151.00000
    31.7028     3083.00000
    31.7160     3175.00000
    31.7291     3193.00000
    31.7422     3132.00000
    31.7553     3104.00000
    31.7685     3084.00000
    31.7816     3128.00000
    31.7947     3142.00000
    31.8079     3146.00000
    31.8210     3143.00000
    31.8341     3073.00000
    31.8473     3110.00000
    31.8604     3101.00000
    31.8735     3167.00000
    31.8866     3027.00000
    31.8998     3143.00000
    31.9129     2993.00000
    31.9260     3013.00000
    31.9392     3147.00000
    31.9523     3068.00000
    31.9654     3194.00000
    31.9786     3154.00000
    31.9917     3194.00000
    32.0048     3136.00000
    32.0180     3177.00000
    32.0311     3164.00000
    32.0442     3113.00000
    32.0573     3107.00000
    32.0705     3165.00000
    32.0836     3059.00000
    32.0967     3151.00000
    32.1099     3114.00000
    32.1230     3120.00000
    32.1361     3259.00000
    32.1493     3039.00000
    32.1624     3178.00000
    32.1755     3256.00000
    32.1886     3197.00000
    32.2018     3155.00000
    32.2149     3204.00000
    32.2280     3298.00000
    32.2412     3148.00000
    32.2543     3247.00000
    32.2674     3205.00000
    32.2806     3251.00000
    32.2937     3194.00000
    32.3068     3257.00000
    32.3199     3312.00000
    32.3331     3267.00000
    32.3462     3359.00000
    32.3593     3345.00000
    32.3725     3451.00000
    32.3856     3347.00000
    32.3987     3499.00000
    32.4119     3592.00000
    32.4250     3689.00000
    32.4381     3632.00000
    32.4512     3731.00000
    32.4644     3709.00000
    32.4775     3925.00000
    32.4906     4042.00000
    32.5038     4320.00000
    32.5169     5009.00000
    32.5300     6123.00000
    32.5432     8271.00000
    32.5563    12283.00000
    32.5694    17431.00000
    32.5826    20990.00000
    32.5957    20171.00000
    32.6088    17028.00000
    32.6219    13924.00000
    32.6351    12592.00000
    32.6482    12903.00000
    32.6613    13413.00000
    32.6745    13153.00000
    32.6876    11004.00000
    32.7007     8920.00000
    32.7139     7017.00000
    32.7270     5896.00000
    32.7401     5102.00000
    32.7532     4429.00000
    32.7664     4142.00000
    32.7795     3912.00000
    32.7926     3684.00000
    32.8058     3613.00000
    32.8189     3528.00000
    32.8320     3505.00000
    32.8452     3414.00000
    32.8583     3375.00000
    32.8714     3495.00000
    32.8845     3477.00000
    32.8977     3530.00000
    32.9108     3564.00000
    32.9239     3383.00000
    32.9371     3428.00000
    32.9502     3561.00000
    32.9633     3609.00000
    32.9765     3641.00000
    32.9896     3764.00000
    33.0027     3740.00000
    33.0159     3836.00000
    33.0290     3928.00000
    33.0421     3967.00000
    33.0552     4093.00000
    33.0684     4351.00000
    33.0815     4368.00000
    33.0946     4575.00000
    33.1078     4798.00000
    33.1209     5164.00000
    33.1340     5893.00000
    33.1472     7105.00000
    33.1603     9385.00000
    33.1734    13434.00000
    33.1865    19748.00000
    33.1997    26983.00000
    33.2128    32987.00000
    33.2259    35783.00000
    33.2391    33562.00000
    33.2522    29028.00000
    33.2653    24947.00000
    33.2785    22767.00000
    33.2916    22119.00000
    33.3047    21841.00000
    33.3178    20567.00000
    33.3310    17237.00000
    33.3441    14047.00000
    33.3572    10765.00000
    33.3704     8285.00000
    33.3835     6643.00000
    33.3966     5927.00000
    33.4098     5427.00000
    33.4229     5341.00000
    33.4360     5209.00000
    33.4492     5212.00000
    33.4623     5288.00000
    33.4754     5592.00000
    33.4885     6115.00000
    33.5017     6969.00000
    33.5148     8496.00000
    33.5279    11356.00000
    33.5411    15161.00000
    33.5542    19742.00000
    33.5673    24221.00000
    33.5805    27878.00000
    33.5936    29960.00000
    33.6067    29679.00000
    33.6198    26663.00000
    33.6330    23861.00000
    33.6461    21518.00000
    33.6592    20035.00000
    33.6724    19380.00000
    33.6855    18377.00000
    33.6986    16917.00000
    33.7118    15135.00000
    33.7249    14489.00000
    33.7380    15277.00000
    33.7511    16584.00000
    33.7643    17289.00000
    33.7774    16277.00000
    33.7905    13864.00000
    33.8037    11115.00000
    33.8168    10299.00000
    33.8299     9636.00000
    33.8431    10160.00000
    33.8562    10017.00000
    33.8693     9224.00000
    33.8825     7583.00000
    33.8956     6016.00000
    33.9087     4986.00000
    33.9218     4272.00000
    33.9350     3990.00000
    33.9481     3811.00000
    33.9612     3672.00000
    33.9744     3405.00000
    33.9875     3570.00000
    34.0006     3376.00000
    34.0138     3383.00000
    34.0269     3276.00000
    34.0400     3374.00000
    34.0531     3332.00000
    34.0663     3283.00000
    34.0794     3215.00000
    34.0925     3263.00000
    34.1057     3205.00000
    34.1188     3227.00000
    34.1319     3150.00000
    34.1451     3274.00000
    34.1582     3173.00000
    34.1713     3290.00000
    34.1844     3274.00000
    34.1976     3177.00000
    34.2107     3270.00000
    34.2238     3098.00000
    34.2370     3244.00000
    34.2501     3197.00000
    34.2632     3216.00000
    34.2764     3206.00000
    34.2895     3296.00000
    34.3026     3404.00000
    34.3158     3299.00000
    34.3289     3370.00000
    34.3420     3367.00000
    34.3551     3381.00000
    34.3683     3311.00000
    34.3814     3335.00000
    34.3945     3474.00000
    34.4077     3500.00000
    34.4208     3604.00000
    34.4339     3750.00000
    34.4471     4093.00000
    34.4602     4382.00000
    34.4733     5465.00000
    34.4864     6964.00000
    34.4996     9319.00000
    34.5127    12439.00000
    34.5258    14106.00000
    34.5390    13738.00000
    34.5521    12277.00000
    34.5652    10598.00000
    34.5784     9585.00000
    34.5915     9138.00000
    34.6046     9332.00000
    34.6177     9384.00000
    34.6309     8504.00000
    34.6440     7507.00000
    34.6571     6441.00000
    34.6703     5313.00000
    34.6834     4532.00000
    34.6965     4050.00000
    34.7097     3786.00000
    34.7228     3466.00000
    34.7359     3466.00000
    34.7491     3219.00000
    34.7622     3180.00000
    34.7753     3101.00000
    34.7884     3330.00000
    34.8016     3357.00000
    34.8147     3392.00000
    34.8278     3524.00000
    34.8410     3491.00000
    34.8541     3487.00000
    34.8672     3472.00000
    34.8804     3349.00000
    34.8935     3309.00000
    34.9066     3300.00000
    34.9197     3225.00000
    34.9329     3312.00000
    34.9460     3309.00000
    34.9591     3258.00000
    34.9723     3294.00000
    34.9854     3152.00000
    34.9985     2979.00000
    35.0117     3090.00000
    35.0248     2965.00000
    35.0379     3018.00000
    35.0510     2995.00000
    35.0642     3079.00000
    35.0773     2992.00000
    35.0904     2949.00000
    35.1036     2967.00000
    35.1167     2952.00000
    35.1298     2969.00000
    35.1430     2921.00000
    35.1561     2871.00000
    35.1692     3042.00000
    35.1824     2919.00000
    35.1955     2982.00000
    35.2086     2975.00000
    35.2217     2870.00000
    35.2349     2933.00000
    35.2480     2939.00000
    35.2611     2901.00000
    35.2743     2917.00000
    35.2874     2981.00000
    35.3005     2905.00000
    35.3137     3005.00000
    35.3268     2935.00000
    35.3399     2995.00000
    35.3530     2930.00000
    35.3662     2963.00000
    35.3793     2889.00000
    35.3924     2937.00000
    35.4056     2961.00000
    35.4187     3004.00000
    35.4318     3025.00000
    35.4450     3032.00000
    35.4581     2933.00000
    35.4712     2903.00000
    35.4843     2975.00000
    35.4975     2918.00000
    35.5106     2925.00000
    35.5237     2931.00000
    35.5369     3022.00000
    35.5500     2912.00000
    35.5631     2922.00000
    35.5763     2977.00000
    35.5894     2993.00000
    35.6025     2899.00000
    35.6156     3000.00000
    35.6288     2976.00000
    35.6419     2984.00000
    35.6550     2986.00000
    35.6682     2989.00000
    35.6813     2934.00000
    35.6944     2802.00000
    35.7076     2946.00000
    35.7207     3008.00000
    35.7338     2959.00000
    35.7470     2824.00000
    35.7601     2900.00000
    35.7732     2948.00000
    35.7863     2914.00000
    35.7995     2949.00000
    35.8126     2986.00000
    35.8257     2918.00000
    35.8389     2917.00000
    35.8520     2930.00000
    35.8651     3050.00000
    35.8783     3042.00000
    35.8914     2984.00000
    35.9045     2937.00000
    35.9176     3043.00000
    35.9308     2921.00000
    35.9439     2973.00000
    35.9570     2901.00000
    35.9702     3006.00000
    35.9833     2925.00000
    35.9964     2983.00000
    36.0096     2927.00000
    36.0227     2898.00000
    36.0358     2989.00000
    36.0489     2983.00000
    36.0621     2978.00000
    36.0752     2981.00000
    36.0883     2955.00000
    36.1015     2990.00000
    36.1146     2829.00000
    36.1277     2971.00000
    36.1409     3012.00000
    36.1540     2993.00000
    36.1671     2976.00000
    36.1802     2838.00000
    36.1934     2922.00000
    36.2065     2903.00000
    36.2196     2918.00000
    36.2328     2995.00000
    36.2459     3027.00000
    36.2590     3008.00000
    36.2722     2920.00000
    36.2853     3017.00000
    36.2984     3010.00000
    36.3116     2967.00000
    36.3247     2818.00000
    36.3378     2834.00000
    36.3509     2971.00000
    36.3641     2889.00000
    36.3772     2936.00000
    36.3903     3003.00000
    36.4035     2852.00000
    36.4166     2907.00000
    36.4297     2950.00000
    36.4429     3084.00000
    36.4560     2992.00000
    36.4691     3040.00000
    36.4822     3127.00000
    36.4954     3132.00000
    36.5085     3207.00000
    36.5216     3119.00000
    36.5348     3103.00000
    36.5479     3234.00000
    36.5610     3134.00000
    36.5742     3305.00000
    36.5873     3474.00000
    36.6004     3838.00000
    36.6135     4435.00000
    36.6267     5417.00000
    36.6398     6777.00000
    36.6529     8356.00000
    36.6661     9074.00000
    36.6792     9018.00000
    36.6923     8359.00000
    36.7055     6956.00000
    36.7186     6108.00000
    36.7317     5874.00000
    36.7449     6237.00000
    36.7580     6243.00000
    36.7711     6158.00000
    36.7842     5743.00000
    36.7974     4958.00000
    36.8105     4212.00000
    36.8236     3679.00000
    36.8368     3390.00000
    36.8499     3387.00000
    36.8630     3190.00000
    36.8762     3121.00000
    36.8893     3002.00000
    36.9024     3139.00000
    36.9155     3119.00000
    36.9287     3061.00000
    36.9418     3024.00000
    36.9549     3087.00000
    36.9681     2980.00000
    36.9812     3035.00000
    36.9943     3080.00000
    37.0075     3045.00000
    37.0206     3072.00000
    37.0337     3157.00000
    37.0468     3192.00000
    37.0600     3078.00000
    37.0731     3147.00000
    37.0862     3280.00000
    37.0994     3251.00000
    37.1125     3291.00000
    37.1256     3531.00000
    37.1388     3769.00000
    37.1519     4216.00000
    37.1650     4921.00000
    37.1782     6191.00000
    37.1913     7673.00000
    37.2044     9150.00000
    37.2175     9910.00000
    37.2307    10295.00000
    37.2438     9539.00000
    37.2569     8475.00000
    37.2701     7624.00000
    37.2832     7015.00000
    37.2963     6785.00000
    37.3095     6711.00000
    37.3226     6763.00000
    37.3357     6353.00000
    37.3488     5728.00000
    37.3620     5009.00000
    37.3751     4385.00000
    37.3882     3799.00000
    37.4014     3511.00000
    37.4145     3319.00000
    37.4276     3201.00000
    37.4408     3133.00000
    37.4539     3136.00000
    37.4670     3115.00000
    37.4801     3329.00000
    37.4933     3317.00000
    37.5064     3434.00000
    37.5195     3670.00000
    37.5327     3658.00000
    37.5458     3479.00000
    37.5589     3411.00000
    37.5721     3230.00000
    37.5852     3190.00000
    37.5983     3200.00000
    37.6115     3358.00000
    37.6246     3400.00000
    37.6377     3207.00000
    37.6508     3264.00000
    37.6640     3164.00000
    37.6771     2964.00000
    37.6902     2922.00000
    37.7034     2956.00000
    37.7165     2947.00000
    37.7296     2978.00000
    37.7428     2822.00000
    37.7559     2901.00000
    37.7690     2892.00000
    37.7821     2872.00000
    37.7953     2841.00000
    37.8084     2871.00000
    37.8215     2846.00000
    37.8347     2870.00000
    37.8478     2847.00000
    37.8609     2882.00000
    37.8741     2677.00000
    37.8872     2868.00000
    37.9003     2811.00000
    37.9134     2810.00000
    37.9266     2785.00000
    37.9397     2787.00000
    37.9528     2847.00000
    37.9660     2760.00000
    37.9791     2831.00000
    37.9922     2843.00000
    38.0054     2643.00000
    38.0185     2693.00000
    38.0316     2834.00000
    38.0448     2705.00000
    38.0579     2801.00000
    38.0710     2919.00000
    38.0841     2753.00000
    38.0973     2851.00000
    38.1104     2785.00000
    38.1235     2748.00000
    38.1367     2723.00000
    38.1498     2764.00000
    38.1629     2730.00000
    38.1761     2805.00000
    38.1892     2903.00000
    38.2023     2737.00000
    38.2154     2644.00000
    38.2286     2781.00000
    38.2417     2669.00000
    38.2548     2888.00000
    38.2680     2802.00000
    38.2811     2815.00000
    38.2942     2720.00000
    38.3074     2706.00000
    38.3205     2759.00000
    38.3336     2690.00000
    38.3467     2725.00000
    38.3599     2754.00000
    38.3730     2742.00000
    38.3861     2797.00000
    38.3993     2656.00000
    38.4124     2779.00000
    38.4255     2833.00000
    38.4387     2777.00000
    38.4518     2773.00000
    38.4649     2811.00000
    38.4781     2769.00000
    38.4912     2951.00000
    38.5043     2781.00000
    38.5174     2798.00000
    38.5306     2663.00000
    38.5437     2776.00000
    38.5568     2780.00000
    38.5700     2745.00000
    38.5831     2716.00000
    38.5962     2772.00000
    38.6094     2790.00000
    38.6225     2675.00000
    38.6356     2881.00000
    38.6487     2785.00000
    38.6619     2700.00000
    38.6750     2898.00000
    38.6881     2816.00000
    38.7013     2771.00000
    38.7144     2720.00000
    38.7275     2813.00000
    38.7407     2760.00000
    38.7538     2709.00000
    38.7669     2772.00000
    38.7800     2738.00000
    38.7932     2717.00000
    38.8063     2759.00000
    38.8194     2859.00000
    38.8326     2727.00000
    38.8457     2819.00000
    38.8588     2722.00000
    38.8720     2739.00000
    38.8851     2791.00000
    38.8982     2802.00000
    38.9114     2700.00000
    38.9245     2701.00000
    38.9376     2703.00000
    38.9507     2753.00000
    38.9639     2879.00000
    38.9770     2726.00000
    38.9901     2775.00000
    39.0033     2841.00000
    39.0164     2776.00000
    39.0295     2664.00000
    39.0427     2689.00000
    39.0558     2681.00000
    39.0689     2724.00000
    39.0820     2679.00000
    39.0952     2662.00000
    39.1083     2797.00000
    39.1214     2713.00000
    39.1346     2804.00000
    39.1477     2722.00000
    39.1608     2733.00000
    39.1740     2699.00000
    39.1871     2719.00000
    39.2002     2835.00000
    39.2133     2771.00000
    39.2265     2824.00000
    39.2396     2748.00000
    39.2527     2799.00000
    39.2659     2808.00000
    39.2790     2660.00000
    39.2921     2762.00000
    39.3053     2767.00000
    39.3184     2747.00000
    39.3315     2866.00000
    39.3446     2787.00000
    39.3578     2851.00000
    39.3709     2843.00000
    39.3840     2807.00000
    39.3972     2735.00000
    39.4103     2885.00000
    39.4234     2790.00000
    39.4366     2798.00000
    39.4497     2791.00000
    39.4628     2970.00000
    39.4760     2976.00000
    39.4891     3114.00000
    39.5022     3049.00000
    39.5153     3279.00000
    39.5285     3473.00000
    39.5416     3767.00000
    39.5547     4282.00000
    39.5679     4483.00000
    39.5810     4632.00000
    39.5941     4404.00000
    39.6073     4373.00000
    39.6204     4255.00000
    39.6335     3969.00000
    39.6466     3931.00000
    39.6598     3914.00000
    39.6729     3965.00000
    39.6860     3932.00000
    39.6992     3831.00000
    39.7123     3806.00000
    39.7254     3588.00000
    39.7386     3521.00000
    39.7517     3390.00000
    39.7648     3424.00000
    39.7779     3474.00000
    39.7911     3826.00000
    39.8042     4220.00000
    39.8173     4969.00000
    39.8305     6079.00000
    39.8436     7201.00000
    39.8567     8038.00000
    39.8699     7620.00000
    39.8830     6958.00000
    39.8961     6242.00000
    39.9092     5607.00000
    39.9224     5298.00000
    39.9355     5298.00000
    39.9486     5660.00000
    39.9618     5814.00000
    39.9749     5524.00000
    39.9880     5019.00000
    40.0012     4385.00000
    40.0143     4086.00000
    40.0274     3674.00000
    40.0406     3403.00000
    40.0537     3317.00000
    40.0668     3152.00000
    40.0799     3249.00000
    40.0931     3156.00000
    40.1062     3138.00000
    40.1193     3150.00000
    40.1325     3097.00000
    40.1456     3128.00000
    40.1587     3223.00000
    40.1719     3294.00000
    40.1850     3328.00000
    40.1981     3479.00000
    40.2112     3771.00000
    40.2244     4133.00000
    40.2375     4784.00000
    40.2506     6030.00000
    40.2638     7545.00000
    40.2769     9299.00000
    40.2900    10515.00000
    40.3032    10255.00000
    40.3163     8916.00000
    40.3294     7430.00000
    40.3425     6170.00000
    40.3557     6030.00000
    40.3688     6092.00000
    40.3819     6631.00000
    40.3951     7174.00000
    40.4082     6566.00000
    40.4213     6060.00000
    40.4345     4959.00000
    40.4476     4298.00000
    40.4607     3849.00000
    40.4739     3626.00000
    40.4870     3187.00000
    40.5001     3282.00000
    40.5132     3169.00000
    40.5264     3051.00000
    40.5395     3152.00000
    40.5526     3119.00000
    40.5658     3107.00000
    40.5789     3080.00000
    40.5920     3016.00000
    40.6052     3121.00000
    40.6183     3226.00000
    40.6314     3229.00000
    40.6445     3224.00000
    40.6577     3276.00000
    40.6708     3349.00000
    40.6839     3364.00000
    40.6971     3527.00000
    40.7102     3880.00000
    40.7233     4121.00000
    40.7365     4817.00000
    40.7496     5515.00000
    40.7627     6744.00000
    40.7758     8405.00000
    40.7890     9914.00000
    40.8021    11039.00000
    40.8152    11288.00000
    40.8284    10952.00000
    40.8415     9509.00000
    40.8546     8336.00000
    40.8678     7442.00000
    40.8809     7412.00000
    40.8940     7980.00000
    40.9072     8435.00000
    40.9203     9006.00000
    40.9334     8969.00000
    40.9465     9387.00000
    40.9597    10409.00000
    40.9728    11964.00000
    40.9859    13057.00000
    40.9991    13212.00000
    41.0122    12438.00000
    41.0253    11715.00000
    41.0385    10764.00000
    41.0516    11011.00000
    41.0647    12758.00000
    41.0778    14725.00000
    41.0910    16189.00000
    41.1041    16257.00000
    41.1172    14863.00000
    41.1304    12405.00000
    41.1435    10242.00000
    41.1566     8687.00000
    41.1698     7900.00000
    41.1829     7967.00000
    41.1960     8289.00000
    41.2091     7829.00000
    41.2223     7001.00000
    41.2354     6196.00000
    41.2485     5290.00000
    41.2617     4348.00000
    41.2748     3852.00000
    41.2879     3602.00000
    41.3011     3330.00000
    41.3142     3185.00000
    41.3273     3087.00000
    41.3405     2952.00000
    41.3536     2983.00000
    41.3667     2918.00000
    41.3798     2955.00000
    41.3930     2910.00000
    41.4061     2892.00000
    41.4192     2862.00000
    41.4324     2990.00000
    41.4455     2904.00000
    41.4586     2755.00000
    41.4718     2844.00000
    41.4849     2832.00000
    41.4980     2778.00000
    41.5111     2729.00000
    41.5243     2792.00000
    41.5374     2821.00000
    41.5505     2771.00000
    41.5637     2728.00000
    41.5768     2843.00000
    41.5899     2761.00000
    41.6031     2799.00000
    41.6162     2801.00000
    41.6293     2836.00000
    41.6424     2736.00000
    41.6556     2680.00000
    41.6687     2670.00000
    41.6818     2769.00000
    41.6950     2856.00000
    41.7081     2740.00000
    41.7212     2738.00000
    41.7344     2641.00000
    41.7475     2762.00000
    41.7606     2708.00000
    41.7738     2694.00000
    41.7869     2715.00000
    41.8000     2665.00000
    41.8131     2601.00000
    41.8263     2702.00000
    41.8394     2619.00000
    41.8525     2709.00000
    41.8657     2664.00000
    41.8788     2651.00000
    41.8919     2778.00000
    41.9051     2739.00000
    41.9182     2700.00000
    41.9313     2708.00000
    41.9444     2708.00000
    41.9576     2754.00000
    41.9707     2717.00000
    41.9838     2701.00000
    41.9970     2627.00000
    42.0101     2601.00000
    42.0232     2766.00000
    42.0364     2654.00000
    42.0495     2735.00000
    42.0626     2721.00000
    42.0757     2649.00000
    42.0889     2734.00000
    42.1020     2690.00000
    42.1151     2671.00000
    42.1283     2791.00000
    42.1414     2748.00000
    42.1545     2687.00000
    42.1677     2722.00000
    42.1808     2755.00000
    42.1939     2690.00000
    42.2071     2761.00000
    42.2202     2693.00000
    42.2333     2767.00000
    42.2464     2732.00000
    42.2596     2629.00000
    42.2727     2736.00000
    42.2858     2751.00000
    42.2990     2663.00000
    42.3121     2702.00000
    42.3252     2642.00000
    42.3384     2718.00000
    42.3515     2694.00000
    42.3646     2682.00000
    42.3777     2628.00000
    42.3909     2683.00000
    42.4040     2716.00000
    42.4171     2788.00000
    42.4303     2646.00000
    42.4434     2657.00000
    42.4565     2674.00000
    42.4697     2660.00000
    42.4828     2812.00000
    42.4959     2788.00000
    42.5090     2724.00000
    42.5222     2575.00000
    42.5353     2646.00000
    42.5484     2765.00000
    42.5616     2659.00000
    42.5747     2672.00000
    42.5878     2665.00000
    42.6010     2729.00000
    42.6141     2725.00000
    42.6272     2658.00000
    42.6404     2720.00000
    42.6535     2749.00000
    42.6666     2731.00000
    42.6797     2873.00000
    42.6929     2835.00000
    42.7060     2797.00000
    42.7191     2740.00000
    42.7323     2745.00000
    42.7454     2681.00000
    42.7585     2639.00000
    42.7717     2752.00000
    42.7848     2791.00000
    42.7979     2741.00000
    42.8110     2696.00000
    42.8242     2753.00000
    42.8373     2813.00000
    42.8504     2728.00000
    42.8636     2687.00000
    42.8767     2634.00000
    42.8898     2700.00000
    42.9030     2733.00000
    42.9161     2759.00000
    42.9292     2722.00000
    42.9423     2681.00000
    42.9555     2676.00000
    42.9686     2593.00000
    42.9817     2646.00000
    42.9949     2682.00000
    43.0080     2749.00000
    43.0211     2673.00000
    43.0343     2678.00000
    43.0474     2667.00000
    43.0605     2730.00000
    43.0736     2697.00000
    43.0868     2693.00000
    43.0999     2740.00000
    43.1130     2640.00000
    43.1262     2711.00000
    43.1393     2630.00000
    43.1524     2751.00000
    43.1656     2804.00000
    43.1787     2712.00000
    43.1918     2729.00000
    43.2050     2819.00000
    43.2181     2897.00000
    43.2312     2916.00000
    43.2443     2988.00000
    43.2575     3203.00000
    43.2706     3324.00000
    43.2837     3317.00000
    43.2969     3233.00000
    43.3100     3166.00000
    43.3231     3050.00000
    43.3363     2931.00000
    43.3494     2939.00000
    43.3625     2955.00000
    43.3756     2969.00000
    43.3888     3007.00000
    43.4019     3036.00000
    43.4150     2969.00000
    43.4282     2832.00000
    43.4413     2871.00000
    43.4544     2779.00000
    43.4676     2761.00000
    43.4807     2798.00000
    43.4938     2700.00000
    43.5069     2708.00000
    43.5201     2780.00000
    43.5332     2660.00000
    43.5463     2702.00000
    43.5595     2649.00000
    43.5726     2807.00000
    43.5857     2792.00000
    43.5989     2707.00000
    43.6120     2736.00000
    43.6251     2652.00000
    43.6383     2694.00000
    43.6514     2605.00000
    43.6645     2611.00000
    43.6776     2708.00000
    43.6908     2693.00000
    43.7039     2675.00000
    43.7170     2635.00000
    43.7302     2731.00000
    43.7433     2687.00000
    43.7564     2801.00000
    43.7696     2676.00000
    43.7827     2782.00000
    43.7958     2830.00000
    43.8089     2700.00000
    43.8221     2728.00000
    43.8352     2722.00000
    43.8483     2738.00000
    43.8615     2717.00000
    43.8746     2706.00000
    43.8877     2699.00000
    43.9009     2708.00000
    43.9140     2717.00000
    43.9271     2712.00000
    43.9402     2733.00000
    43.9534     2835.00000
    43.9665     2952.00000
    43.9796     2791.00000
    43.9928     2753.00000
    44.0059     2940.00000
    44.0190     3063.00000
    44.0322     3347.00000
    44.0453     3545.00000
    44.0584     4042.00000
    44.0715     3991.00000
    44.0847     4120.00000
    44.0978     3925.00000
    44.1109     3859.00000
    44.1241     3411.00000
    44.1372     3391.00000
    44.1503     3452.00000
    44.1635     3524.00000
    44.1766     3550.00000
    44.1897     3554.00000
    44.2029     3630.00000
    44.2160     3491.00000
    44.2291     3376.00000
    44.2422     3184.00000
    44.2554     3102.00000
    44.2685     3141.00000
    44.2816     3310.00000
    44.2948     3511.00000
    44.3079     4003.00000
    44.3210     4321.00000
    44.3342     4773.00000
    44.3473     5105.00000
    44.3604     5295.00000
    44.3735     5266.00000
    44.3867     5051.00000
    44.3998     4710.00000
    44.4129     4153.00000
    44.4261     4090.00000
    44.4392     3907.00000
    44.4523     4190.00000
    44.4655     4110.00000
    44.4786     4072.00000
    44.4917     3913.00000
    44.5048     3714.00000
    44.5180     3618.00000
    44.5311     3254.00000
    44.5442     3100.00000
    44.5574     3009.00000
    44.5705     2879.00000
    44.5836     2866.00000
    44.5968     2834.00000
    44.6099     2808.00000
    44.6230     2824.00000
    44.6362     2780.00000
    44.6493     2740.00000
    44.6624     2793.00000
    44.6755     2687.00000
    44.6887     2687.00000
    44.7018     2637.00000
    44.7149     2678.00000
    44.7281     2707.00000
    44.7412     2769.00000
    44.7543     2735.00000
    44.7675     2826.00000
    44.7806     2649.00000
    44.7937     2902.00000
    44.8068     2791.00000
    44.8200     2757.00000
    44.8331     2627.00000
    44.8462     2759.00000
    44.8594     2761.00000
    44.8725     2676.00000
    44.8856     2674.00000
    44.8988     2682.00000
    44.9119     2725.00000
    44.9250     2716.00000
    44.9381     2731.00000
    44.9513     2630.00000
    44.9644     2635.00000
    44.9775     2597.00000
    44.9907     2725.00000
    45.0038     2738.00000
    45.0169     2650.00000
    45.0301     2627.00000
    45.0432     2743.00000
    45.0563     2706.00000
    45.0695     2793.00000
    45.0826     2705.00000
    45.0957     2642.00000
    45.1088     2806.00000
    45.1220     2655.00000
    45.1351     2646.00000
    45.1482     2722.00000
    45.1614     2780.00000
    45.1745     2702.00000
    45.1876     2713.00000
    45.2008     2651.00000
    45.2139     2700.00000
    45.2270     2680.00000
    45.2401     2683.00000
    45.2533     2872.00000
    45.2664     2766.00000
    45.2795     2788.00000
    45.2927     2737.00000
    45.3058     2695.00000
    45.3189     2872.00000
    45.3321     2848.00000
    45.3452     2828.00000
    45.3583     2846.00000
    45.3714     2883.00000
    45.3846     2951.00000
    45.3977     2951.00000
    45.4108     2946.00000
    45.4240     2904.00000
    45.4371     2993.00000
    45.4502     3037.00000
    45.4634     3258.00000
    45.4765     3454.00000
    45.4896     3813.00000
    45.5028     4478.00000
    45.5159     5313.00000
    45.5290     6977.00000
    45.5421     9032.00000
    45.5553    10692.00000
    45.5684    10923.00000
    45.5815    10023.00000
    45.5947     8071.00000
    45.6078     6199.00000
    45.6209     5315.00000
    45.6341     4926.00000
    45.6472     5346.00000
    45.6603     6014.00000
    45.6734     6872.00000
    45.6866     6942.00000
    45.6997     6484.00000
    45.7128     5566.00000
    45.7260     4558.00000
    45.7391     3866.00000
    45.7522     3403.00000
    45.7654     3206.00000
    45.7785     3000.00000
    45.7916     3013.00000
    45.8047     2902.00000
    45.8179     2853.00000
    45.8310     2819.00000
    45.8441     2814.00000
    45.8573     2784.00000
    45.8704     2858.00000
    45.8835     2859.00000
    45.8967     2762.00000
    45.9098     2902.00000
    45.9229     2845.00000
    45.9361     2736.00000
    45.9492     2751.00000
    45.9623     2716.00000
    45.9754     2873.00000
    45.9886     2795.00000
    46.0017     2830.00000
    46.0148     2852.00000
    46.0280     2822.00000
    46.0411     2745.00000
    46.0542     2785.00000
    46.0674     2805.00000
    46.0805     2758.00000
    46.0936     2811.00000
    46.1067     2812.00000
    46.1199     2848.00000
    46.1330     2973.00000
    46.1461     2964.00000
    46.1593     2881.00000
    46.1724     2915.00000
    46.1855     3083.00000
    46.1987     3057.00000
    46.2118     3260.00000
    46.2249     3238.00000
    46.2380     3507.00000
    46.2512     3891.00000
    46.2643     4480.00000
    46.2774     5428.00000
    46.2906     6387.00000
    46.3037     7164.00000
    46.3168     7002.00000
    46.3300     6095.00000
    46.3431     5200.00000
    46.3562     4382.00000
    46.3694     4195.00000
    46.3825     4119.00000
    46.3956     4270.00000
    46.4087     4543.00000
    46.4219     5026.00000
    46.4350     5054.00000
    46.4481     4762.00000
    46.4613     4037.00000
    46.4744     3713.00000
    46.4875     3237.00000
    46.5007     3213.00000
    46.5138     3131.00000
    46.5269     2992.00000
    46.5400     3002.00000
    46.5532     2883.00000
    46.5663     2930.00000
    46.5794     2806.00000
    46.5926     2836.00000
    46.6057     2942.00000
    46.6188     2821.00000
    46.6320     2887.00000
    46.6451     2857.00000
    46.6582     2934.00000
    46.6713     2911.00000
    46.6845     2971.00000
    46.6976     3000.00000
    46.7107     2975.00000
    46.7239     2955.00000
    46.7370     2931.00000
    46.7501     3037.00000
    46.7633     2977.00000
    46.7764     2886.00000
    46.7895     2949.00000
    46.8027     3084.00000
    46.8158     3137.00000
    46.8289     3077.00000
    46.8420     3304.00000
    46.8552     3555.00000
    46.8683     3750.00000
    46.8814     4229.00000
    46.8946     4799.00000
    46.9077     5703.00000
    46.9208     6538.00000
    46.9340     7516.00000
    46.9471     8224.00000
    46.9602     8731.00000
    46.9733     8393.00000
    46.9865     7462.00000
    46.9996     6131.00000
    47.0127     5451.00000
    47.0259     5131.00000
    47.0390     5143.00000
    47.0521     5418.00000
    47.0653     5788.00000
    47.0784     5903.00000
    47.0915     5830.00000
    47.1046     5565.00000
    47.1178     4784.00000
    47.1309     4126.00000
    47.1440     3659.00000
    47.1572     3436.00000
    47.1703     3223.00000
    47.1834     3019.00000
    47.1966     3132.00000
    47.2097     3074.00000
    47.2228     3181.00000
    47.2359     2983.00000
    47.2491     3065.00000
    47.2622     3022.00000
    47.2753     3082.00000
    47.2885     3072.00000
    47.3016     3114.00000
    47.3147     3101.00000
    47.3279     3083.00000
    47.3410     3205.00000
    47.3541     3158.00000
    47.3673     3163.00000
    47.3804     3320.00000
    47.3935     3401.00000
    47.4066     3379.00000
    47.4198     3534.00000
    47.4329     3556.00000
    47.4460     3552.00000
    47.4592     3594.00000
    47.4723     3651.00000
    47.4854     3796.00000
    47.4986     3986.00000
    47.5117     4318.00000
    47.5248     4616.00000
    47.5379     5142.00000
    47.5511     5981.00000
    47.5642     7116.00000
    47.5773     9195.00000
    47.5905    11495.00000
    47.6036    15121.00000
    47.6167    18283.00000
    47.6299    20319.00000
    47.6430    19990.00000
    47.6561    18036.00000
    47.6692    15258.00000
    47.6824    12631.00000
    47.6955    10978.00000
    47.7086    10290.00000
    47.7218    10495.00000
    47.7349    11269.00000
    47.7480    12467.00000
    47.7612    12036.00000
    47.7743    11653.00000
    47.7874    10049.00000
    47.8005     8530.00000
    47.8137     6846.00000
    47.8268     5870.00000
    47.8399     5062.00000
    47.8531     4507.00000
    47.8662     4019.00000
    47.8793     3891.00000
    47.8925     3635.00000
    47.9056     3542.00000
    47.9187     3499.00000
    47.9319     3337.00000
    47.9450     3253.00000
    47.9581     3248.00000
    47.9712     3240.00000
    47.9844     3154.00000
    47.9975     3254.00000
    48.0106     3246.00000
    48.0238     3081.00000
    48.0369     3205.00000
    48.0500     3146.00000
    48.0632     3281.00000
    48.0763     3294.00000
    48.0894     3238.00000
    48.1025     3245.00000
    48.1157     3304.00000
    48.1288     3420.00000
    48.1419     3402.00000
    48.1551     3498.00000
    48.1682     3668.00000
    48.1813     4007.00000
    48.1945     4744.00000
    48.2076     5764.00000
    48.2207     7279.00000
    48.2338     8998.00000
    48.2470    10963.00000
    48.2601    12015.00000
    48.2732    12426.00000
    48.2864    12701.00000
    48.2995    13068.00000
    48.3126    13128.00000
    48.3258    12892.00000
    48.3389    11685.00000
    48.3520    10978.00000
    48.3652    10309.00000
    48.3783     9645.00000
    48.3914     9094.00000
    48.4045     8747.00000
    48.4177     8576.00000
    48.4308     8408.00000
    48.4439     8270.00000
    48.4571     7754.00000
    48.4702     6993.00000
    48.4833     6208.00000
    48.4965     5451.00000
    48.5096     4795.00000
    48.5227     4366.00000
    48.5358     4240.00000
    48.5490     4443.00000
    48.5621     4670.00000
    48.5752     5251.00000
    48.5884     6243.00000
    48.6015     7809.00000
    48.6146    10060.00000
    48.6278    12140.00000
    48.6409    13019.00000
    48.6540    12926.00000
    48.6671    11310.00000
    48.6803     9380.00000
    48.6934     7566.00000
    48.7065     6556.00000
    48.7197     6131.00000
    48.7328     6465.00000
    48.7459     7148.00000
    48.7591     8035.00000
    48.7722     8306.00000
    48.7853     8040.00000
    48.7985     6991.00000
    48.8116     5844.00000
    48.8247     4806.00000
    48.8378     4350.00000
    48.8510     3755.00000
    48.8641     3603.00000
    48.8772     3367.00000
    48.8904     3364.00000
    48.9035     3269.00000
    48.9166     3160.00000
    48.9298     3091.00000
    48.9429     3146.00000
    48.9560     3099.00000
    48.9691     3006.00000
    48.9823     2949.00000
    48.9954     2986.00000
    49.0085     2940.00000
    49.0217     2816.00000
    49.0348     2940.00000
    49.0479     2874.00000
    49.0611     2947.00000
    49.0742     2881.00000
    49.0873     2855.00000
    49.1004     2949.00000
    49.1136     2827.00000
    49.1267     2914.00000
    49.1398     2854.00000
    49.1530     2997.00000
    49.1661     3038.00000
    49.1792     2922.00000
    49.1924     2983.00000
    49.2055     2988.00000
    49.2186     2937.00000
    49.2318     2924.00000
    49.2449     3097.00000
    49.2580     3045.00000
    49.2711     3070.00000
    49.2843     3134.00000
    49.2974     3138.00000
    49.3105     3274.00000
    49.3237     3403.00000
    49.3368     3314.00000
    49.3499     3516.00000
    49.3631     3429.00000
    49.3762     3434.00000
    49.3893     3308.00000
    49.4024     3259.00000
    49.4156     3203.00000
    49.4287     3164.00000
    49.4418     3221.00000
    49.4550     3316.00000
    49.4681     3446.00000
    49.4812     3616.00000
    49.4944     3638.00000
    49.5075     3683.00000
    49.5206     3625.00000
    49.5337     3683.00000
    49.5469     3644.00000
    49.5600     3594.00000
    49.5731     3639.00000
    49.5863     3623.00000
    49.5994     3436.00000
    49.6125     3474.00000
    49.6257     3542.00000
    49.6388     3584.00000
    49.6519     3673.00000
    49.6651     3677.00000
    49.6782     3654.00000
    49.6913     3771.00000
    49.7044     3749.00000
    49.7176     3878.00000
    49.7307     4026.00000
    49.7438     4179.00000
    49.7570     4537.00000
    49.7701     4983.00000
    49.7832     5914.00000
    49.7964     7028.00000
    49.8095     9082.00000
    49.8226    11854.00000
    49.8357    15052.00000
    49.8489    17372.00000
    49.8620    18685.00000
    49.8751    18099.00000
    49.8883    15710.00000
    49.9014    13255.00000
    49.9145    11347.00000
    49.9277    10042.00000
    49.9408     9447.00000
    49.9539     9877.00000
    49.9670    10713.00000
    49.9802    11192.00000
    49.9933    11574.00000
    50.0064    11045.00000
    50.0196     9852.00000
    50.0327     8549.00000
    50.0458     7110.00000
    50.0590     6176.00000
    50.0721     5443.00000
    50.0852     4884.00000
    50.0984     4429.00000
    50.1115     4265.00000
    50.1246     4153.00000
    50.1377     3883.00000
    50.1509     3973.00000
    50.1640     4025.00000
    50.1771     4121.00000
    50.1903     4238.00000
    50.2034     4493.00000
    50.2165     4975.00000
    50.2297     5808.00000
    50.2428     6705.00000
    50.2559     7817.00000
    50.2690     9362.00000
    50.2822    10537.00000
    50.2953    11431.00000
    50.3084    11531.00000
    50.3216    10682.00000
    50.3347     9364.00000
    50.3478     7677.00000
    50.3610     6913.00000
    50.3741     6494.00000
    50.3872     6527.00000
    50.4003     6813.00000
    50.4135     7313.00000
    50.4266     7509.00000
    50.4397     7454.00000
    50.4529     7089.00000
    50.4660     6137.00000
    50.4791     5477.00000
    50.4923     4579.00000
    50.5054     4219.00000
    50.5185     3756.00000
    50.5317     3547.00000
    50.5448     3448.00000
    50.5579     3354.00000
    50.5710     3347.00000
    50.5842     3244.00000
    50.5973     3145.00000
    50.6104     3072.00000
    50.6236     3040.00000
    50.6367     3043.00000
    50.6498     2944.00000
    50.6630     2875.00000
    50.6761     2983.00000
    50.6892     2960.00000
    50.7023     2791.00000
    50.7155     2877.00000
    50.7286     2981.00000
    50.7417     2982.00000
    50.7549     2862.00000
    50.7680     2837.00000
    50.7811     2957.00000
    50.7943     2966.00000
    50.8074     2878.00000
    50.8205     3010.00000
    50.8336     2895.00000
    50.8468     2854.00000
    50.8599     2978.00000
    50.8730     2968.00000
    50.8862     3072.00000
    50.8993     2862.00000
    50.9124     2960.00000
    50.9256     3026.00000
    50.9387     2979.00000
    50.9518     3021.00000
    50.9649     3044.00000
    50.9781     3041.00000
    50.9912     2977.00000
    51.0043     3032.00000
    51.0175     3075.00000
    51.0306     2956.00000
    51.0437     3101.00000
    51.0569     3239.00000
    51.0700     3297.00000
    51.0831     3528.00000
    51.0963     3811.00000
    51.1094     4264.00000
    51.1225     5076.00000
    51.1356     6318.00000
    51.1488     7569.00000
    51.1619     8852.00000
    51.1750     9132.00000
    51.1882     8307.00000
    51.2013     7138.00000
    51.2144     6103.00000
    51.2276     5124.00000
    51.2407     4707.00000
    51.2538     4595.00000
    51.2669     4965.00000
    51.2801     5559.00000
    51.2932     6020.00000
    51.3063     6146.00000
    51.3195     5855.00000
    51.3326     5501.00000
    51.3457     4741.00000
    51.3589     4410.00000
    51.3720     4022.00000
    51.3851     3882.00000
    51.3982     3898.00000
    51.4114     3819.00000
    51.4245     3734.00000
    51.4376     3424.00000
    51.4508     3335.00000
    51.4639     3151.00000
    51.4770     3149.00000
    51.4902     3149.00000
    51.5033     3145.00000
    51.5164     3174.00000
    51.5296     3289.00000
    51.5427     3183.00000
    51.5558     3244.00000
    51.5689     3015.00000
    51.5821     3025.00000
    51.5952     2888.00000
    51.6083     3068.00000
    51.6215     2890.00000
    51.6346     2797.00000
    51.6477     2837.00000
    51.6609     2904.00000
    51.6740     2892.00000
    51.6871     2771.00000
    51.7002     2860.00000
    51.7134     2796.00000
    51.7265     2748.00000
    51.7396     2916.00000
    51.7528     2851.00000
    51.7659     2813.00000
    51.7790     2800.00000
    51.7922     2779.00000
    51.8053     2755.00000
    51.8184     2848.00000
    51.8315     2844.00000
    51.8447     2776.00000
    51.8578     2892.00000
    51.8709     2793.00000
    51.8841     2831.00000
    51.8972     2847.00000
    51.9103     2775.00000
    51.9235     2796.00000
    51.9366     2786.00000
    51.9497     2824.00000
    51.9628     2818.00000
    51.9760     2735.00000
    51.9891     2743.00000
    52.0022     2794.00000
    52.0154     2824.00000
    52.0285     2755.00000
    52.0416     2749.00000
    52.0548     2885.00000
    52.0679     2835.00000
    52.0810     2767.00000
    52.0942     2897.00000
    52.1073     2969.00000
    52.1204     2874.00000
    52.1335     2940.00000
    52.1467     3055.00000
    52.1598     2952.00000
    52.1729     2929.00000
    52.1861     2889.00000
    52.1992     2900.00000
    52.2123     3001.00000
    52.2255     3127.00000
    52.2386     2982.00000
    52.2517     3125.00000
    52.2648     3079.00000
    52.2780     3092.00000
    52.2911     3119.00000
    52.3042     3237.00000
    52.3174     3353.00000
    52.3305     3628.00000
    52.3436     3775.00000
    52.3568     4244.00000
    52.3699     4929.00000
    52.3830     6084.00000
    52.3961     7116.00000
    52.4093     8309.00000
    52.4224     9736.00000
    52.4355    10532.00000
    52.4487    10257.00000
    52.4618     9877.00000
    52.4749     9391.00000
    52.4881     8386.00000
    52.5012     7503.00000
    52.5143     6644.00000
    52.5275     6178.00000
    52.5406     6190.00000
    52.5537     6410.00000
    52.5668     6703.00000
    52.5800     6901.00000
    52.5931     6767.00000
    52.6062     6429.00000
    52.6194     6163.00000
    52.6325     5571.00000
    52.6456     5014.00000
    52.6588     4457.00000
    52.6719     4114.00000
    52.6850     4216.00000
    52.6981     4214.00000
    52.7113     4620.00000
    52.7244     4835.00000
    52.7375     5284.00000
    52.7507     5653.00000
    52.7638     5958.00000
    52.7769     6191.00000
    52.7901     6281.00000
    52.8032     6193.00000
    52.8163     6105.00000
    52.8294     5902.00000
    52.8426     5376.00000
    52.8557     5017.00000
    52.8688     4781.00000
    52.8820     4673.00000
    52.8951     4641.00000
    52.9082     4653.00000
    52.9214     4614.00000
    52.9345     4544.00000
    52.9476     4513.00000
    52.9608     4297.00000
    52.9739     4133.00000
    52.9870     3909.00000
    53.0001     3605.00000
    53.0133     3351.00000
    53.0264     3129.00000
    53.0395     3008.00000
    53.0527     2948.00000
    53.0658     2922.00000
    53.0789     2934.00000
    53.0921     2802.00000
    53.1052     2804.00000
    53.1183     2786.00000
    53.1314     2763.00000
    53.1446     2806.00000
    53.1577     2865.00000
    53.1708     2834.00000
    53.1840     2773.00000
    53.1971     2785.00000
    53.2102     2759.00000
    53.2234     2823.00000
    53.2365     2782.00000
    53.2496     2742.00000
    53.2627     2836.00000
    53.2759     2807.00000
    53.2890     2832.00000
    53.3021     2808.00000
    53.3153     2899.00000
    53.3284     2809.00000
    53.3415     2883.00000
    53.3547     2802.00000
    53.3678     2900.00000
    53.3809     2937.00000
    53.3941     3057.00000
    53.4072     3136.00000
    53.4203     3175.00000
    53.4334     3319.00000
    53.4466     3571.00000
    53.4597     3659.00000
    53.4728     3926.00000
    53.4860     4056.00000
    53.4991     4132.00000
    53.5122     3980.00000
    53.5254     3777.00000
    53.5385     3499.00000
    53.5516     3493.00000
    53.5647     3348.00000
    53.5779     3246.00000
    53.5910     3244.00000
    53.6041     3291.00000
    53.6173     3421.00000
    53.6304     3432.00000
    53.6435     3458.00000
    53.6567     3320.00000
    53.6698     3288.00000
    53.6829     3213.00000
    53.6960     3004.00000
    53.7092     2982.00000
    53.7223     2847.00000
    53.7354     2847.00000
    53.7486     2949.00000
    53.7617     2839.00000
    53.7748     2694.00000
    53.7880     2728.00000
    53.8011     2797.00000
    53.8142     2760.00000
    53.8274     2776.00000
    53.8405     2698.00000
    53.8536     2755.00000
    53.8667     2758.00000
    53.8799     2739.00000
    53.8930     2678.00000
    53.9061     2731.00000
    53.9193     2729.00000
    53.9324     2819.00000
    53.9455     2648.00000
    53.9587     2816.00000
    53.9718     2823.00000
    53.9849     2681.00000
    53.9980     2823.00000
    54.0112     2818.00000
    54.0243     2768.00000
    54.0374     2806.00000
    54.0506     2809.00000
    54.0637     2833.00000
    54.0768     2999.00000
    54.0900     2947.00000
    54.1031     3088.00000
    54.1162     3125.00000
    54.1293     3070.00000
    54.1425     3061.00000
    54.1556     3139.00000
    54.1687     3035.00000
    54.1819     3057.00000
    54.1950     3203.00000
    54.2081     3106.00000
    54.2213     3064.00000
    54.2344     2943.00000
    54.2475     2938.00000
    54.2607     2933.00000
    54.2738     2910.00000
    54.2869     2946.00000
    54.3000     2880.00000
    54.3132     2966.00000
    54.3263     2973.00000
    54.3394     2899.00000
    54.3526     2909.00000
    54.3657     2898.00000
    54.3788     2786.00000
    54.3920     2758.00000
    54.4051     2700.00000
    54.4182     2774.00000
    54.4313     2763.00000
    54.4445     2811.00000
    54.4576     2777.00000
    54.4707     2724.00000
    54.4839     2750.00000
    54.4970     2786.00000
    54.5101     2799.00000
    54.5233     2843.00000
    54.5364     2722.00000
    54.5495     2642.00000
    54.5626     2711.00000
    54.5758     2850.00000
    54.5889     2795.00000
    54.6020     2638.00000
    54.6152     2742.00000
    54.6283     2762.00000
    54.6414     2828.00000
    54.6546     2746.00000
    54.6677     2696.00000
    54.6808     2662.00000
    54.6940     2736.00000
    54.7071     2760.00000
    54.7202     2803.00000
    54.7333     2728.00000
    54.7465     2855.00000
    54.7596     2666.00000
    54.7727     2793.00000
    54.7859     2747.00000
    54.7990     2726.00000
    54.8121     2786.00000
    54.8253     2795.00000
    54.8384     2816.00000
    54.8515     2805.00000
    54.8646     2779.00000
    54.8778     2812.00000
    54.8909     2881.00000
    54.9040     2827.00000
    54.9172     2805.00000
    54.9303     2997.00000
    54.9434     3043.00000
    54.9566     3005.00000
    54.9697     3062.00000
    54.9828     2998.00000
    54.9959     3012.00000
    55.0091     3002.00000
    55.0222     3130.00000
    55.0353     3267.00000
    55.0485     3268.00000
    55.0616     3375.00000
    55.0747     3460.00000
    55.0879     3681.00000
    55.1010     4043.00000
    55.1141     4442.00000
    55.1272     5117.00000
    55.1404     6025.00000
    55.1535     7189.00000
    55.1666     8822.00000
    55.1798    10329.00000
    55.1929    11155.00000
    55.2060    11032.00000
    55.2192    10023.00000
    55.2323     8707.00000
    55.2454     7290.00000
    55.2586     6336.00000
    55.2717     5670.00000
    55.2848     5539.00000
    55.2979     5880.00000
    55.3111     6412.00000
    55.3242     6906.00000
    55.3373     7336.00000
    55.3505     7439.00000
    55.3636     7056.00000
    55.3767     6324.00000
    55.3899     5525.00000
    55.4030     4822.00000
    55.4161     4266.00000
    55.4292     4018.00000
    55.4424     3847.00000
    55.4555     3633.00000
    55.4686     3705.00000
    55.4818     3532.00000
    55.4949     3607.00000
    55.5080     3531.00000
    55.5212     3402.00000
    55.5343     3404.00000
    55.5474     3210.00000
    55.5605     3148.00000
    55.5737     3134.00000
    55.5868     3103.00000
    55.5999     3021.00000
    55.6131     3047.00000
    55.6262     3086.00000
    55.6393     3212.00000
    55.6525     3033.00000
    55.6656     3125.00000
    55.6787     3056.00000
    55.6918     3059.00000
    55.7050     2928.00000
    55.7181     2903.00000
    55.7312     2943.00000
    55.7444     2860.00000
    55.7575     2808.00000
    55.7706     2939.00000
    55.7838     2944.00000
    55.7969     2966.00000
    55.8100     2918.00000
    55.8232     2942.00000
    55.8363     2961.00000
    55.8494     2960.00000
    55.8625     2871.00000
    55.8757     2892.00000
    55.8888     3020.00000
    55.9019     3000.00000
    55.9151     2923.00000
    55.9282     3117.00000
    55.9413     3131.00000
    55.9545     3084.00000
    55.9676     3160.00000
    55.9807     3190.00000
    55.9938     3444.00000
    56.0070     3504.00000
    56.0201     3692.00000
    56.0332     4152.00000
    56.0464     4523.00000
    56.0595     5012.00000
    56.0726     5398.00000
    56.0858     5907.00000
    56.0989     5903.00000
    56.1120     5861.00000
    56.1251     5850.00000
    56.1383     5897.00000
    56.1514     6182.00000
    56.1645     6829.00000
    56.1777     7530.00000
    56.1908     8285.00000
    56.2039     9630.00000
    56.2171    11024.00000
    56.2302    11843.00000
    56.2433    12721.00000
    56.2565    12679.00000
    56.2696    11943.00000
    56.2827    10810.00000
    56.2958     9267.00000
    56.3090     7750.00000
    56.3221     6938.00000
    56.3352     6625.00000
    56.3484     6598.00000
    56.3615     6780.00000
    56.3746     6970.00000
    56.3878     7295.00000
    56.4009     7207.00000
    56.4140     7130.00000
    56.4271     6776.00000
    56.4403     5949.00000
    56.4534     5275.00000
    56.4665     4651.00000
    56.4797     4068.00000
    56.4928     3741.00000
    56.5059     3471.00000
    56.5191     3310.00000
    56.5322     3321.00000
    56.5453     3284.00000
    56.5584     3175.00000
    56.5716     3196.00000
    56.5847     3163.00000
    56.5978     3175.00000
    56.6110     3112.00000
    56.6241     3329.00000
    56.6372     3125.00000
    56.6504     3228.00000
    56.6635     3202.00000
    56.6766     3257.00000
    56.6898     3309.00000
    56.7029     3264.00000
    56.7160     3362.00000
    56.7291     3427.00000
    56.7423     3523.00000
    56.7554     3815.00000
    56.7685     4031.00000
    56.7817     4433.00000
    56.7948     4864.00000
    56.8079     5626.00000
    56.8211     6353.00000
    56.8342     7074.00000
    56.8473     7809.00000
    56.8604     8445.00000
    56.8736     9159.00000
    56.8867     9416.00000
    56.8998     9727.00000
    56.9130     9681.00000
    56.9261     9391.00000
    56.9392     9144.00000
    56.9524     8422.00000
    56.9655     7595.00000
    56.9786     7269.00000
    56.9917     6741.00000
    57.0049     6573.00000
    57.0180     6661.00000
    57.0311     6702.00000
    57.0443     6981.00000
    57.0574     7124.00000
    57.0705     7505.00000
    57.0837     7680.00000
    57.0968     7824.00000
    57.1099     7915.00000
    57.1231     8157.00000
    57.1362     7776.00000
    57.1493     7389.00000
    57.1624     6630.00000
    57.1756     6062.00000
    57.1887     5292.00000
    57.2018     5007.00000
    57.2150     4371.00000
    57.2281     4286.00000
    57.2412     4356.00000
    57.2544     4623.00000
    57.2675     4766.00000
    57.2806     4929.00000
    57.2937     4932.00000
    57.3069     4740.00000
    57.3200     4541.00000
    57.3331     4267.00000
    57.3463     3910.00000
    57.3594     3646.00000
    57.3725     3480.00000
    57.3857     3250.00000
    57.3988     3227.00000
    57.4119     3255.00000
    57.4250     3068.00000
    57.4382     3097.00000
    57.4513     3069.00000
    57.4644     3031.00000
    57.4776     3045.00000
    57.4907     3089.00000
    57.5038     3039.00000
    57.5170     3122.00000
    57.5301     3040.00000
    57.5432     3114.00000
    57.5564     3014.00000
    57.5695     3106.00000
    57.5826     3158.00000
    57.5957     3108.00000
    57.6089     3182.00000
    57.6220     3270.00000
    57.6351     3368.00000
    57.6483     3552.00000
    57.6614     3638.00000
    57.6745     4082.00000
    57.6877     4453.00000
    57.7008     4811.00000
    57.7139     5390.00000
    57.7270     6481.00000
    57.7402     7506.00000
    57.7533     8703.00000
    57.7664     9383.00000
    57.7796     9050.00000
    57.7927     8009.00000
    57.8058     6896.00000
    57.8190     6058.00000
    57.8321     5553.00000
    57.8452     5229.00000
    57.8583     5553.00000
    57.8715     5860.00000
    57.8846     6432.00000
    57.8977     6881.00000
    57.9109     7192.00000
    57.9240     7145.00000
    57.9371     6761.00000
    57.9503     5984.00000
    57.9634     5237.00000
    57.9765     4770.00000
    57.9897     4247.00000
    58.0028     3914.00000
    58.0159     3982.00000
    58.0290     3935.00000
    58.0422     3945.00000
    58.0553     4080.00000
    58.0684     3901.00000
    58.0816     3744.00000
    58.0947     3602.00000
    58.1078     3373.00000
    58.1210     3384.00000
    58.1341     3334.00000
    58.1472     3455.00000
    58.1603     3408.00000
    58.1735     3476.00000
    58.1866     3467.00000
    58.1997     3740.00000
    58.2129     3822.00000
    58.2260     4159.00000
    58.2391     4613.00000
    58.2523     5166.00000
    58.2654     5900.00000
    58.2785     6625.00000
    58.2916     7436.00000
    58.3048     8197.00000
    58.3179     8533.00000
    58.3310     8713.00000
    58.3442     8374.00000
    58.3573     7498.00000
    58.3704     6659.00000
    58.3836     5829.00000
    58.3967     5541.00000
    58.4098     5327.00000
    58.4230     5507.00000
    58.4361     5694.00000
    58.4492     5908.00000
    58.4623     6386.00000
    58.4755     6791.00000
    58.4886     7308.00000
    58.5017     7566.00000
    58.5149     7992.00000
    58.5280     8545.00000
    58.5411     9279.00000
    58.5543     9356.00000
    58.5674     9435.00000
    58.5805     8714.00000
    58.5936     7626.00000
    58.6068     6351.00000
    58.6199     5446.00000
    58.6330     5035.00000
    58.6462     4759.00000
    58.6593     5045.00000
    58.6724     5292.00000
    58.6856     5867.00000
    58.6987     6414.00000
    58.7118     7133.00000
    58.7249     7592.00000
    58.7381     8092.00000
    58.7512     8658.00000
    58.7643     9191.00000
    58.7775     9500.00000
    58.7906     9878.00000
    58.8037     9662.00000
    58.8169     8982.00000
    58.8300     7810.00000
    58.8431     6669.00000
    58.8562     5815.00000
    58.8694     5335.00000
    58.8825     4959.00000
    58.8956     4983.00000
    58.9088     5183.00000
    58.9219     5653.00000
    58.9350     5911.00000
    58.9482     6077.00000
    58.9613     6199.00000
    58.9744     5982.00000
    58.9876     5551.00000
    59.0007     4810.00000
    59.0138     4322.00000
    59.0269     4057.00000
    59.0401     3738.00000
    59.0532     3643.00000
    59.0663     3427.00000
    59.0795     3246.00000
    59.0926     3180.00000
    59.1057     3210.00000
    59.1189     3076.00000
    59.1320     3025.00000
    59.1451     3102.00000
    59.1582     3079.00000
    59.1714     2949.00000
    59.1845     2973.00000
    59.1976     3004.00000
    59.2108     3059.00000
    59.2239     3045.00000
    59.2370     2987.00000
    59.2502     2925.00000
    59.2633     3062.00000
    59.2764     2996.00000
    59.2895     3081.00000
    59.3027     3084.00000
    59.3158     3107.00000
    59.3289     3132.00000
    59.3421     3188.00000
    59.3552     3378.00000
    59.3683     3471.00000
    59.3815     3722.00000
    59.3946     4127.00000
    59.4077     4599.00000
    59.4208     5229.00000
    59.4340     5971.00000
    59.4471     6348.00000
    59.4602     7343.00000
    59.4734     7938.00000
    59.4865     8389.00000
    59.4996     8324.00000
    59.5128     7725.00000
    59.5259     7138.00000
    59.5390     6405.00000
    59.5522     5656.00000
    59.5653     5240.00000
    59.5784     4969.00000
    59.5915     5003.00000
    59.6047     5220.00000
    59.6178     5458.00000
    59.6309     5793.00000
    59.6441     5905.00000
    59.6572     6292.00000
    59.6703     6273.00000
    59.6835     5892.00000
    59.6966     5842.00000
    59.7097     5833.00000
    59.7228     5980.00000
    59.7360     6273.00000
    59.7491     6994.00000
    59.7622     7573.00000
    59.7754     8371.00000
    59.7885     9284.00000
    59.8016    10268.00000
    59.8148    11163.00000
    59.8279    11161.00000
    59.8410    10178.00000
    59.8541     8740.00000
    59.8673     7435.00000
    59.8804     6509.00000
    59.8935     5937.00000
    59.9067     5672.00000
    59.9198     5743.00000
    59.9329     5971.00000
    59.9461     6173.00000
    59.9592     6665.00000
    59.9723     7060.00000
    59.9855     6994.00000
    59.9986     6814.00000
    60.0117     6100.00000
    60.0248     5324.00000
    60.0380     4614.00000
    60.0511     4017.00000
    60.0642     3916.00000
    60.0774     3463.00000
    60.0905     3299.00000
    60.1036     3186.00000
    60.1168     3190.00000
    60.1299     3173.00000
    60.1430     3178.00000
    60.1561     3142.00000
    60.1693     3106.00000
    60.1824     3117.00000
    60.1955     3067.00000
    60.2087     3121.00000
    60.2218     3045.00000
    60.2349     3073.00000
    60.2481     3138.00000
    60.2612     3236.00000
    60.2743     3245.00000
    60.2874     3234.00000
    60.3006     3272.00000
    60.3137     3316.00000
    60.3268     3349.00000
    60.3400     3411.00000
    60.3531     3445.00000
    60.3662     3529.00000
    60.3794     3779.00000
    60.3925     3879.00000
    60.4056     4095.00000
    60.4188     4448.00000
    60.4319     5104.00000
    60.4450     5808.00000
    60.4581     7007.00000
    60.4713     8536.00000
    60.4844    10677.00000
    60.4975    12566.00000
    60.5107    14346.00000
    60.5238    15102.00000
    60.5369    14417.00000
    60.5501    12871.00000
    60.5632    10810.00000
    60.5763     9261.00000
    60.5894     8136.00000
    60.6026     7487.00000
    60.6157     7324.00000
    60.6288     7576.00000
    60.6420     8359.00000
    60.6551     9249.00000
    60.6682    10026.00000
    60.6814    10613.00000
    60.6945    10848.00000
    60.7076    10012.00000
    60.7207     9195.00000
    60.7339     7868.00000
    60.7470     6964.00000
    60.7601     6291.00000
    60.7733     5680.00000
    60.7864     5195.00000
    60.7995     5077.00000
    60.8127     5149.00000
    60.8258     5236.00000
    60.8389     5206.00000
    60.8521     5408.00000
    60.8652     5405.00000
    60.8783     5452.00000
    60.8914     5427.00000
    60.9046     5441.00000
    60.9177     5288.00000
    60.9308     4907.00000
    60.9440     4406.00000
    60.9571     4160.00000
    60.9702     3851.00000
    60.9834     3757.00000
    60.9965     3705.00000
    61.0096     3619.00000
    61.0227     3768.00000
    61.0359     3700.00000
    61.0490     3618.00000
    61.0621     3694.00000
    61.0753     3637.00000
    61.0884     3670.00000
    61.1015     3592.00000
    61.1147     3277.00000
    61.1278     3143.00000
    61.1409     3071.00000
    61.1540     2914.00000
    61.1672     2821.00000
    61.1803     2869.00000
    61.1934     2833.00000
    61.2066     2757.00000
    61.2197     2866.00000
    61.2328     2632.00000
    61.2460     2688.00000
    61.2591     2632.00000
    61.2722     2597.00000
    61.2854     2680.00000
    61.2985     2641.00000
    61.3116     2647.00000
    61.3247     2638.00000
    61.3379     2695.00000
    61.3510     2655.00000
    61.3641     2736.00000
    61.3773     2707.00000
    61.3904     2621.00000
    61.4035     2631.00000
    61.4167     2694.00000
    61.4298     2756.00000
    61.4429     2581.00000
    61.4560     2641.00000
    61.4692     2611.00000
    61.4823     2515.00000
    61.4954     2731.00000
    61.5086     2647.00000
    61.5217     2549.00000
    61.5348     2616.00000
    61.5480     2616.00000
    61.5611     2605.00000
    61.5742     2575.00000
    61.5873     2736.00000
    61.6005     2701.00000
    61.6136     2686.00000
    61.6267     2586.00000
    61.6399     2635.00000
    61.6530     2681.00000
    61.6661     2665.00000
    61.6793     2490.00000
    61.6924     2526.00000
    61.7055     2663.00000
    61.7187     2631.00000
    61.7318     2683.00000
    61.7449     2590.00000
    61.7580     2639.00000
    61.7712     2553.00000
    61.7843     2561.00000
    61.7974     2597.00000
    61.8106     2676.00000
    61.8237     2645.00000
    61.8368     2655.00000
    61.8500     2588.00000
    61.8631     2579.00000
    61.8762     2624.00000
    61.8893     2561.00000
    61.9025     2622.00000
    61.9156     2522.00000
    61.9287     2616.00000
    61.9419     2635.00000
    61.9550     2521.00000
    61.9681     2523.00000
    61.9813     2503.00000
    61.9944     2510.00000
    62.0075     2604.00000
    62.0206     2562.00000
    62.0338     2592.00000
    62.0469     2527.00000
    62.0600     2547.00000
    62.0732     2502.00000
    62.0863     2581.00000
    62.0994     2531.00000
    62.1126     2544.00000
    62.1257     2642.00000
    62.1388     2601.00000
    62.1520     2515.00000
    62.1651     2557.00000
    62.1782     2561.00000
    62.1913     2625.00000
    62.2045     2513.00000
    62.2176     2609.00000
    62.2307     2526.00000
    62.2439     2608.00000
    62.2570     2606.00000
    62.2701     2565.00000
    62.2833     2520.00000
    62.2964     2639.00000
    62.3095     2616.00000
    62.3226     2582.00000
    62.3358     2604.00000
    62.3489     2616.00000
    62.3620     2710.00000
    62.3752     2603.00000
    62.3883     2511.00000
    62.4014     2622.00000
    62.4146     2595.00000
    62.4277     2568.00000
    62.4408     2516.00000
    62.4539     2582.00000
    62.4671     2523.00000
    62.4802     2542.00000
    62.4933     2608.00000
    62.5065     2451.00000
    62.5196     2510.00000
    62.5327     2524.00000
    62.5459     2481.00000
    62.5590     2588.00000
    62.5721     2666.00000
    62.5852     2444.00000
    62.5984     2565.00000
    62.6115     2611.00000
    62.6246     2564.00000
    62.6378     2444.00000
    62.6509     2496.00000
    62.6640     2534.00000
    62.6772     2451.00000
    62.6903     2554.00000
    62.7034     2611.00000
    62.7166     2501.00000
    62.7297     2440.00000
    62.7428     2556.00000
    62.7559     2480.00000
    62.7691     2487.00000
    62.7822     2595.00000
    62.7953     2520.00000
    62.8085     2537.00000
    62.8216     2445.00000
    62.8347     2541.00000
    62.8479     2503.00000
    62.8610     2630.00000
    62.8741     2511.00000
    62.8872     2516.00000
    62.9004     2617.00000
    62.9135     2482.00000
    62.9266     2459.00000
    62.9398     2550.00000
    62.9529     2481.00000
    62.9660     2578.00000
    62.9792     2519.00000
    62.9923     2528.00000
    63.0054     2582.00000
    63.0185     2562.00000
    63.0317     2619.00000
    63.0448     2489.00000
    63.0579     2481.00000
    63.0711     2528.00000
    63.0842     2533.00000
    63.0973     2660.00000
    63.1105     2567.00000
    63.1236     2532.00000
    63.1367     2739.00000
    63.1499     2658.00000
    63.1630     2597.00000
    63.1761     2675.00000
    63.1892     2767.00000
    63.2024     2806.00000
    63.2155     2746.00000
    63.2286     2693.00000
    63.2418     2879.00000
    63.2549     2865.00000
    63.2680     2836.00000
    63.2812     2874.00000
    63.2943     2997.00000
    63.3074     3029.00000
    63.3205     3058.00000
    63.3337     3156.00000
    63.3468     3433.00000
    63.3599     3553.00000
    63.3731     3906.00000
    63.3862     4063.00000
    63.3993     4080.00000
    63.4125     3931.00000
    63.4256     3748.00000
    63.4387     3439.00000
    63.4518     3400.00000
    63.4650     3187.00000
    63.4781     3170.00000
    63.4912     3090.00000
    63.5044     3032.00000
    63.5175     3063.00000
    63.5306     3206.00000
    63.5438     3271.00000
    63.5569     3291.00000
    63.5700     3229.00000
    63.5831     3384.00000
    63.5963     3190.00000
    63.6094     3080.00000
    63.6225     2998.00000
    63.6357     3028.00000
    63.6488     3002.00000
    63.6619     3006.00000
    63.6751     3009.00000
    63.6882     3106.00000
    63.7013     3306.00000
    63.7145     3346.00000
    63.7276     3765.00000
    63.7407     3908.00000
    63.7538     4155.00000
    63.7670     4189.00000
    63.7801     4217.00000
    63.7932     4048.00000
    63.8064     3721.00000
    63.8195     3629.00000
    63.8326     3375.00000
    63.8458     3094.00000
    63.8589     3124.00000
    63.8720     3021.00000
    63.8851     3138.00000
    63.8983     3136.00000
    63.9114     3266.00000
    63.9245     3434.00000
    63.9377     3553.00000
    63.9508     3476.00000
    63.9639     3652.00000
    63.9771     3536.00000
    63.9902     3525.00000
    64.0033     3555.00000
    64.0164     3576.00000
    64.0296     3661.00000
    64.0427     3805.00000
    64.0558     3926.00000
    64.0690     3988.00000
    64.0821     3706.00000
    64.0952     3363.00000
    64.1084     3374.00000
    64.1215     3152.00000
    64.1346     2965.00000
    64.1478     3001.00000
    64.1609     2930.00000
    64.1740     2929.00000
    64.1871     2924.00000
    64.2003     2902.00000
    64.2134     3092.00000
    64.2265     3099.00000
    64.2397     3221.00000
    64.2528     3128.00000
    64.2659     3035.00000
    64.2791     2950.00000
    64.2922     2869.00000
    64.3053     2764.00000
    64.3184     2607.00000
    64.3316     2632.00000
    64.3447     2683.00000
    64.3578     2577.00000
    64.3710     2527.00000
    64.3841     2492.00000
    64.3972     2611.00000
    64.4104     2576.00000
    64.4235     2496.00000
    64.4366     2577.00000
    64.4498     2550.00000
    64.4629     2503.00000
    64.4760     2482.00000
    64.4891     2441.00000
    64.5023     2508.00000
    64.5154     2402.00000
    64.5285     2541.00000
    64.5417     2636.00000
    64.5548     2583.00000
    64.5679     2592.00000
    64.5811     2591.00000
    64.5942     2723.00000
    64.6073     2692.00000
    64.6204     2727.00000
    64.6336     2661.00000
    64.6467     2775.00000
    64.6598     2813.00000
    64.6730     2768.00000
    64.6861     2736.00000
    64.6992     2815.00000
    64.7124     2773.00000
    64.7255     2739.00000
    64.7386     2772.00000
    64.7517     2717.00000
    64.7649     2860.00000
    64.7780     2785.00000
    64.7911     2800.00000
    64.8043     2725.00000
    64.8174     2774.00000
    64.8305     2795.00000
    64.8437     2756.00000
    64.8568     2660.00000
    64.8699     2808.00000
    64.8830     2596.00000
    64.8962     2667.00000
    64.9093     2570.00000
    64.9224     2582.00000
    64.9356     2554.00000
    64.9487     2518.00000
    64.9618     2650.00000
    64.9750     2520.00000
    64.9881     2511.00000
    65.0012     2493.00000
    65.0144     2520.00000
    65.0275     2480.00000
    65.0406     2500.00000
    65.0537     2474.00000
    65.0669     2439.00000
    65.0800     2480.00000
    65.0931     2420.00000
    65.1063     2509.00000
    65.1194     2517.00000
    65.1325     2458.00000
    65.1457     2367.00000
    65.1588     2505.00000
    65.1719     2551.00000
    65.1850     2398.00000
    65.1982     2417.00000
    65.2113     2466.00000
    65.2244     2495.00000
    65.2376     2461.00000
    65.2507     2513.00000
    65.2638     2409.00000
    65.2770     2506.00000
    65.2901     2386.00000
    65.3032     2463.00000
    65.3163     2424.00000
    65.3295     2436.00000
    65.3426     2516.00000
    65.3557     2475.00000
    65.3689     2471.00000
    65.3820     2506.00000
    65.3951     2437.00000
    65.4083     2438.00000
    65.4214     2454.00000
    65.4345     2435.00000
    65.4476     2428.00000
    65.4608     2463.00000
    65.4739     2423.00000
    65.4870     2433.00000
    65.5002     2459.00000
    65.5133     2458.00000
    65.5264     2430.00000
    65.5396     2462.00000
    65.5527     2432.00000
    65.5658     2478.00000
    65.5790     2485.00000
    65.5921     2393.00000
    65.6052     2482.00000
    65.6183     2422.00000
    65.6315     2433.00000
    65.6446     2392.00000
    65.6577     2423.00000
    65.6709     2499.00000
    65.6840     2408.00000
    65.6971     2435.00000
    65.7103     2439.00000
    65.7234     2429.00000
    65.7365     2535.00000
    65.7496     2378.00000
    65.7628     2458.00000
    65.7759     2499.00000
    65.7890     2475.00000
    65.8022     2351.00000
    65.8153     2389.00000
    65.8284     2385.00000
    65.8416     2436.00000
    65.8547     2465.00000
    65.8678     2422.00000
    65.8810     2414.00000
    65.8941     2485.00000
    65.9072     2386.00000
    65.9203     2401.00000
    65.9335     2469.00000
    65.9466     2558.00000
    65.9597     2401.00000
    65.9729     2481.00000
    65.9860     2367.00000
    65.9991     2486.00000
    66.0123     2437.00000
    66.0254     2405.00000
    66.0385     2469.00000
    66.0516     2470.00000
    66.0648     2469.00000
    66.0779     2450.00000
    66.0910     2495.00000
    66.1042     2385.00000
    66.1173     2523.00000
    66.1304     2471.00000
    66.1436     2411.00000
    66.1567     2450.00000
    66.1698     2452.00000
    66.1829     2458.00000
    66.1961     2401.00000
    66.2092     2533.00000
    66.2223     2560.00000
    66.2355     2537.00000
    66.2486     2506.00000
    66.2617     2611.00000
    66.2749     2516.00000
    66.2880     2507.00000
    66.3011     2618.00000
    66.3142     2461.00000
    66.3274     2421.00000
    66.3405     2405.00000
    66.3536     2487.00000
    66.3668     2549.00000
    66.3799     2518.00000
    66.3930     2542.00000
    66.4062     2473.00000
    66.4193     2463.00000
    66.4324     2446.00000
    66.4455     2496.00000
    66.4587     2498.00000
    66.4718     2534.00000
    66.4849     2571.00000
    66.4981     2467.00000
    66.5112     2498.00000
    66.5243     2437.00000
    66.5375     2498.00000
    66.5506     2554.00000
    66.5637     2524.00000
    66.5769     2461.00000
    66.5900     2511.00000
    66.6031     2476.00000
    66.6162     2567.00000
    66.6294     2456.00000
    66.6425     2470.00000
    66.6556     2394.00000
    66.6688     2523.00000
    66.6819     2388.00000
    66.6950     2440.00000
    66.7082     2458.00000
    66.7213     2416.00000
    66.7344     2381.00000
    66.7476     2488.00000
    66.7607     2493.00000
    66.7738     2542.00000
    66.7869     2479.00000
    66.8001     2551.00000
    66.8132     2496.00000
    66.8263     2430.00000
    66.8395     2429.00000
    66.8526     2548.00000
    66.8657     2467.00000
    66.8789     2352.00000
    66.8920     2465.00000
    66.9051     2397.00000
    66.9182     2375.00000
    66.9314     2430.00000
    66.9445     2453.00000
    66.9576     2479.00000
    66.9708     2377.00000
    66.9839     2465.00000
    66.9970     2434.00000
    67.0102     2391.00000
    67.0233     2454.00000
    67.0364     2415.00000
    67.0495     2391.00000
    67.0627     2507.00000
    67.0758     2366.00000
    67.0889     2438.00000
    67.1021     2423.00000
    67.1152     2375.00000
    67.1283     2483.00000
    67.1415     2421.00000
    67.1546     2443.00000
    67.1677     2453.00000
    67.1808     2465.00000
    67.1940     2518.00000
    67.2071     2478.00000
    67.2202     2421.00000
    67.2334     2459.00000
    67.2465     2464.00000
    67.2596     2430.00000
    67.2728     2431.00000
    67.2859     2461.00000
    67.2990     2478.00000
    67.3121     2379.00000
    67.3253     2458.00000
    67.3384     2452.00000
    67.3515     2393.00000
    67.3647     2460.00000
    67.3778     2521.00000
    67.3909     2459.00000
    67.4041     2635.00000
    67.4172     2556.00000
    67.4303     2493.00000
    67.4435     2386.00000
    67.4566     2502.00000
    67.4697     2450.00000
    67.4828     2431.00000
    67.4960     2506.00000
    67.5091     2517.00000
    67.5222     2441.00000
    67.5354     2549.00000
    67.5485     2422.00000
    67.5616     2467.00000
    67.5748     2485.00000
    67.5879     2444.00000
    67.6010     2470.00000
    67.6142     2460.00000
    67.6273     2418.00000
    67.6404     2492.00000
    67.6535     2548.00000
    67.6667     2584.00000
    67.6798     2577.00000
    67.6929     2445.00000
    67.7061     2507.00000
    67.7192     2584.00000
    67.7323     2498.00000
    67.7455     2581.00000
    67.7586     2464.00000
    67.7717     2437.00000
    67.7848     2509.00000
    67.7980     2461.00000
    67.8111     2586.00000
    67.8242     2544.00000
    67.8374     2502.00000
    67.8505     2608.00000
    67.8636     2526.00000
    67.8768     2681.00000
    67.8899     2791.00000
    67.9030     2789.00000
    67.9161     2837.00000
    67.9293     2934.00000
    67.9424     3203.00000
    67.9555     3499.00000
    67.9687     3668.00000
    67.9818     3973.00000
    67.9949     3999.00000
    68.0081     4193.00000
    68.0212     4165.00000
    68.0343     3886.00000
    68.0474     3627.00000
    68.0606     3519.00000
    68.0737     3160.00000
    68.0868     3060.00000
    68.1000     2910.00000
    68.1131     3007.00000
    68.1262     3017.00000
    68.1394     3215.00000
    68.1525     3287.00000
    68.1656     3561.00000
    68.1787     3621.00000
    68.1919     3866.00000
    68.2050     3998.00000
    68.2181     4235.00000
    68.2313     4669.00000
    68.2444     4975.00000
    68.2575     5331.00000
    68.2707     5135.00000
    68.2838     5035.00000
    68.2969     4716.00000
    68.3101     4256.00000
    68.3232     3847.00000
    68.3363     3583.00000
    68.3494     3165.00000
    68.3626     3176.00000
    68.3757     3041.00000
    68.3888     3031.00000
    68.4020     3014.00000
    68.4151     3188.00000
    68.4282     3392.00000
    68.4414     3700.00000
    68.4545     3741.00000
    68.4676     3728.00000
    68.4807     3603.00000
    68.4939     3473.00000
    68.5070     3256.00000
    68.5201     3114.00000
    68.5333     2920.00000
    68.5464     2790.00000
    68.5595     2667.00000
    68.5727     2698.00000
    68.5858     2741.00000
    68.5989     2628.00000
    68.6120     2605.00000
    68.6252     2543.00000
    68.6383     2577.00000
    68.6514     2495.00000
    68.6646     2553.00000
    68.6777     2539.00000
    68.6908     2574.00000
    68.7040     2578.00000
    68.7171     2541.00000
    68.7302     2559.00000
    68.7434     2503.00000
    68.7565     2557.00000
    68.7696     2486.00000
    68.7827     2489.00000
    68.7959     2548.00000
    68.8090     2493.00000
    68.8221     2583.00000
    68.8353     2552.00000
    68.8484     2573.00000
    68.8615     2589.00000
    68.8747     2533.00000
    68.8878     2489.00000
    68.9009     2610.00000
    68.9140     2551.00000
    68.9272     2609.00000
    68.9403     2647.00000
    68.9534     2578.00000
    68.9666     2687.00000
    68.9797     2683.00000
    68.9928     2740.00000
    69.0060     2774.00000
    69.0191     2742.00000
    69.0322     2923.00000
    69.0453     3117.00000
    69.0585     3114.00000
    69.0716     3380.00000
    69.0847     3624.00000
    69.0979     3809.00000
    69.1110     4128.00000
    69.1241     4321.00000
    69.1373     4588.00000
    69.1504     4762.00000
    69.1635     4804.00000
    69.1767     4703.00000
    69.1898     4331.00000
    69.2029     3944.00000
    69.2160     3700.00000
    69.2292     3480.00000
    69.2423     3336.00000
    69.2554     3251.00000
    69.2686     3238.00000
    69.2817     3334.00000
    69.2948     3230.00000
    69.3080     3446.00000
    69.3211     3556.00000
    69.3342     3817.00000
    69.3473     3915.00000
    69.3605     3998.00000
    69.3736     3882.00000
    69.3867     3786.00000
    69.3999     3845.00000
    69.4130     3785.00000
    69.4261     3621.00000
    69.4393     3606.00000
    69.4524     3241.00000
    69.4655     3324.00000
    69.4786     3047.00000
    69.4918     3006.00000
    69.5049     3032.00000
    69.5180     2977.00000
    69.5312     3062.00000
    69.5443     3017.00000
    69.5574     3059.00000
    69.5706     3171.00000
    69.5837     3270.00000
    69.5968     3246.00000
    69.6099     3509.00000
    69.6231     3644.00000
    69.6362     3856.00000
    69.6493     3882.00000
    69.6625     4032.00000
    69.6756     4527.00000
    69.6887     4913.00000
    69.7019     5479.00000
    69.7150     6234.00000
    69.7281     7109.00000
    69.7413     7619.00000
    69.7544     7847.00000
    69.7675     8053.00000
    69.7806     7386.00000
    69.7938     6688.00000
    69.8069     5809.00000
    69.8200     5236.00000
    69.8332     4602.00000
    69.8463     4360.00000
    69.8594     4265.00000
    69.8726     4290.00000
    69.8857     4390.00000
    69.8988     4675.00000
    69.9119     4966.00000
    69.9251     5521.00000
    69.9382     5654.00000
    69.9513     5740.00000
    69.9645     5780.00000
    69.9776     5341.00000
    69.9907     4925.00000
    70.0039     4542.00000
    70.0170     4000.00000
    70.0301     3571.00000
    70.0433     3362.00000
    70.0564     3293.00000
    70.0695     3166.00000
    70.0826     3172.00000
    70.0958     3133.00000
    70.1089     3053.00000
    70.1220     3169.00000
    70.1352     3076.00000
    70.1483     3093.00000
    70.1614     3022.00000
    70.1746     3033.00000
    70.1877     3004.00000
    70.2008     2929.00000
    70.2139     3054.00000
    70.2271     2824.00000
    70.2402     2989.00000
    70.2533     3006.00000
    70.2665     3038.00000
    70.2796     3068.00000
    70.2927     3195.00000
    70.3059     3276.00000
    70.3190     3691.00000
    70.3321     3647.00000
    70.3452     4021.00000
    70.3584     4352.00000
    70.3715     4560.00000
    70.3846     4797.00000
    70.3978     5127.00000
    70.4109     5213.00000
    70.4240     5032.00000
    70.4372     4769.00000
    70.4503     4465.00000
    70.4634     4015.00000
    70.4765     3876.00000
    70.4897     3960.00000
    70.5028     4064.00000
    70.5159     4223.00000
    70.5291     4388.00000
    70.5422     4705.00000
    70.5553     4981.00000
    70.5685     5235.00000
    70.5816     5566.00000
    70.5947     5711.00000
    70.6078     5817.00000
    70.6210     5618.00000
    70.6341     5373.00000
    70.6472     5130.00000
    70.6604     4739.00000
    70.6735     4354.00000
    70.6866     4165.00000
    70.6998     3907.00000
    70.7129     3775.00000
    70.7260     3673.00000
    70.7392     3726.00000
    70.7523     3743.00000
    70.7654     3741.00000
    70.7785     3841.00000
    70.7917     3745.00000
    70.8048     3867.00000
    70.8179     3631.00000
    70.8311     3711.00000
    70.8442     3614.00000
    70.8573     3480.00000
    70.8705     3486.00000
    70.8836     3338.00000
    70.8967     3295.00000
    70.9099     3219.00000
    70.9230     3231.00000
    70.9361     3297.00000
    70.9492     3362.00000
    70.9624     3516.00000
    70.9755     3904.00000
    70.9886     4353.00000
    71.0018     4888.00000
    71.0149     5131.00000
    71.0280     4958.00000
    71.0412     4556.00000
    71.0543     3981.00000
    71.0674     3550.00000
    71.0805     3302.00000
    71.0937     3110.00000
    71.1068     2926.00000
    71.1199     2892.00000
    71.1331     2990.00000
    71.1462     2970.00000
    71.1593     3117.00000
    71.1725     3122.00000
    71.1856     3413.00000
    71.1987     3569.00000
    71.2118     3801.00000
    71.2250     3764.00000
    71.2381     3828.00000
    71.2512     3387.00000
    71.2644     3356.00000
    71.2775     3183.00000
    71.2906     3054.00000
    71.3038     2940.00000
    71.3169     2926.00000
    71.3300     2903.00000
    71.3431     2760.00000
    71.3563     2794.00000
    71.3694     2862.00000
    71.3825     2950.00000
    71.3957     2907.00000
    71.4088     3015.00000
    71.4219     3073.00000
    71.4351     3129.00000
    71.4482     3383.00000
    71.4613     3428.00000
    71.4744     3618.00000
    71.4876     3860.00000
    71.5007     4180.00000
    71.5138     4359.00000
    71.5270     4623.00000
    71.5401     4759.00000
    71.5532     5022.00000
    71.5664     5018.00000
    71.5795     4662.00000
    71.5926     4380.00000
    71.6058     4066.00000
    71.6189     3606.00000
    71.6320     3530.00000
    71.6451     3460.00000
    71.6583     3265.00000
    71.6714     3293.00000
    71.6845     3320.00000
    71.6977     3358.00000
    71.7108     3476.00000
    71.7239     3499.00000
    71.7371     3661.00000
    71.7502     3819.00000
    71.7633     3786.00000
    71.7764     3808.00000
    71.7896     3628.00000
    71.8027     3433.00000
    71.8158     3196.00000
    71.8290     3158.00000
    71.8421     2978.00000
    71.8552     2942.00000
    71.8684     2707.00000
    71.8815     2667.00000
    71.8946     2580.00000
    71.9078     2715.00000
    71.9209     2712.00000
    71.9340     2572.00000
    71.9471     2594.00000
    71.9603     2597.00000
    71.9734     2681.00000
    71.9865     2687.00000
    71.9997     2615.00000
    72.0128     2658.00000
    72.0259     2610.00000
    72.0391     2652.00000
    72.0522     2578.00000
    72.0653     2605.00000
    72.0784     2664.00000
    72.0916     2668.00000
    72.1047     2574.00000
    72.1178     2623.00000
    72.1310     2674.00000
    72.1441     2615.00000
    72.1572     2616.00000
    72.1704     2671.00000
    72.1835     2696.00000
    72.1966     2750.00000
    72.2097     2812.00000
    72.2229     2907.00000
    72.2360     2992.00000
    72.2491     3071.00000
    72.2623     3161.00000
    72.2754     3370.00000
    72.2885     3628.00000
    72.3017     3854.00000
    72.3148     4148.00000
    72.3279     4084.00000
    72.3410     4084.00000
    72.3542     3855.00000
    72.3673     3665.00000
    72.3804     3524.00000
    72.3936     3238.00000
    72.4067     3088.00000
    72.4198     2959.00000
    72.4330     2971.00000
    72.4461     2969.00000
    72.4592     2991.00000
    72.4724     2984.00000
    72.4855     3053.00000
    72.4986     3031.00000
    72.5117     3229.00000
    72.5249     3319.00000
    72.5380     3470.00000
    72.5511     3411.00000
    72.5643     3139.00000
    72.5774     3206.00000
    72.5905     2978.00000
    72.6037     2819.00000
    72.6168     2767.00000
    72.6299     2694.00000
    72.6430     2685.00000
    72.6562     2689.00000
    72.6693     2657.00000
    72.6824     2658.00000
    72.6956     2593.00000
    72.7087     2622.00000
    72.7218     2791.00000
    72.7350     2841.00000
    72.7481     2744.00000
    72.7612     2889.00000
    72.7743     2987.00000
    72.7875     3258.00000
    72.8006     3516.00000
    72.8137     3628.00000
    72.8269     3857.00000
    72.8400     4130.00000
    72.8531     4215.00000
    72.8663     4201.00000
    72.8794     4131.00000
    72.8925     4107.00000
    72.9057     3923.00000
    72.9188     3743.00000
    72.9319     3357.00000
    72.9450     3222.00000
    72.9582     3075.00000
    72.9713     3240.00000
    72.9844     3035.00000
    72.9976     3198.00000
    73.0107     3324.00000
    73.0238     3342.00000
    73.0370     3584.00000
    73.0501     3664.00000
    73.0632     3839.00000
    73.0763     3921.00000
    73.0895     4062.00000
    73.1026     4203.00000
    73.1157     4124.00000
    73.1289     4034.00000
    73.1420     3987.00000
    73.1551     3945.00000
    73.1683     3807.00000
    73.1814     3809.00000
    73.1945     3599.00000
    73.2076     3528.00000
    73.2208     3451.00000
    73.2339     3294.00000
    73.2470     3253.00000
    73.2602     3078.00000
    73.2733     3070.00000
    73.2864     3140.00000
    73.2996     3335.00000
    73.3127     3252.00000
    73.3258     3383.00000
    73.3390     3585.00000
    73.3521     3596.00000
    73.3652     3805.00000
    73.3783     3791.00000
    73.3915     3665.00000
    73.4046     3615.00000
    73.4177     3472.00000
    73.4309     3235.00000
    73.4440     3164.00000
    73.4571     3095.00000
    73.4703     3111.00000
    73.4834     3087.00000
    73.4965     3206.00000
    73.5096     3309.00000
    73.5228     3507.00000
    73.5359     3856.00000
    73.5490     4244.00000
    73.5622     4640.00000
    73.5753     5010.00000
    73.5884     5289.00000
    73.6016     5895.00000
    73.6147     6020.00000
    73.6278     5973.00000
    73.6409     5918.00000
    73.6541     5659.00000
    73.6672     5622.00000
    73.6803     5384.00000
    73.6935     5153.00000
    73.7066     4779.00000
    73.7197     4197.00000
    73.7329     3906.00000
    73.7460     3739.00000
    73.7591     3816.00000
    73.7722     3807.00000
    73.7854     3892.00000
    73.7985     4095.00000
    73.8116     4183.00000
    73.8248     4285.00000
    73.8379     4225.00000
    73.8510     4157.00000
    73.8642     4002.00000
    73.8773     3973.00000
    73.8904     4035.00000
    73.9035     3754.00000
    73.9167     3584.00000
    73.9298     3384.00000
    73.9429     3100.00000
    73.9561     3011.00000
    73.9692     2901.00000
    73.9823     2785.00000
    73.9955     2713.00000
    74.0086     2684.00000
    74.0217     2540.00000
    74.0349     2601.00000
    74.0480     2602.00000
    74.0611     2488.00000
    74.0742     2554.00000
    74.0874     2645.00000
    74.1005     2543.00000
    74.1136     2537.00000
    74.1268     2531.00000
    74.1399     2507.00000
    74.1530     2497.00000
    74.1662     2426.00000
    74.1793     2392.00000
    74.1924     2577.00000
    74.2056     2600.00000
    74.2187     2474.00000
    74.2318     2563.00000
    74.2449     2545.00000
    74.2581     2462.00000
    74.2712     2419.00000
    74.2843     2502.00000
    74.2975     2487.00000
    74.3106     2430.00000
    74.3237     2425.00000
    74.3369     2550.00000
    74.3500     2471.00000
    74.3631     2459.00000
    74.3762     2485.00000
    74.3894     2493.00000
    74.4025     2448.00000
    74.4156     2410.00000
    74.4288     2440.00000
    74.4419     2452.00000
    74.4550     2472.00000
    74.4682     2453.00000
    74.4813     2459.00000
    74.4944     2475.00000
    74.5075     2457.00000
    74.5207     2492.00000
    74.5338     2413.00000
    74.5469     2432.00000
    74.5601     2461.00000
    74.5732     2455.00000
    74.5863     2390.00000
    74.5995     2442.00000
    74.6126     2493.00000
    74.6257     2507.00000
    74.6388     2355.00000
    74.6520     2480.00000
    74.6651     2398.00000
    74.6782     2424.00000
    74.6914     2447.00000
    74.7045     2412.00000
    74.7176     2428.00000
    74.7308     2490.00000
    74.7439     2483.00000
    74.7570     2438.00000
    74.7701     2442.00000
    74.7833     2583.00000
    74.7964     2462.00000
    74.8095     2442.00000
    74.8227     2481.00000
    74.8358     2373.00000
    74.8489     2514.00000
    74.8621     2533.00000
    74.8752     2274.00000
    74.8883     2475.00000
    74.9015     2385.00000
    74.9146     2466.00000
    74.9277     2455.00000
    74.9408     2473.00000
    74.9540     2503.00000
    74.9671     2479.00000
    74.9802     2411.00000
    74.9934     2493.00000
    75.0065     2445.00000
    75.0196     2550.00000
    75.0328     2476.00000
    75.0459     2441.00000
    75.0590     2346.00000
    75.0722     2458.00000
    75.0853     2437.00000
    75.0984     2434.00000
    75.1115     2458.00000
    75.1247     2486.00000
    75.1378     2591.00000
    75.1509     2551.00000
    75.1641     2594.00000
    75.1772     2501.00000
    75.1903     2422.00000
    75.2035     2526.00000
    75.2166     2413.00000
    75.2297     2469.00000
    75.2428     2491.00000
    75.2560     2541.00000
    75.2691     2542.00000
    75.2822     2467.00000
    75.2954     2462.00000
    75.3085     2482.00000
    75.3216     2457.00000
    75.3348     2511.00000
    75.3479     2518.00000
    75.3610     2490.00000
    75.3741     2480.00000
    75.3873     2599.00000
    75.4004     2522.00000
    75.4135     2508.00000
    75.4267     2619.00000
    75.4398     2616.00000
    75.4529     2463.00000
    75.4661     2463.00000
    75.4792     2478.00000
    75.4923     2615.00000
    75.5054     2483.00000
    75.5186     2510.00000
    75.5317     2605.00000
    75.5448     2554.00000
    75.5580     2555.00000
    75.5711     2482.00000
    75.5842     2625.00000
    75.5974     2531.00000
    75.6105     2577.00000
    75.6236     2558.00000
    75.6367     2622.00000
    75.6499     2527.00000
    75.6630     2616.00000
    75.6761     2631.00000
    75.6893     2570.00000
    75.7024     2534.00000
    75.7155     2499.00000
    75.7287     2571.00000
    75.7418     2644.00000
    75.7549     2662.00000
    75.7681     2756.00000
    75.7812     2702.00000
    75.7943     2792.00000
    75.8074     2731.00000
    75.8206     2859.00000
    75.8337     2964.00000
    75.8468     2969.00000
    75.8600     2821.00000
    75.8731     2986.00000
    75.8862     3038.00000
    75.8994     3028.00000
    75.9125     3111.00000
    75.9256     3196.00000
    75.9387     3271.00000
    75.9519     3311.00000
    75.9650     3435.00000
    75.9781     3499.00000
    75.9913     3612.00000
    76.0044     3883.00000
    76.0175     4106.00000
    76.0307     4351.00000
    76.0438     4483.00000
    76.0569     4702.00000
    76.0701     4792.00000
    76.0832     4965.00000
    76.0963     4827.00000
    76.1094     4755.00000
    76.1226     4457.00000
    76.1357     4079.00000
    76.1488     3957.00000
    76.1620     3773.00000
    76.1751     3693.00000
    76.1882     3544.00000
    76.2014     3510.00000
    76.2145     3350.00000
    76.2276     3430.00000
    76.2407     3379.00000
    76.2539     3473.00000
    76.2670     3560.00000
    76.2801     3643.00000
    76.2933     3572.00000
    76.3064     3669.00000
    76.3195     3489.00000
    76.3327     3489.00000
    76.3458     3324.00000
    76.3589     3325.00000
    76.3720     3156.00000
    76.3852     3127.00000
    76.3983     2985.00000
    76.4114     2924.00000
    76.4246     2904.00000
    76.4377     2849.00000
    76.4508     2839.00000
    76.4640     2868.00000
    76.4771     2963.00000
    76.4902     2885.00000
    76.5033     3040.00000
    76.5165     3240.00000
    76.5296     3331.00000
    76.5427     3502.00000
    76.5559     3663.00000
    76.5690     3878.00000
    76.5821     4089.00000
    76.5953     4406.00000
    76.6084     4353.00000
    76.6215     4422.00000
    76.6347     4425.00000
    76.6478     4437.00000
    76.6609     4279.00000
    76.6740     4105.00000
    76.6872     3930.00000
    76.7003     3529.00000
    76.7134     3421.00000
    76.7266     3413.00000
    76.7397     3300.00000
    76.7528     3288.00000
    76.7660     3261.00000
    76.7791     3200.00000
    76.7922     3304.00000
    76.8053     3398.00000
    76.8185     3410.00000
    76.8316     3516.00000
    76.8447     3521.00000
    76.8579     3600.00000
    76.8710     3367.00000
    76.8841     3377.00000
    76.8973     3352.00000
    76.9104     3202.00000
    76.9235     3019.00000
    76.9366     2843.00000
    76.9498     2884.00000
    76.9629     2793.00000
    76.9760     2661.00000
    76.9892     2694.00000
    77.0023     2706.00000
    77.0154     2508.00000
    77.0286     2579.00000
    77.0417     2577.00000
    77.0548     2595.00000
    77.0679     2510.00000
    77.0811     2410.00000
    77.0942     2549.00000
    77.1073     2615.00000
    77.1205     2425.00000
    77.1336     2572.00000
    77.1467     2536.00000
    77.1599     2495.00000
    77.1730     2528.00000
    77.1861     2530.00000
    77.1993     2498.00000
    77.2124     2495.00000
    77.2255     2597.00000
    77.2386     2580.00000
    77.2518     2547.00000
    77.2649     2515.00000
    77.2780     2478.00000
    77.2912     2577.00000
    77.3043     2492.00000
    77.3174     2668.00000
    77.3306     2612.00000
    77.3437     2560.00000
    77.3568     2671.00000
    77.3699     2739.00000
    77.3831     2748.00000
    77.3962     2854.00000
    77.4093     3003.00000
    77.4225     3062.00000
    77.4356     3156.00000
    77.4487     3234.00000
    77.4619     3281.00000
    77.4750     3137.00000
    77.4881     3022.00000
    77.5013     2975.00000
    77.5144     2748.00000
    77.5275     2705.00000
    77.5406     2769.00000
    77.5538     2626.00000
    77.5669     2710.00000
    77.5800     2714.00000
    77.5932     2697.00000
    77.6063     2654.00000
    77.6194     2696.00000
    77.6326     2757.00000
    77.6457     2848.00000
    77.6588     2829.00000
    77.6719     2817.00000
    77.6851     2893.00000
    77.6982     2874.00000
    77.7113     2851.00000
    77.7245     2821.00000
    77.7376     2667.00000
    77.7507     2729.00000
    77.7639     2673.00000
    77.7770     2680.00000
    77.7901     2730.00000
    77.8032     2528.00000
    77.8164     2566.00000
    77.8295     2577.00000
    77.8426     2590.00000
    77.8558     2556.00000
    77.8689     2601.00000
    77.8820     2580.00000
    77.8952     2636.00000
    77.9083     2639.00000
    77.9214     2721.00000
    77.9345     2828.00000
    77.9477     2860.00000
    77.9608     2920.00000
    77.9739     3019.00000
    77.9871     2873.00000
    78.0002     2856.00000
    78.0133     2827.00000
    78.0265     2866.00000
    78.0396     2798.00000
    78.0527     2822.00000
    78.0658     2875.00000
    78.0790     2897.00000
    78.0921     3121.00000
    78.1052     3175.00000
    78.1184     3343.00000
    78.1315     3297.00000
    78.1446     3411.00000
    78.1578     3347.00000
    78.1709     3508.00000
    78.1840     3461.00000
    78.1972     3549.00000
    78.2103     3548.00000
    78.2234     3633.00000
    78.2365     3594.00000
    78.2497     3472.00000
    78.2628     3631.00000
    78.2759     3536.00000
    78.2891     3637.00000
    78.3022     3657.00000
    78.3153     3593.00000
    78.3285     3755.00000
    78.3416     3881.00000
    78.3547     4041.00000
    78.3679     4395.00000
    78.3810     4338.00000
    78.3941     4421.00000
    78.4072     4410.00000
    78.4204     4171.00000
    78.4335     4203.00000
    78.4466     4065.00000
    78.4598     4150.00000
    78.4729     4189.00000
    78.4860     4183.00000
    78.4992     4263.00000
    78.5123     4250.00000
    78.5254     4398.00000
    78.5385     4327.00000
    78.5517     4469.00000
    78.5648     4470.00000
    78.5779     4350.00000
    78.5911     4409.00000
    78.6042     4184.00000
    78.6173     4110.00000
    78.6305     4132.00000
    78.6436     3875.00000
    78.6567     3663.00000
    78.6698     3506.00000
    78.6830     3438.00000
    78.6961     3400.00000
    78.7092     3458.00000
    78.7224     3366.00000
    78.7355     3438.00000
    78.7486     3412.00000
    78.7618     3395.00000
    78.7749     3440.00000
    78.7880     3290.00000
    78.8011     3264.00000
    78.8143     3354.00000
    78.8274     3317.00000
    78.8405     3108.00000
    78.8537     2938.00000
    78.8668     2938.00000
    78.8799     2859.00000
    78.8931     2847.00000
    78.9062     2867.00000
    78.9193     2623.00000
    78.9324     2722.00000
    78.9456     2857.00000
    78.9587     2677.00000
    78.9718     2646.00000
    78.9850     2693.00000
    78.9981     2780.00000
    79.0112     2684.00000
    79.0244     2750.00000
    79.0375     2790.00000
    79.0506     2828.00000
    79.0638     2839.00000
    79.0769     3016.00000
    79.0900     3060.00000
    79.1031     3032.00000
    79.1163     3294.00000
    79.1294     3546.00000
    79.1425     3825.00000
    79.1557     3737.00000
    79.1688     3976.00000
    79.1819     4061.00000
    79.1951     4000.00000
    79.2082     3788.00000
    79.2213     3674.00000
    79.2345     3568.00000
    79.2476     3388.00000
    79.2607     3320.00000
    79.2738     3363.00000
    79.2870     3268.00000
    79.3001     3141.00000
    79.3132     3165.00000
    79.3264     3284.00000
    79.3395     3305.00000
    79.3526     3328.00000
    79.3658     3387.00000
    79.3789     3430.00000
    79.3920     3428.00000
    79.4051     3401.00000
    79.4183     3444.00000
    79.4314     3412.00000
    79.4445     3251.00000
    79.4577     3228.00000
    79.4708     3105.00000
    79.4839     3049.00000
    79.4971     3091.00000
    79.5102     2976.00000
    79.5233     2989.00000
    79.5364     2961.00000
    79.5496     3042.00000
    79.5627     2925.00000
    79.5758     3013.00000
    79.5890     3107.00000
    79.6021     3058.00000
    79.6152     3144.00000
    79.6284     3037.00000
    79.6415     3139.00000
    79.6546     3147.00000
    79.6677     3255.00000
    79.6809     3232.00000
    79.6940     3425.00000
    79.7071     3465.00000
    79.7203     3665.00000
    79.7334     3955.00000
    79.7465     4221.00000
    79.7597     4390.00000
    79.7728     4822.00000
    79.7859     5033.00000
    79.7990     5060.00000
    79.8122     4837.00000
    79.8253     4680.00000
    79.8384     4333.00000
    79.8516     4120.00000
    79.8647     3888.00000
    79.8778     3697.00000
    79.8910     3699.00000
    79.9041     3563.00000
    79.9172     3441.00000
    79.9304     3464.00000
    79.9435     3539.00000
    79.9566     3508.00000
    79.9697     3756.00000
    79.9829     3897.00000
    79.9960     4065.00000
    80.0091     4382.00000
    80.0223     4688.00000
    80.0354     4743.00000
    80.0485     4929.00000
    80.0617     5085.00000
    80.0748     5260.00000
    80.0879     5274.00000
    80.1010     5103.00000
    80.1142     4978.00000
    80.1273     4864.00000
    80.1404     4620.00000
    80.1536     4628.00000
    80.1667     4595.00000
    80.1798     4823.00000
    80.1930     4764.00000
    80.2061     4755.00000
    80.2192     5177.00000
    80.2323     5360.00000
    80.2455     5625.00000
    80.2586     5900.00000
    80.2717     6019.00000
    80.2849     6019.00000
    80.2980     6004.00000
    80.3111     5880.00000
    80.3243     5809.00000
    80.3374     5849.00000
    80.3505     5725.00000
    80.3637     5320.00000
    80.3768     5238.00000
    80.3899     5084.00000
    80.4030     4934.00000
    80.4162     4718.00000
    80.4293     4761.00000
    80.4424     4568.00000
    80.4556     4656.00000
    80.4687     4609.00000
    80.4818     4460.00000
    80.4950     4466.00000
    80.5081     4421.00000
    80.5212     4388.00000
    80.5343     4260.00000
    80.5475     4116.00000
    80.5606     4035.00000
    80.5737     3987.00000
    80.5869     3896.00000
    80.6000     3702.00000
    80.6131     3678.00000
    80.6263     3628.00000
    80.6394     3541.00000
    80.6525     3674.00000
    80.6656     3765.00000
    80.6788     3636.00000
    80.6919     3667.00000
    80.7050     3634.00000
    80.7182     3602.00000
    80.7313     3566.00000
    80.7444     3473.00000
    80.7576     3371.00000
    80.7707     3318.00000
    80.7838     3387.00000
    80.7970     3425.00000
    80.8101     3402.00000
    80.8232     3452.00000
    80.8363     3381.00000
    80.8495     3338.00000
    80.8626     3386.00000
    80.8757     3338.00000
    80.8889     3289.00000
    80.9020     3187.00000
    80.9151     3050.00000
    80.9283     3241.00000
    80.9414     3162.00000
    80.9545     2999.00000
    80.9676     3035.00000
    80.9808     2924.00000
    80.9939     2896.00000
    81.0070     2965.00000
    81.0202     2953.00000
    81.0333     2899.00000
    81.0464     2855.00000
    81.0596     2833.00000
    81.0727     2921.00000
    81.0858     2963.00000
    81.0989     2787.00000
    81.1121     2891.00000
    81.1252     2733.00000
    81.1383     2883.00000
    81.1515     2643.00000
    81.1646     2720.00000
    81.1777     2631.00000
    81.1909     2682.00000
    81.2040     2587.00000
    81.2171     2599.00000
    81.2302     2631.00000
    81.2434     2506.00000
    81.2565     2559.00000
    81.2696     2502.00000
    81.2828     2516.00000
    81.2959     2470.00000
    81.3090     2579.00000
    81.3222     2531.00000
    81.3353     2576.00000
    81.3484     2645.00000
    81.3616     2616.00000
    81.3747     2611.00000
    81.3878     2653.00000
    81.4009     2673.00000
    81.4141     2610.00000
    81.4272     2604.00000
    81.4403     2683.00000
    81.4535     2694.00000
    81.4666     2697.00000
    81.4797     2750.00000
    81.4929     2874.00000
    81.5060     2993.00000
    81.5191     3091.00000
    81.5322     3198.00000
    81.5454     3225.00000
    81.5585     3364.00000
    81.5716     3393.00000
    81.5848     3481.00000
    81.5979     3573.00000
    81.6110     3792.00000
    81.6242     3732.00000
    81.6373     3738.00000
    81.6504     3766.00000
    81.6636     3725.00000
    81.6767     3621.00000
    81.6898     3529.00000
    81.7029     3340.00000
    81.7161     3128.00000
    81.7292     3046.00000
    81.7423     2955.00000
    81.7555     3092.00000
    81.7686     3015.00000
    81.7817     2956.00000
    81.7949     3019.00000
    81.8080     3105.00000
    81.8211     3039.00000
    81.8342     3143.00000
    81.8474     3024.00000
    81.8605     3145.00000
    81.8736     3174.00000
    81.8868     3142.00000
    81.8999     3120.00000
    81.9130     3194.00000
    81.9262     3173.00000
    81.9393     3130.00000
    81.9524     3071.00000
    81.9655     3155.00000
    81.9787     3010.00000
    81.9918     2975.00000
    82.0049     3060.00000
    82.0181     3083.00000
    82.0312     2984.00000
    82.0443     3021.00000
    82.0575     2978.00000
    82.0706     2976.00000
    82.0837     2987.00000
    82.0968     2862.00000
    82.1100     2784.00000
    82.1231     2901.00000
    82.1362     2691.00000
    82.1494     2834.00000
    82.1625     2777.00000
    82.1756     2747.00000
    82.1888     2806.00000
    82.2019     2843.00000
    82.2150     2801.00000
    82.2281     2835.00000
    82.2413     2839.00000
    82.2544     2802.00000
    82.2675     2912.00000
    82.2807     2851.00000
    82.2938     2918.00000
    82.3069     2879.00000
    82.3201     2830.00000
    82.3332     3009.00000
    82.3463     3060.00000
    82.3595     3213.00000
    82.3726     3322.00000
    82.3857     3515.00000
    82.3988     3672.00000
    82.4120     3728.00000
    82.4251     3674.00000
    82.4382     3448.00000
    82.4514     3262.00000
    82.4645     3076.00000
    82.4776     2912.00000
    82.4908     2907.00000
    82.5039     2792.00000
    82.5170     2679.00000
    82.5302     2725.00000
    82.5433     2617.00000
    82.5564     2649.00000
    82.5695     2643.00000
    82.5827     2737.00000
    82.5958     2670.00000
    82.6089     2758.00000
    82.6221     2889.00000
    82.6352     3006.00000
    82.6483     3081.00000
    82.6615     3066.00000
    82.6746     3146.00000
    82.6877     3032.00000
    82.7008     2882.00000
    82.7140     2774.00000
    82.7271     2744.00000
    82.7402     2672.00000
    82.7534     2684.00000
    82.7665     2601.00000
    82.7796     2651.00000
    82.7928     2638.00000
    82.8059     2506.00000
    82.8190     2406.00000
    82.8321     2597.00000
    82.8453     2569.00000
    82.8584     2565.00000
    82.8715     2633.00000
    82.8847     2706.00000
    82.8978     2616.00000
    82.9109     2563.00000
    82.9241     2657.00000
    82.9372     2685.00000
    82.9503     2743.00000
    82.9634     2750.00000
    82.9766     2800.00000
    82.9897     2732.00000
    83.0028     2716.00000
    83.0160     2866.00000
    83.0291     2823.00000
    83.0422     2831.00000
    83.0554     2766.00000
    83.0685     2742.00000
    83.0816     2804.00000
    83.0947     2703.00000
    83.1079     2740.00000
    83.1210     2769.00000
    83.1341     2649.00000
    83.1473     2861.00000
    83.1604     2759.00000
    83.1735     2744.00000
    83.1867     2803.00000
    83.1998     2823.00000
    83.2129     2997.00000
    83.2261     3020.00000
    83.2392     3094.00000
    83.2523     3286.00000
    83.2654     3312.00000
    83.2786     3471.00000
    83.2917     3426.00000
    83.3048     3557.00000
    83.3180     3552.00000
    83.3311     3338.00000
    83.3442     3072.00000
    83.3574     2969.00000
    83.3705     2882.00000
    83.3836     2735.00000
    83.3967     2774.00000
    83.4099     2781.00000
    83.4230     2663.00000
    83.4361     2703.00000
    83.4493     2656.00000
    83.4624     2732.00000
    83.4755     2673.00000
    83.4887     2792.00000
    83.5018     2795.00000
    83.5149     2790.00000
    83.5281     2842.00000
    83.5412     2866.00000
    83.5543     2834.00000
    83.5674     2781.00000
    83.5806     2778.00000
    83.5937     2710.00000
    83.6068     2683.00000
    83.6200     2571.00000
    83.6331     2556.00000
    83.6462     2516.00000
    83.6594     2498.00000
    83.6725     2522.00000
    83.6856     2527.00000
    83.6987     2470.00000
    83.7119     2449.00000
    83.7250     2381.00000
    83.7381     2388.00000
    83.7513     2463.00000
    83.7644     2457.00000
    83.7775     2426.00000
    83.7907     2524.00000
    83.8038     2509.00000
    83.8169     2490.00000
    83.8300     2492.00000
    83.8432     2433.00000
    83.8563     2434.00000
    83.8694     2460.00000
    83.8826     2473.00000
    83.8957     2456.00000
    83.9088     2474.00000
    83.9220     2369.00000
    83.9351     2445.00000
    83.9482     2431.00000
    83.9613     2343.00000
    83.9745     2400.00000
    83.9876     2566.00000
    84.0007     2516.00000
    84.0139     2506.00000
    84.0270     2440.00000
    84.0401     2497.00000
    84.0533     2366.00000
    84.0664     2405.00000
    84.0795     2389.00000
    84.0927     2506.00000
    84.1058     2435.00000
    84.1189     2382.00000
    84.1320     2540.00000
    84.1452     2532.00000
    84.1583     2454.00000
    84.1714     2408.00000
    84.1846     2574.00000
    84.1977     2533.00000
    84.2108     2544.00000
    84.2240     2592.00000
    84.2371     2541.00000
    84.2502     2584.00000
    84.2633     2658.00000
    84.2765     2698.00000
    84.2896     2583.00000
    84.3027     2642.00000
    84.3159     2715.00000
    84.3290     2617.00000
    84.3421     2619.00000
    84.3553     2686.00000
    84.3684     2698.00000
    84.3815     2736.00000
    84.3946     2499.00000
    84.4078     2622.00000
    84.4209     2600.00000
    84.4340     2468.00000
    84.4472     2544.00000
    84.4603     2545.00000
    84.4734     2543.00000
    84.4866     2533.00000
    84.4997     2503.00000
    84.5128     2445.00000
    84.5260     2487.00000
    84.5391     2440.00000
    84.5522     2520.00000
    84.5653     2635.00000
    84.5785     2573.00000
    84.5916     2620.00000
    84.6047     2582.00000
    84.6179     2569.00000
    84.6310     2586.00000
    84.6441     2562.00000
    84.6573     2533.00000
    84.6704     2556.00000
    84.6835     2524.00000
    84.6966     2511.00000
    84.7098     2644.00000
    84.7229     2514.00000
    84.7360     2406.00000
    84.7492     2517.00000
    84.7623     2459.00000
    84.7754     2608.00000
    84.7886     2563.00000
    84.8017     2488.00000
    84.8148     2510.00000
    84.8279     2566.00000
    84.8411     2587.00000
    84.8542     2550.00000
    84.8673     2596.00000
    84.8805     2558.00000
    84.8936     2654.00000
    84.9067     2753.00000
    84.9199     2718.00000
    84.9330     2822.00000
    84.9461     2821.00000
    84.9593     2835.00000
    84.9724     3019.00000
    84.9855     3039.00000
    84.9986     2989.00000
    85.0118     3070.00000
    85.0249     2992.00000
    85.0380     3037.00000
    85.0512     3088.00000
    85.0643     3155.00000
    85.0774     3206.00000
    85.0906     3328.00000
    85.1037     3430.00000
    85.1168     3313.00000
    85.1299     3423.00000
    85.1431     3395.00000
    85.1562     3460.00000
    85.1693     3554.00000
    85.1825     3721.00000
    85.1956     3652.00000
    85.2087     3710.00000
    85.2219     3840.00000
    85.2350     3993.00000
    85.2481     4004.00000
    85.2612     4128.00000
    85.2744     4108.00000
    85.2875     4313.00000
    85.3006     4263.00000
    85.3138     4303.00000
    85.3269     4150.00000
    85.3400     3987.00000
    85.3532     3863.00000
    85.3663     3727.00000
    85.3794     3625.00000
    85.3925     3489.00000
    85.4057     3414.00000
    85.4188     3487.00000
    85.4319     3328.00000
    85.4451     3344.00000
    85.4582     3250.00000
    85.4713     3160.00000
    85.4845     3199.00000
    85.4976     3158.00000
    85.5107     3273.00000
    85.5238     3300.00000
    85.5370     3240.00000
    85.5501     3345.00000
    85.5632     3311.00000
    85.5764     3240.00000
    85.5895     3133.00000
    85.6026     3159.00000
    85.6158     2917.00000
    85.6289     2907.00000
    85.6420     2770.00000
    85.6552     2828.00000
    85.6683     2799.00000
    85.6814     2734.00000
    85.6945     2719.00000
    85.7077     2769.00000
    85.7208     2649.00000
    85.7339     2649.00000
    85.7471     2608.00000
    85.7602     2515.00000
    85.7733     2594.00000
    85.7865     2533.00000
    85.7996     2533.00000
    85.8127     2625.00000
    85.8259     2528.00000
    85.8390     2615.00000
    85.8521     2776.00000
    85.8652     2722.00000
    85.8784     2762.00000
    85.8915     2794.00000
    85.9046     2938.00000
    85.9178     2881.00000
    85.9309     3004.00000
    85.9440     2983.00000
    85.9572     3160.00000
    85.9703     3122.00000
    85.9834     3097.00000
    85.9965     3043.00000
    86.0097     2946.00000
    86.0228     2982.00000
    86.0359     2814.00000
    86.0491     2725.00000
    86.0622     2700.00000
    86.0753     2622.00000
    86.0885     2618.00000
    86.1016     2652.00000
    86.1147     2642.00000
    86.1278     2548.00000
    86.1410     2674.00000
    86.1541     2660.00000
    86.1672     2595.00000
    86.1804     2546.00000
    86.1935     2724.00000
    86.2066     2757.00000
    86.2198     2799.00000
    86.2329     2717.00000
    86.2460     2755.00000
    86.2591     2764.00000
    86.2723     2765.00000
    86.2854     2721.00000
    86.2985     2656.00000
    86.3117     2653.00000
    86.3248     2682.00000
    86.3379     2666.00000
    86.3511     2640.00000
    86.3642     2665.00000
    86.3773     2577.00000
    86.3904     2663.00000
    86.4036     2723.00000
    86.4167     2725.00000
    86.4298     2948.00000
    86.4430     2894.00000
    86.4561     3078.00000
    86.4692     3247.00000
    86.4824     3195.00000
    86.4955     3383.00000
    86.5086     3307.00000
    86.5218     3320.00000
    86.5349     3157.00000
    86.5480     3041.00000
    86.5611     2983.00000
    86.5743     2917.00000
    86.5874     2855.00000
    86.6005     2837.00000
    86.6137     2690.00000
    86.6268     2685.00000
    86.6399     2794.00000
    86.6531     2731.00000
    86.6662     2603.00000
    86.6793     2700.00000
    86.6925     2749.00000
    86.7056     2809.00000
    86.7187     2845.00000
    86.7318     2790.00000
    86.7450     2922.00000
    86.7581     2995.00000
    86.7712     2985.00000
    86.7844     3088.00000
    86.7975     2938.00000
    86.8106     2977.00000
    86.8238     2935.00000
    86.8369     2916.00000
    86.8500     2844.00000
    86.8631     2822.00000
    86.8763     2891.00000
    86.8894     2952.00000
    86.9025     3026.00000
    86.9157     3028.00000
    86.9288     3161.00000
    86.9419     3371.00000
    86.9551     3231.00000
    86.9682     3230.00000
    86.9813     3420.00000
    86.9944     3423.00000
    87.0076     3353.00000
    87.0207     3231.00000
    87.0338     3248.00000
    87.0470     3080.00000
    87.0601     3019.00000
    87.0732     3034.00000
    87.0864     3045.00000
    87.0995     2968.00000
    87.1126     2951.00000
    87.1257     2935.00000
    87.1389     2800.00000
    87.1520     2825.00000
    87.1651     2689.00000
    87.1783     2861.00000
    87.1914     2851.00000
    87.2045     2901.00000
    87.2177     3021.00000
    87.2308     3048.00000
    87.2439     2941.00000
    87.2570     3028.00000
    87.2702     3004.00000
    87.2833     3005.00000
    87.2964     2969.00000
    87.3096     2864.00000
    87.3227     2786.00000
    87.3358     2862.00000
    87.3490     2839.00000
    87.3621     2762.00000
    87.3752     2882.00000
    87.3884     2858.00000
    87.4015     2693.00000
    87.4146     2717.00000
    87.4277     2692.00000
    87.4409     2772.00000
    87.4540     2658.00000
    87.4671     2816.00000
    87.4803     2821.00000
    87.4934     2818.00000
    87.5065     2978.00000
    87.5197     3087.00000
    87.5328     3204.00000
    87.5459     3308.00000
    87.5590     3428.00000
    87.5722     3491.00000
    87.5853     3570.00000
    87.5984     3501.00000
    87.6116     3272.00000
    87.6247     3160.00000
    87.6378     3171.00000
    87.6510     3065.00000
    87.6641     2870.00000
    87.6772     2909.00000
    87.6904     2834.00000
    87.7035     2809.00000
    87.7166     2845.00000
    87.7297     2806.00000
    87.7429     2813.00000
    87.7560     2775.00000
    87.7691     2811.00000
    87.7823     2890.00000
    87.7954     2905.00000
    87.8085     2912.00000
    87.8217     3047.00000
    87.8348     3165.00000
    87.8479     3258.00000
    87.8610     3177.00000
    87.8742     3284.00000
    87.8873     3545.00000
    87.9004     3578.00000
    87.9136     3522.00000
    87.9267     3681.00000
    87.9398     3764.00000
    87.9530     3772.00000
    87.9661     3859.00000
    87.9792     3861.00000
    87.9923     3793.00000
    88.0055     3697.00000
    88.0186     3621.00000
    88.0317     3375.00000
    88.0449     3200.00000
    88.0580     3069.00000
    88.0711     2905.00000
    88.0843     2859.00000
    88.0974     2894.00000
    88.1105     2768.00000
    88.1236     2862.00000
    88.1368     2821.00000
    88.1499     2886.00000
    88.1630     2879.00000
    88.1762     2931.00000
    88.1893     3062.00000
    88.2024     2965.00000
    88.2156     3234.00000
    88.2287     3228.00000
    88.2418     3427.00000
    88.2550     3337.00000
    88.2681     3385.00000
    88.2812     3329.00000
    88.2943     3324.00000
    88.3075     3208.00000
    88.3206     3131.00000
    88.3337     2998.00000
    88.3469     2960.00000
    88.3600     2830.00000
    88.3731     2843.00000
    88.3863     2695.00000
    88.3994     2634.00000
    88.4125     2722.00000
    88.4256     2561.00000
    88.4388     2633.00000
    88.4519     2581.00000
    88.4650     2619.00000
    88.4782     2616.00000
    88.4913     2555.00000
    88.5044     2567.00000
    88.5176     2650.00000
    88.5307     2569.00000
    88.5438     2614.00000
    88.5569     2722.00000
    88.5701     2700.00000
    88.5832     2550.00000
    88.5963     2593.00000
    88.6095     2764.00000
    88.6226     2652.00000
    88.6357     2643.00000
    88.6489     2707.00000
    88.6620     2626.00000
    88.6751     2644.00000
    88.6882     2621.00000
    88.7014     2617.00000
    88.7145     2745.00000
    88.7276     2733.00000
    88.7408     2821.00000
    88.7539     2915.00000
    88.7670     2996.00000
    88.7802     3091.00000
    88.7933     3142.00000
    88.8064     3241.00000
    88.8196     3352.00000
    88.8327     3345.00000
    88.8458     3316.00000
    88.8589     3270.00000
    88.8721     3158.00000
    88.8852     3131.00000
    88.8983     3053.00000
    88.9115     2836.00000
    88.9246     2894.00000
    88.9377     2884.00000
    88.9509     2733.00000
    88.9640     2794.00000
    88.9771     2735.00000
    88.9902     2660.00000
    89.0034     2648.00000
    89.0165     2686.00000
    89.0296     2753.00000
    89.0428     2784.00000
    89.0559     2816.00000
    89.0690     2993.00000
    89.0822     2919.00000
    89.0953     3079.00000
    89.1084     3087.00000
    89.1216     3178.00000
    89.1347     3197.00000
    89.1478     3180.00000
    89.1609     3025.00000
    89.1741     3132.00000
    89.1872     3010.00000
    89.2003     2965.00000
    89.2135     2949.00000
    89.2266     2847.00000
    89.2397     2928.00000
    89.2529     2760.00000
    89.2660     2813.00000
    89.2791     2795.00000
    89.2922     2542.00000
    89.3054     2533.00000
    89.3185     2605.00000
    89.3316     2572.00000
    89.3448     2550.00000
    89.3579     2589.00000
    89.3710     2652.00000
    89.3842     2540.00000
    89.3973     2680.00000
    89.4104     2588.00000
    89.4235     2732.00000
    89.4367     2708.00000
    89.4498     2582.00000
    89.4629     2744.00000
    89.4761     2649.00000
    89.4892     2648.00000
    89.5023     2733.00000
    89.5155     2806.00000
    89.5286     2719.00000
    89.5417     2626.00000
    89.5548     2686.00000
    89.5680     2774.00000
    89.5811     2725.00000
    89.5942     2730.00000
    89.6074     2855.00000
    89.6205     2959.00000
    89.6336     2957.00000
    89.6468     2956.00000
    89.6599     3073.00000
    89.6730     3104.00000
    89.6861     3245.00000
    89.6993     3394.00000
    89.7124     3460.00000
    89.7255     3703.00000
    89.7387     3802.00000
    89.7518     3931.00000
    89.7649     3664.00000
    89.7781     3623.00000
    89.7912     3500.00000
    89.8043     3398.00000
    89.8175     3366.00000
    89.8306     3343.00000
    89.8437     3466.00000
    89.8568     3413.00000
    89.8700     3508.00000
    89.8831     3558.00000
    89.8962     3579.00000
    89.9094     3764.00000
    89.9225     3644.00000
    89.9356     3537.00000
    89.9488     3700.00000
    89.9619     3562.00000
    89.9750     3459.00000
    89.9882     3424.00000
    90.0013     3447.00000
    90.0144     3372.00000
    90.0275     3466.00000
    90.0407     3384.00000
    90.0538     3408.00000
    90.0669     3370.00000
    90.0801     3356.00000
    90.0932     3286.00000
    90.1063     3355.00000
    90.1195     3358.00000
    90.1326     3452.00000
    90.1457     3661.00000
    90.1588     3617.00000
    90.1720     3731.00000
    90.1851     3656.00000
    90.1982     3702.00000
    90.2114     3483.00000
    90.2245     3197.00000
    90.2376     3041.00000
    90.2508     3099.00000
    90.2639     2983.00000
    90.2770     2841.00000
    90.2901     2824.00000
    90.3033     2834.00000
    90.3164     2667.00000
    90.3295     2877.00000
    90.3427     2763.00000
    90.3558     2698.00000
    90.3689     2801.00000
    90.3821     2845.00000
    90.3952     2715.00000
    90.4083     2900.00000
    90.4214     2955.00000
    90.4346     2860.00000
    90.4477     3010.00000
    90.4608     2963.00000
    90.4740     3021.00000
    90.4871     2920.00000
    90.5002     2900.00000
    90.5134     2943.00000
    90.5265     2840.00000
    90.5396     2931.00000
    90.5527     2978.00000
    90.5659     3038.00000
    90.5790     3034.00000
    90.5921     3078.00000
    90.6053     3050.00000
    90.6184     3055.00000
    90.6315     3004.00000
    90.6447     3189.00000
    90.6578     3160.00000
    90.6709     3062.00000
    90.6841     3007.00000
    90.6972     2896.00000
    90.7103     2824.00000
    90.7234     2801.00000
    90.7366     2724.00000
    90.7497     2793.00000
    90.7628     2837.00000
    90.7760     2692.00000
    90.7891     2796.00000
    90.8022     2779.00000
    90.8154     2762.00000
    90.8285     2705.00000
    90.8416     2857.00000
    90.8548     2776.00000
    90.8679     2839.00000
    90.8810     2739.00000
    90.8941     2791.00000
    90.9073     2921.00000
    90.9204     2948.00000
    90.9335     2928.00000
    90.9467     3035.00000
    90.9598     3087.00000
    90.9729     3096.00000
    90.9861     3037.00000
    90.9992     3210.00000
    91.0123     3229.00000
    91.0254     3353.00000
    91.0386     3438.00000
    91.0517     3257.00000
    91.0648     3517.00000
    91.0780     3506.00000
    91.0911     3457.00000
    91.1042     3509.00000
    91.1174     3494.00000
    91.1305     3402.00000
    91.1436     3345.00000
    91.1567     3360.00000
    91.1699     3162.00000
    91.1830     3102.00000
    91.1961     3182.00000
    91.2093     3098.00000
    91.2224     3003.00000
    91.2355     2942.00000
    91.2487     2963.00000
    91.2618     3053.00000
    91.2749     3148.00000
    91.2880     3142.00000
    91.3012     3441.00000
    91.3143     3305.00000
    91.3274     3465.00000
    91.3406     3594.00000
    91.3537     3582.00000
    91.3668     3603.00000
    91.3800     3529.00000
    91.3931     3792.00000
    91.4062     3880.00000
    91.4193     3902.00000
    91.4325     4117.00000
    91.4456     4016.00000
    91.4587     4072.00000
    91.4719     3734.00000
    91.4850     3782.00000
    91.4981     3502.00000
    91.5113     3357.00000
    91.5244     3319.00000
    91.5375     3312.00000
    91.5507     3187.00000
    91.5638     2940.00000
    91.5769     2967.00000
    91.5900     3001.00000
    91.6032     3023.00000
    91.6163     2960.00000
    91.6294     3076.00000
    91.6426     3052.00000
    91.6557     3161.00000
    91.6688     3028.00000
    91.6820     3118.00000
    91.6951     3136.00000
    91.7082     3201.00000
    91.7213     3123.00000
    91.7345     3248.00000
    91.7476     3097.00000
    91.7607     3162.00000
    91.7739     3100.00000
    91.7870     3124.00000
    91.8001     2914.00000
    91.8133     2942.00000
    91.8264     2890.00000
    91.8395     2752.00000
    91.8526     2776.00000
    91.8658     2757.00000
    91.8789     2762.00000
    91.8920     2716.00000
    91.9052     2878.00000
    91.9183     2871.00000
    91.9314     2810.00000
    91.9446     2851.00000
    91.9577     2891.00000
    91.9708     3089.00000
    91.9840     3114.00000
    91.9971     3122.00000
    92.0102     3082.00000
    92.0233     3168.00000
    92.0365     3110.00000
    92.0496     2945.00000
    92.0627     3016.00000
    92.0759     3059.00000
    92.0890     3068.00000
    92.1021     2985.00000
    92.1153     2972.00000
    92.1284     2996.00000
    92.1415     3086.00000
    92.1546     3052.00000
    92.1678     3007.00000
    92.1809     3048.00000
    92.1940     3056.00000
    92.2072     3009.00000
    92.2203     3157.00000
    92.2334     3188.00000
    92.2466     3099.00000
    92.2597     3339.00000
    92.2728     3421.00000
    92.2859     3644.00000
    92.2991     3671.00000
    92.3122     3696.00000
    92.3253     3812.00000
    92.3385     3717.00000
    92.3516     3695.00000
    92.3647     3471.00000
    92.3779     3464.00000
    92.3910     3280.00000
    92.4041     3146.00000
    92.4173     3149.00000
    92.4304     3057.00000
    92.4435     2974.00000
    92.4566     2847.00000
    92.4698     2948.00000
    92.4829     2950.00000
    92.4960     2788.00000
    92.5092     2924.00000
    92.5223     2782.00000
    92.5354     2899.00000
    92.5486     2822.00000
    92.5617     2932.00000
    92.5748     3015.00000
    92.5879     2905.00000
    92.6011     2907.00000
    92.6142     2994.00000
    92.6273     3096.00000
    92.6405     2940.00000
    92.6536     2897.00000
    92.6667     2937.00000
    92.6799     2721.00000
    92.6930     2698.00000
    92.7061     2695.00000
    92.7192     2703.00000
    92.7324     2557.00000
    92.7455     2511.00000
    92.7586     2611.00000
    92.7718     2499.00000
    92.7849     2444.00000
    92.7980     2561.00000
    92.8112     2521.00000
    92.8243     2465.00000
    92.8374     2600.00000
    92.8505     2495.00000
    92.8637     2512.00000
    92.8768     2574.00000
    92.8899     2459.00000
    92.9031     2458.00000
    92.9162     2435.00000
    92.9293     2475.00000
    92.9425     2454.00000
    92.9556     2502.00000
    92.9687     2345.00000
    92.9819     2531.00000
    92.9950     2413.00000
    93.0081     2507.00000
    93.0212     2409.00000
    93.0344     2504.00000
    93.0475     2473.00000
    93.0606     2509.00000
    93.0738     2423.00000
    93.0869     2428.00000
    93.1000     2458.00000
    93.1132     2462.00000
    93.1263     2450.00000
    93.1394     2466.00000
    93.1525     2616.00000
    93.1657     2459.00000
    93.1788     2575.00000
    93.1919     2541.00000
    93.2051     2441.00000
    93.2182     2437.00000
    93.2313     2497.00000
    93.2445     2565.00000
    93.2576     2529.00000
    93.2707     2638.00000
    93.2839     2685.00000
    93.2970     2603.00000
    93.3101     2702.00000
    93.3232     2800.00000
    93.3364     2932.00000
    93.3495     3019.00000
    93.3626     3060.00000
    93.3758     3115.00000
    93.3889     3214.00000
    93.4020     3100.00000
    93.4152     3045.00000
    93.4283     2977.00000
    93.4414     3030.00000
    93.4545     2830.00000
    93.4677     2780.00000
    93.4808     2731.00000
    93.4939     2718.00000
    93.5071     2721.00000
    93.5202     2641.00000
    93.5333     2725.00000
    93.5465     2718.00000
    93.5596     2786.00000
    93.5727     2906.00000
    93.5858     2886.00000
    93.5990     2833.00000
    93.6121     2958.00000
    93.6252     2993.00000
    93.6384     2974.00000
    93.6515     3034.00000
    93.6646     3018.00000
    93.6778     3047.00000
    93.6909     3041.00000
    93.7040     3008.00000
    93.7171     2920.00000
    93.7303     2833.00000
    93.7434     2792.00000
    93.7565     2793.00000
    93.7697     2737.00000
    93.7828     2683.00000
    93.7959     2731.00000
    93.8091     2699.00000
    93.8222     2615.00000
    93.8353     2621.00000
    93.8484     2707.00000
    93.8616     2656.00000
    93.8747     2752.00000
    93.8878     2731.00000
    93.9010     2746.00000
    93.9141     2620.00000
    93.9272     2658.00000
    93.9404     2662.00000
    93.9535     2695.00000
    93.9666     2682.00000
    93.9798     2710.00000
    93.9929     2692.00000
    94.0060     2695.00000
    94.0191     2683.00000
    94.0323     2640.00000
    94.0454     2767.00000
    94.0585     2820.00000
    94.0717     2771.00000
    94.0848     2881.00000
    94.0979     3001.00000
    94.1111     2972.00000
    94.1242     3005.00000
    94.1373     2960.00000
    94.1505     2990.00000
    94.1636     3011.00000
    94.1767     2998.00000
    94.1898     3022.00000
    94.2030     2948.00000
    94.2161     2885.00000
    94.2292     2917.00000
    94.2424     2920.00000
    94.2555     2813.00000
    94.2686     2932.00000
    94.2818     2855.00000
    94.2949     2931.00000
    94.3080     2961.00000
    94.3211     3192.00000
    94.3343     3153.00000
    94.3474     3274.00000
    94.3605     3342.00000
    94.3737     3257.00000
    94.3868     3163.00000
    94.3999     3178.00000
    94.4131     2997.00000
    94.4262     3047.00000
    94.4393     2991.00000
    94.4524     2794.00000
    94.4656     2882.00000
    94.4787     2858.00000
    94.4918     2806.00000
    94.5050     2733.00000
    94.5181     2731.00000
    94.5312     2750.00000
    94.5444     2695.00000
    94.5575     2661.00000
    94.5706     2672.00000
    94.5837     2573.00000
    94.5969     2728.00000
    94.6100     2757.00000
    94.6231     2728.00000
    94.6363     2780.00000
    94.6494     2823.00000
    94.6625     2963.00000
    94.6757     2763.00000
    94.6888     2730.00000
    94.7019     2596.00000
    94.7150     2666.00000
    94.7282     2624.00000
    94.7413     2580.00000
    94.7544     2483.00000
    94.7676     2491.00000
    94.7807     2395.00000
    94.7938     2460.00000
    94.8070     2480.00000
    94.8201     2413.00000
    94.8332     2428.00000
    94.8464     2474.00000
    94.8595     2441.00000
    94.8726     2481.00000
    94.8857     2424.00000
    94.8989     2416.00000
    94.9120     2316.00000
    94.9251     2365.00000
    94.9383     2451.00000
    94.9514     2395.00000
    94.9645     2574.00000
    94.9777     2475.00000
    94.9908     2416.00000
    95.0039     2532.00000
    95.0170     2443.00000
    95.0302     2396.00000
    95.0433     2490.00000
    95.0564     2397.00000
    95.0696     2444.00000
    95.0827     2500.00000
    95.0958     2526.00000
    95.1090     2478.00000
    95.1221     2557.00000
    95.1352     2488.00000
    95.1484     2453.00000
    95.1615     2438.00000
    95.1746     2315.00000
    95.1877     2574.00000
    95.2009     2355.00000
    95.2140     2363.00000
    95.2271     2446.00000
    95.2403     2437.00000
    95.2534     2417.00000
    95.2665     2369.00000
    95.2797     2324.00000
    95.2928     2400.00000
    95.3059     2450.00000
    95.3190     2489.00000
    95.3322     2411.00000
    95.3453     2480.00000
    95.3584     2356.00000
    95.3716     2508.00000
    95.3847     2346.00000
    95.3978     2476.00000
    95.4110     2372.00000
    95.4241     2484.00000
    95.4372     2529.00000
    95.4503     2450.00000
    95.4635     2463.00000
    95.4766     2465.00000
    95.4897     2429.00000
    95.5029     2424.00000
    95.5160     2470.00000
    95.5291     2536.00000
    95.5423     2416.00000
    95.5554     2491.00000
    95.5685     2492.00000
    95.5816     2527.00000
    95.5948     2530.00000
    95.6079     2629.00000
    95.6210     2503.00000
    95.6342     2519.00000
    95.6473     2526.00000
    95.6604     2579.00000
    95.6736     2562.00000
    95.6867     2562.00000
    95.6998     2517.00000
    95.7130     2528.00000
    95.7261     2493.00000
    95.7392     2410.00000
    95.7523     2453.00000
    95.7655     2527.00000
    95.7786     2487.00000
    95.7917     2469.00000
    95.8049     2353.00000
    95.8180     2510.00000
    95.8311     2400.00000
    95.8443     2443.00000
    95.8574     2469.00000
    95.8705     2498.00000
    95.8836     2552.00000
    95.8968     2494.00000
    95.9099     2598.00000
    95.9230     2607.00000
    95.9362     2541.00000
    95.9493     2601.00000
    95.9624     2492.00000
    95.9756     2604.00000
    95.9887     2513.00000
    96.0018     2602.00000
    96.0149     2571.00000
    96.0281     2551.00000
    96.0412     2513.00000
    96.0543     2637.00000
    96.0675     2617.00000
    96.0806     2561.00000
    96.0937     2639.00000
    96.1069     2713.00000
    96.1200     2795.00000
    96.1331     2824.00000
    96.1463     2773.00000
    96.1594     2904.00000
    96.1725     3134.00000
    96.1856     3271.00000
    96.1988     3363.00000
    96.2119     3466.00000
    96.2250     3462.00000
    96.2382     3445.00000
    96.2513     3428.00000
    96.2644     3342.00000
    96.2776     3325.00000
    96.2907     3230.00000
    96.3038     3182.00000
    96.3169     3224.00000
    96.3301     3229.00000
    96.3432     3334.00000
    96.3563     3387.00000
    96.3695     3416.00000
    96.3826     3400.00000
    96.3957     3515.00000
    96.4089     3574.00000
    96.4220     3557.00000
    96.4351     3357.00000
    96.4482     3368.00000
    96.4614     3226.00000
    96.4745     3265.00000
    96.4876     3352.00000
    96.5008     3242.00000
    96.5139     3172.00000
    96.5270     3127.00000
    96.5402     3223.00000
    96.5533     3173.00000
    96.5664     3082.00000
    96.5796     3035.00000
    96.5927     2978.00000
    96.6058     2997.00000
    96.6189     3037.00000
    96.6321     2938.00000
    96.6452     2857.00000
    96.6583     3032.00000
    96.6715     2936.00000
    96.6846     2942.00000
    96.6977     3004.00000
    96.7109     2971.00000
    96.7240     2967.00000
    96.7371     3045.00000
    96.7502     2890.00000
    96.7634     2984.00000
    96.7765     2767.00000
    96.7896     2741.00000
    96.8028     2702.00000
    96.8159     2638.00000
    96.8290     2659.00000
    96.8422     2576.00000
    96.8553     2608.00000
    96.8684     2512.00000
    96.8815     2435.00000
    96.8947     2592.00000
    96.9078     2589.00000
    96.9209     2589.00000
    96.9341     2489.00000
    96.9472     2485.00000
    96.9603     2541.00000
    96.9735     2498.00000
    96.9866     2594.00000
    96.9997     2485.00000
    97.0128     2492.00000
    97.0260     2601.00000
    97.0391     2486.00000
    97.0522     2517.00000
    97.0654     2476.00000
    97.0785     2521.00000
    97.0916     2604.00000
    97.1048     2577.00000
    97.1179     2674.00000
    97.1310     2699.00000
    97.1442     2702.00000
    97.1573     2749.00000
    97.1704     2765.00000
    97.1835     2876.00000
    97.1967     2899.00000
    97.2098     3103.00000
    97.2229     3166.00000
    97.2361     3129.00000
    97.2492     3292.00000
    97.2623     3320.00000
    97.2755     3326.00000
    97.2886     3397.00000
    97.3017     3275.00000
    97.3148     3271.00000
    97.3280     3238.00000
    97.3411     3139.00000
    97.3542     3168.00000
    97.3674     3102.00000
    97.3805     3132.00000
    97.3936     3123.00000
    97.4068     3083.00000
    97.4199     3004.00000
    97.4330     2929.00000
    97.4462     2922.00000
    97.4593     2827.00000
    97.4724     2887.00000
    97.4855     2708.00000
    97.4987     2852.00000
    97.5118     2781.00000
    97.5249     2894.00000
    97.5381     2755.00000
    97.5512     2775.00000
    97.5643     2782.00000
    97.5775     2858.00000
    97.5906     2937.00000
    97.6037     2991.00000
    97.6168     3093.00000
    97.6300     2939.00000
    97.6431     2911.00000
    97.6562     2883.00000
    97.6694     2850.00000
    97.6825     2887.00000
    97.6956     2824.00000
    97.7088     2821.00000
    97.7219     2812.00000
    97.7350     2728.00000
    97.7481     2724.00000
    97.7613     2808.00000
    97.7744     2757.00000
    97.7875     2632.00000
    97.8007     2612.00000
    97.8138     2593.00000
    97.8269     2499.00000
    97.8401     2563.00000
    97.8532     2533.00000
    97.8663     2673.00000
    97.8794     2691.00000
    97.8926     2650.00000
    97.9057     2649.00000
    97.9188     2608.00000
    97.9320     2683.00000
    97.9451     2692.00000
    97.9582     2638.00000
    97.9714     2755.00000
    97.9845     2828.00000
    97.9976     2769.00000
    98.0107     2750.00000
    98.0239     2902.00000
    98.0370     2976.00000
    98.0501     2885.00000
    98.0633     2947.00000
    98.0764     2945.00000
    98.0895     3041.00000
    98.1027     2959.00000
    98.1158     2908.00000
    98.1289     2966.00000
    98.1421     2955.00000
    98.1552     2897.00000
    98.1683     2907.00000
    98.1814     3003.00000
    98.1946     2944.00000
    98.2077     3085.00000
    98.2208     3046.00000
    98.2340     3123.00000
    98.2471     3250.00000
    98.2602     3252.00000
    98.2734     3252.00000
    98.2865     3386.00000
    98.2996     3451.00000
    98.3128     3563.00000
    98.3259     3710.00000
    98.3390     3715.00000
    98.3521     3680.00000
    98.3653     3841.00000
    98.3784     3863.00000
    98.3915     3828.00000
    98.4047     3875.00000
    98.4178     3797.00000
    98.4309     3690.00000
    98.4441     3486.00000
    98.4572     3372.00000
    98.4703     3332.00000
    98.4834     3205.00000
    98.4966     3242.00000
    98.5097     3159.00000
    98.5228     3182.00000
    98.5360     3086.00000
    98.5491     3132.00000
    98.5622     3092.00000
    98.5754     3231.00000
    98.5885     3350.00000
    98.6016     3287.00000
    98.6147     3317.00000
    98.6279     3367.00000
    98.6410     3446.00000
    98.6541     3431.00000
    98.6673     3535.00000
    98.6804     3713.00000
    98.6935     3798.00000
    98.7067     3869.00000
    98.7198     4174.00000
    98.7329     4122.00000
    98.7460     4124.00000
    98.7592     4118.00000
    98.7723     4047.00000
    98.7854     4191.00000
    98.7986     4232.00000
    98.8117     4226.00000
    98.8248     4215.00000
    98.8380     4204.00000
    98.8511     4212.00000
    98.8642     4065.00000
    98.8773     4056.00000
    98.8905     4108.00000
    98.9036     4136.00000
    98.9167     4263.00000
    98.9299     4220.00000
    98.9430     4372.00000
    98.9561     4416.00000
    98.9693     4421.00000
    98.9824     4429.00000
    98.9955     4437.00000
    99.0087     4305.00000
    99.0218     4205.00000
    99.0349     4222.00000
    99.0480     3959.00000
    99.0612     3972.00000
    99.0743     3735.00000
    99.0874     3585.00000
    99.1006     3575.00000
    99.1137     3581.00000
    99.1268     3475.00000
    99.1400     3444.00000
    99.1531     3530.00000
    99.1662     3380.00000
    99.1793     3327.00000
    99.1925     3322.00000
    99.2056     3302.00000
    99.2187     3354.00000
    99.2319     3259.00000
    99.2450     3376.00000
    99.2581     3370.00000
    99.2713     3234.00000
    99.2844     3281.00000
    99.2975     3427.00000
    99.3107     3521.00000
    99.3238     3364.00000
    99.3369     3273.00000
    99.3500     3186.00000
    99.3632     3104.00000
    99.3763     3117.00000
    99.3894     3132.00000
    99.4026     3035.00000
    99.4157     2906.00000
    99.4288     2886.00000
    99.4420     2853.00000
    99.4551     2801.00000
    99.4682     2839.00000
    99.4813     2717.00000
    99.4945     2727.00000
    99.5076     2655.00000
    99.5207     2735.00000
    99.5339     2751.00000
    99.5470     2781.00000
    99.5601     2747.00000
    99.5733     2838.00000
    99.5864     2892.00000
    99.5995     2863.00000
    99.6126     2844.00000
    99.6258     2918.00000
    99.6389     3005.00000
    99.6520     3253.00000
    99.6652     3247.00000
    99.6783     3437.00000
    99.6914     3589.00000
    99.7046     3573.00000
    99.7177     3484.00000
    99.7308     3476.00000
    99.7439     3323.00000
    99.7571     3225.00000
    99.7702     3195.00000
    99.7833     3113.00000
    99.7965     3033.00000
    99.8096     2970.00000
    99.8227     2924.00000
    99.8359     2882.00000
    99.8490     2941.00000
    99.8621     2824.00000
    99.8753     2782.00000
    99.8884     2716.00000
    99.9015     2673.00000
    99.9146     2799.00000
    99.9278     2755.00000
    99.9409     2826.00000
    99.9540     2774.00000
    99.9672     2861.00000
    99.9803     2888.00000
    99.9934     2859.00000
