! Initial file:   D:\ZAKARY_OUAIL\MA_THESE\Deuxième_année_de_thèse\DRX\Manips_DRX\1st_NaTaO2F2_XRK900\NaTaO2F2-Lent_40°C.xrdml
! Initial format:  58
! WAVE (A):      1.54060     1.54060     1.00000
! REM : data have been multiplied by     1.0000
! X_data : 2 Theta (deg.)                                                                                                                                                                                                                                                  
! Y_data : Intensity (arb. units)                                                                                                                                                                                                                                          
!     X         Y
!--------------------------------------------------------------------------------
    10.0116     7369.00000
    10.0247     7552.00000
    10.0379     7534.00000
    10.0510     7522.00000
    10.0641     7508.00000
    10.0772     7301.00000
    10.0904     7343.00000
    10.1035     7333.00000
    10.1166     7276.00000
    10.1298     7403.00000
    10.1429     7254.00000
    10.1560     7500.00000
    10.1692     7154.00000
    10.1823     7364.00000
    10.1954     7304.00000
    10.2086     7382.00000
    10.2217     7203.00000
    10.2348     7130.00000
    10.2479     7291.00000
    10.2611     7199.00000
    10.2742     7426.00000
    10.2873     7191.00000
    10.3005     7186.00000
    10.3136     7091.00000
    10.3267     7222.00000
    10.3399     7350.00000
    10.3530     7298.00000
    10.3661     7251.00000
    10.3792     7191.00000
    10.3924     7340.00000
    10.4055     7116.00000
    10.4186     7195.00000
    10.4318     7171.00000
    10.4449     7277.00000
    10.4580     7198.00000
    10.4712     7283.00000
    10.4843     7137.00000
    10.4974     7129.00000
    10.5105     7262.00000
    10.5237     7055.00000
    10.5368     7077.00000
    10.5499     7050.00000
    10.5631     7040.00000
    10.5762     7083.00000
    10.5893     7121.00000
    10.6025     7052.00000
    10.6156     7078.00000
    10.6287     6995.00000
    10.6418     7001.00000
    10.6550     7028.00000
    10.6681     7226.00000
    10.6812     7178.00000
    10.6944     7051.00000
    10.7075     7239.00000
    10.7206     7218.00000
    10.7338     7082.00000
    10.7469     7188.00000
    10.7600     7220.00000
    10.7732     7165.00000
    10.7863     7384.00000
    10.7994     7441.00000
    10.8125     7392.00000
    10.8257     7317.00000
    10.8388     7444.00000
    10.8519     7260.00000
    10.8651     7268.00000
    10.8782     7452.00000
    10.8913     7432.00000
    10.9045     7464.00000
    10.9176     7500.00000
    10.9307     7575.00000
    10.9438     7746.00000
    10.9570     8153.00000
    10.9701     8408.00000
    10.9832     8904.00000
    10.9964     9354.00000
    11.0095    10321.00000
    11.0226    11172.00000
    11.0358    12779.00000
    11.0489    15469.00000
    11.0620    19927.00000
    11.0751    26266.00000
    11.0883    33619.00000
    11.1014    41698.00000
    11.1145    49245.00000
    11.1277    52370.00000
    11.1408    48929.00000
    11.1539    41869.00000
    11.1671    35194.00000
    11.1802    28133.00000
    11.1933    21965.00000
    11.2065    16964.00000
    11.2196    13099.00000
    11.2327    10382.00000
    11.2458     8946.00000
    11.2590     8074.00000
    11.2721     7823.00000
    11.2852     7610.00000
    11.2984     7484.00000
    11.3115     7455.00000
    11.3246     7163.00000
    11.3378     6965.00000
    11.3509     7080.00000
    11.3640     7048.00000
    11.3771     6859.00000
    11.3903     6853.00000
    11.4034     6890.00000
    11.4165     7060.00000
    11.4297     7089.00000
    11.4428     6906.00000
    11.4559     6835.00000
    11.4691     6890.00000
    11.4822     6934.00000
    11.4953     6733.00000
    11.5084     6820.00000
    11.5216     6784.00000
    11.5347     6835.00000
    11.5478     6801.00000
    11.5610     6772.00000
    11.5741     6823.00000
    11.5872     6726.00000
    11.6004     6850.00000
    11.6135     6802.00000
    11.6266     6511.00000
    11.6398     6619.00000
    11.6529     6686.00000
    11.6660     6679.00000
    11.6791     6602.00000
    11.6923     6697.00000
    11.7054     6618.00000
    11.7185     6667.00000
    11.7317     6740.00000
    11.7448     6587.00000
    11.7579     6738.00000
    11.7711     6551.00000
    11.7842     6724.00000
    11.7973     6613.00000
    11.8104     6731.00000
    11.8236     6566.00000
    11.8367     6624.00000
    11.8498     6687.00000
    11.8630     6516.00000
    11.8761     6661.00000
    11.8892     6666.00000
    11.9024     6481.00000
    11.9155     6584.00000
    11.9286     6484.00000
    11.9417     6541.00000
    11.9549     6494.00000
    11.9680     6509.00000
    11.9811     6515.00000
    11.9943     6415.00000
    12.0074     6567.00000
    12.0205     6583.00000
    12.0337     6525.00000
    12.0468     6550.00000
    12.0599     6387.00000
    12.0731     6531.00000
    12.0862     6349.00000
    12.0993     6292.00000
    12.1124     6355.00000
    12.1256     6635.00000
    12.1387     6390.00000
    12.1518     6471.00000
    12.1650     6319.00000
    12.1781     6297.00000
    12.1912     6471.00000
    12.2044     6502.00000
    12.2175     6397.00000
    12.2306     6280.00000
    12.2437     6374.00000
    12.2569     6470.00000
    12.2700     6361.00000
    12.2831     6413.00000
    12.2963     6436.00000
    12.3094     6249.00000
    12.3225     6322.00000
    12.3357     6250.00000
    12.3488     6316.00000
    12.3619     6296.00000
    12.3750     6397.00000
    12.3882     6407.00000
    12.4013     6360.00000
    12.4144     6195.00000
    12.4276     6259.00000
    12.4407     6359.00000
    12.4538     6280.00000
    12.4670     6344.00000
    12.4801     6169.00000
    12.4932     6144.00000
    12.5063     6311.00000
    12.5195     6439.00000
    12.5326     6301.00000
    12.5457     6199.00000
    12.5589     6321.00000
    12.5720     6291.00000
    12.5851     6254.00000
    12.5983     6225.00000
    12.6114     6241.00000
    12.6245     6257.00000
    12.6377     6256.00000
    12.6508     6157.00000
    12.6639     6344.00000
    12.6770     6180.00000
    12.6902     6242.00000
    12.7033     6220.00000
    12.7164     6125.00000
    12.7296     6149.00000
    12.7427     6192.00000
    12.7558     6182.00000
    12.7690     6155.00000
    12.7821     6098.00000
    12.7952     6200.00000
    12.8083     5970.00000
    12.8215     6275.00000
    12.8346     6141.00000
    12.8477     6080.00000
    12.8609     6073.00000
    12.8740     6225.00000
    12.8871     6112.00000
    12.9003     6249.00000
    12.9134     6207.00000
    12.9265     6227.00000
    12.9396     6092.00000
    12.9528     6089.00000
    12.9659     6050.00000
    12.9790     6077.00000
    12.9922     5973.00000
    13.0053     6022.00000
    13.0184     6018.00000
    13.0316     6193.00000
    13.0447     6110.00000
    13.0578     6060.00000
    13.0710     6150.00000
    13.0841     6184.00000
    13.0972     5996.00000
    13.1103     5993.00000
    13.1235     6263.00000
    13.1366     6146.00000
    13.1497     6086.00000
    13.1629     6116.00000
    13.1760     6055.00000
    13.1891     6081.00000
    13.2023     6081.00000
    13.2154     6049.00000
    13.2285     6111.00000
    13.2416     6052.00000
    13.2548     5972.00000
    13.2679     6125.00000
    13.2810     5964.00000
    13.2942     5824.00000
    13.3073     6003.00000
    13.3204     5978.00000
    13.3336     5978.00000
    13.3467     6040.00000
    13.3598     5970.00000
    13.3729     5911.00000
    13.3861     5992.00000
    13.3992     5878.00000
    13.4123     5891.00000
    13.4255     5869.00000
    13.4386     6061.00000
    13.4517     6052.00000
    13.4649     5956.00000
    13.4780     5933.00000
    13.4911     5882.00000
    13.5043     5884.00000
    13.5174     6102.00000
    13.5305     6006.00000
    13.5436     5894.00000
    13.5568     5899.00000
    13.5699     6033.00000
    13.5830     5996.00000
    13.5962     5869.00000
    13.6093     5779.00000
    13.6224     5876.00000
    13.6356     5701.00000
    13.6487     5732.00000
    13.6618     5851.00000
    13.6749     5997.00000
    13.6881     5783.00000
    13.7012     5842.00000
    13.7143     5913.00000
    13.7275     5849.00000
    13.7406     5747.00000
    13.7537     5963.00000
    13.7669     5856.00000
    13.7800     5860.00000
    13.7931     5839.00000
    13.8062     5859.00000
    13.8194     5733.00000
    13.8325     5803.00000
    13.8456     5798.00000
    13.8588     5937.00000
    13.8719     5894.00000
    13.8850     5736.00000
    13.8982     5852.00000
    13.9113     5816.00000
    13.9244     5874.00000
    13.9376     5771.00000
    13.9507     5762.00000
    13.9638     5764.00000
    13.9769     5673.00000
    13.9901     5862.00000
    14.0032     5783.00000
    14.0163     5641.00000
    14.0295     5564.00000
    14.0426     5761.00000
    14.0557     5551.00000
    14.0689     5626.00000
    14.0820     5652.00000
    14.0951     5677.00000
    14.1082     5716.00000
    14.1214     5668.00000
    14.1345     5711.00000
    14.1476     5709.00000
    14.1608     5618.00000
    14.1739     5664.00000
    14.1870     5743.00000
    14.2002     5509.00000
    14.2133     5618.00000
    14.2264     5663.00000
    14.2395     5687.00000
    14.2527     5571.00000
    14.2658     5726.00000
    14.2789     5755.00000
    14.2921     5671.00000
    14.3052     5569.00000
    14.3183     5768.00000
    14.3315     5548.00000
    14.3446     5533.00000
    14.3577     5459.00000
    14.3708     5633.00000
    14.3840     5621.00000
    14.3971     5428.00000
    14.4102     5471.00000
    14.4234     5503.00000
    14.4365     5510.00000
    14.4496     5437.00000
    14.4628     5549.00000
    14.4759     5604.00000
    14.4890     5550.00000
    14.5022     5585.00000
    14.5153     5625.00000
    14.5284     5587.00000
    14.5415     5636.00000
    14.5547     5618.00000
    14.5678     5521.00000
    14.5809     5604.00000
    14.5941     5549.00000
    14.6072     5455.00000
    14.6203     5519.00000
    14.6335     5495.00000
    14.6466     5594.00000
    14.6597     5589.00000
    14.6728     5570.00000
    14.6860     5672.00000
    14.6991     5330.00000
    14.7122     5421.00000
    14.7254     5492.00000
    14.7385     5465.00000
    14.7516     5471.00000
    14.7648     5529.00000
    14.7779     5511.00000
    14.7910     5392.00000
    14.8041     5400.00000
    14.8173     5465.00000
    14.8304     5448.00000
    14.8435     5554.00000
    14.8567     5562.00000
    14.8698     5304.00000
    14.8829     5420.00000
    14.8961     5466.00000
    14.9092     5454.00000
    14.9223     5483.00000
    14.9355     5483.00000
    14.9486     5502.00000
    14.9617     5420.00000
    14.9748     5401.00000
    14.9880     5371.00000
    15.0011     5382.00000
    15.0142     5445.00000
    15.0274     5240.00000
    15.0405     5372.00000
    15.0536     5462.00000
    15.0668     5187.00000
    15.0799     5313.00000
    15.0930     5469.00000
    15.1061     5276.00000
    15.1193     5400.00000
    15.1324     5411.00000
    15.1455     5370.00000
    15.1587     5372.00000
    15.1718     5305.00000
    15.1849     5426.00000
    15.1981     5400.00000
    15.2112     5374.00000
    15.2243     5476.00000
    15.2374     5355.00000
    15.2506     5353.00000
    15.2637     5329.00000
    15.2768     5454.00000
    15.2900     5357.00000
    15.3031     5463.00000
    15.3162     5461.00000
    15.3294     5434.00000
    15.3425     5355.00000
    15.3556     5266.00000
    15.3688     5348.00000
    15.3819     5329.00000
    15.3950     5281.00000
    15.4081     5309.00000
    15.4213     5343.00000
    15.4344     5406.00000
    15.4475     5271.00000
    15.4607     5332.00000
    15.4738     5379.00000
    15.4869     5310.00000
    15.5001     5352.00000
    15.5132     5241.00000
    15.5263     5145.00000
    15.5394     5296.00000
    15.5526     5285.00000
    15.5657     5293.00000
    15.5788     5299.00000
    15.5920     5299.00000
    15.6051     5368.00000
    15.6182     5266.00000
    15.6314     5291.00000
    15.6445     5122.00000
    15.6576     5157.00000
    15.6707     5402.00000
    15.6839     5305.00000
    15.6970     5226.00000
    15.7101     5135.00000
    15.7233     5157.00000
    15.7364     5221.00000
    15.7495     5286.00000
    15.7627     5415.00000
    15.7758     5319.00000
    15.7889     5163.00000
    15.8021     5345.00000
    15.8152     5149.00000
    15.8283     5362.00000
    15.8414     5343.00000
    15.8546     5068.00000
    15.8677     5259.00000
    15.8808     5147.00000
    15.8940     5100.00000
    15.9071     5269.00000
    15.9202     5331.00000
    15.9334     5334.00000
    15.9465     5222.00000
    15.9596     5166.00000
    15.9727     5239.00000
    15.9859     5269.00000
    15.9990     5249.00000
    16.0121     5280.00000
    16.0253     5290.00000
    16.0384     5136.00000
    16.0515     5179.00000
    16.0647     5097.00000
    16.0778     5213.00000
    16.0909     5216.00000
    16.1040     5184.00000
    16.1172     5146.00000
    16.1303     5453.00000
    16.1434     5286.00000
    16.1566     5283.00000
    16.1697     5294.00000
    16.1828     5320.00000
    16.1960     5180.00000
    16.2091     5329.00000
    16.2222     5370.00000
    16.2353     5334.00000
    16.2485     5355.00000
    16.2616     5299.00000
    16.2747     5412.00000
    16.2879     5338.00000
    16.3010     5305.00000
    16.3141     5351.00000
    16.3273     5163.00000
    16.3404     5248.00000
    16.3535     5218.00000
    16.3667     5245.00000
    16.3798     5400.00000
    16.3929     5226.00000
    16.4060     5382.00000
    16.4192     5397.00000
    16.4323     5326.00000
    16.4454     5444.00000
    16.4586     5309.00000
    16.4717     5242.00000
    16.4848     5256.00000
    16.4980     5259.00000
    16.5111     5232.00000
    16.5242     5221.00000
    16.5373     5236.00000
    16.5505     5263.00000
    16.5636     5226.00000
    16.5767     5231.00000
    16.5899     5082.00000
    16.6030     5173.00000
    16.6161     5157.00000
    16.6293     5089.00000
    16.6424     5003.00000
    16.6555     5259.00000
    16.6686     5077.00000
    16.6818     4974.00000
    16.6949     5122.00000
    16.7080     5081.00000
    16.7212     5047.00000
    16.7343     5078.00000
    16.7474     5140.00000
    16.7606     5034.00000
    16.7737     4991.00000
    16.7868     4945.00000
    16.8000     5002.00000
    16.8131     5161.00000
    16.8262     4917.00000
    16.8393     5146.00000
    16.8525     4955.00000
    16.8656     4930.00000
    16.8787     4887.00000
    16.8919     4934.00000
    16.9050     4952.00000
    16.9181     5168.00000
    16.9313     4985.00000
    16.9444     4905.00000
    16.9575     5023.00000
    16.9706     4948.00000
    16.9838     4993.00000
    16.9969     4962.00000
    17.0100     4955.00000
    17.0232     5047.00000
    17.0363     5008.00000
    17.0494     5000.00000
    17.0626     4976.00000
    17.0757     4958.00000
    17.0888     4980.00000
    17.1019     4893.00000
    17.1151     4940.00000
    17.1282     4929.00000
    17.1413     5030.00000
    17.1545     4918.00000
    17.1676     5110.00000
    17.1807     4959.00000
    17.1939     4898.00000
    17.2070     4973.00000
    17.2201     4933.00000
    17.2333     5030.00000
    17.2464     5092.00000
    17.2595     5063.00000
    17.2726     5152.00000
    17.2858     5184.00000
    17.2989     5171.00000
    17.3120     5153.00000
    17.3252     5167.00000
    17.3383     5250.00000
    17.3514     4981.00000
    17.3646     5072.00000
    17.3777     4963.00000
    17.3908     5007.00000
    17.4039     5026.00000
    17.4171     4986.00000
    17.4302     4718.00000
    17.4433     4997.00000
    17.4565     4879.00000
    17.4696     4879.00000
    17.4827     4992.00000
    17.4959     4796.00000
    17.5090     4885.00000
    17.5221     4770.00000
    17.5352     4769.00000
    17.5484     4839.00000
    17.5615     4737.00000
    17.5746     4834.00000
    17.5878     4785.00000
    17.6009     4821.00000
    17.6140     4739.00000
    17.6272     4784.00000
    17.6403     4832.00000
    17.6534     4821.00000
    17.6666     4849.00000
    17.6797     4768.00000
    17.6928     4890.00000
    17.7059     4893.00000
    17.7191     4849.00000
    17.7322     4867.00000
    17.7453     4976.00000
    17.7585     4987.00000
    17.7716     5008.00000
    17.7847     5097.00000
    17.7979     5099.00000
    17.8110     5182.00000
    17.8241     5066.00000
    17.8372     5075.00000
    17.8504     5002.00000
    17.8635     4867.00000
    17.8766     4840.00000
    17.8898     4806.00000
    17.9029     4874.00000
    17.9160     4840.00000
    17.9292     4773.00000
    17.9423     4715.00000
    17.9554     4906.00000
    17.9685     4601.00000
    17.9817     4789.00000
    17.9948     4728.00000
    18.0079     4722.00000
    18.0211     4790.00000
    18.0342     4683.00000
    18.0473     4669.00000
    18.0605     4691.00000
    18.0736     4645.00000
    18.0867     4739.00000
    18.0998     4577.00000
    18.1130     4607.00000
    18.1261     4614.00000
    18.1392     4624.00000
    18.1524     4633.00000
    18.1655     4643.00000
    18.1786     4739.00000
    18.1918     4741.00000
    18.2049     4630.00000
    18.2180     4684.00000
    18.2312     4621.00000
    18.2443     4534.00000
    18.2574     4652.00000
    18.2705     4594.00000
    18.2837     4693.00000
    18.2968     4649.00000
    18.3099     4583.00000
    18.3231     4596.00000
    18.3362     4498.00000
    18.3493     4755.00000
    18.3625     4667.00000
    18.3756     4589.00000
    18.3887     4586.00000
    18.4018     4631.00000
    18.4150     4447.00000
    18.4281     4645.00000
    18.4412     4649.00000
    18.4544     4620.00000
    18.4675     4532.00000
    18.4806     4605.00000
    18.4938     4628.00000
    18.5069     4710.00000
    18.5200     4672.00000
    18.5331     4528.00000
    18.5463     4693.00000
    18.5594     4616.00000
    18.5725     4781.00000
    18.5857     4710.00000
    18.5988     4793.00000
    18.6119     4688.00000
    18.6251     4691.00000
    18.6382     4721.00000
    18.6513     4822.00000
    18.6645     4806.00000
    18.6776     4708.00000
    18.6907     4666.00000
    18.7038     4600.00000
    18.7170     4626.00000
    18.7301     4660.00000
    18.7432     4513.00000
    18.7564     4639.00000
    18.7695     4515.00000
    18.7826     4660.00000
    18.7958     4542.00000
    18.8089     4629.00000
    18.8220     4631.00000
    18.8351     4626.00000
    18.8483     4508.00000
    18.8614     4535.00000
    18.8745     4544.00000
    18.8877     4504.00000
    18.9008     4520.00000
    18.9139     4515.00000
    18.9271     4524.00000
    18.9402     4562.00000
    18.9533     4595.00000
    18.9664     4440.00000
    18.9796     4571.00000
    18.9927     4546.00000
    19.0058     4432.00000
    19.0190     4631.00000
    19.0321     4595.00000
    19.0452     4705.00000
    19.0584     4552.00000
    19.0715     4706.00000
    19.0846     4745.00000
    19.0978     4813.00000
    19.1109     4990.00000
    19.1240     5025.00000
    19.1371     5021.00000
    19.1503     4920.00000
    19.1634     4903.00000
    19.1765     4809.00000
    19.1897     4838.00000
    19.2028     5033.00000
    19.2159     4960.00000
    19.2291     4893.00000
    19.2422     4901.00000
    19.2553     4888.00000
    19.2684     4933.00000
    19.2816     4812.00000
    19.2947     4743.00000
    19.3078     5024.00000
    19.3210     4927.00000
    19.3341     4902.00000
    19.3472     4945.00000
    19.3604     5024.00000
    19.3735     4896.00000
    19.3866     4917.00000
    19.3997     5025.00000
    19.4129     5048.00000
    19.4260     5151.00000
    19.4391     5122.00000
    19.4523     5189.00000
    19.4654     5181.00000
    19.4785     5497.00000
    19.4917     5461.00000
    19.5048     5701.00000
    19.5179     5685.00000
    19.5311     5911.00000
    19.5442     6169.00000
    19.5573     6194.00000
    19.5704     6558.00000
    19.5836     6937.00000
    19.5967     7710.00000
    19.6098     8559.00000
    19.6230    10173.00000
    19.6361    12456.00000
    19.6492    15848.00000
    19.6624    21277.00000
    19.6755    30197.00000
    19.6886    43696.00000
    19.7017    63018.00000
    19.7149    86077.00000
    19.7280   106148.00000
    19.7411   116140.00000
    19.7543   112205.00000
    19.7674   103671.00000
    19.7805    94870.00000
    19.7937    80157.00000
    19.8068    63325.00000
    19.8199    46340.00000
    19.8330    32456.00000
    19.8462    23355.00000
    19.8593    16963.00000
    19.8724    12644.00000
    19.8856     9738.00000
    19.8987     8031.00000
    19.9118     7231.00000
    19.9250     6816.00000
    19.9381     6319.00000
    19.9512     6002.00000
    19.9643     5757.00000
    19.9775     5387.00000
    19.9906     5337.00000
    20.0037     5148.00000
    20.0169     5091.00000
    20.0300     5036.00000
    20.0431     4865.00000
    20.0563     4876.00000
    20.0694     4885.00000
    20.0825     4880.00000
    20.0957     4605.00000
    20.1088     4717.00000
    20.1219     4708.00000
    20.1350     4660.00000
    20.1482     4747.00000
    20.1613     4741.00000
    20.1744     4743.00000
    20.1876     4843.00000
    20.2007     4919.00000
    20.2138     4777.00000
    20.2270     4891.00000
    20.2401     4956.00000
    20.2532     4860.00000
    20.2663     5037.00000
    20.2795     4848.00000
    20.2926     4918.00000
    20.3057     4842.00000
    20.3189     4821.00000
    20.3320     4621.00000
    20.3451     4497.00000
    20.3583     4491.00000
    20.3714     4449.00000
    20.3845     4454.00000
    20.3976     4559.00000
    20.4108     4492.00000
    20.4239     4425.00000
    20.4370     4437.00000
    20.4502     4400.00000
    20.4633     4378.00000
    20.4764     4435.00000
    20.4896     4386.00000
    20.5027     4477.00000
    20.5158     4395.00000
    20.5290     4369.00000
    20.5421     4383.00000
    20.5552     4353.00000
    20.5683     4411.00000
    20.5815     4467.00000
    20.5946     4451.00000
    20.6077     4364.00000
    20.6209     4463.00000
    20.6340     4347.00000
    20.6471     4386.00000
    20.6603     4389.00000
    20.6734     4328.00000
    20.6865     4326.00000
    20.6996     4267.00000
    20.7128     4320.00000
    20.7259     4290.00000
    20.7390     4243.00000
    20.7522     4382.00000
    20.7653     4302.00000
    20.7784     4232.00000
    20.7916     4235.00000
    20.8047     4281.00000
    20.8178     4324.00000
    20.8309     4218.00000
    20.8441     4404.00000
    20.8572     4316.00000
    20.8703     4405.00000
    20.8835     4395.00000
    20.8966     4298.00000
    20.9097     4214.00000
    20.9229     4291.00000
    20.9360     4319.00000
    20.9491     4364.00000
    20.9623     4342.00000
    20.9754     4243.00000
    20.9885     4163.00000
    21.0016     4111.00000
    21.0148     4213.00000
    21.0279     4336.00000
    21.0410     4231.00000
    21.0542     4275.00000
    21.0673     4254.00000
    21.0804     4269.00000
    21.0936     4321.00000
    21.1067     4229.00000
    21.1198     4175.00000
    21.1329     4299.00000
    21.1461     4079.00000
    21.1592     4073.00000
    21.1723     4180.00000
    21.1855     4244.00000
    21.1986     4170.00000
    21.2117     4174.00000
    21.2249     4248.00000
    21.2380     4219.00000
    21.2511     4156.00000
    21.2642     4220.00000
    21.2774     4222.00000
    21.2905     4283.00000
    21.3036     4142.00000
    21.3168     4046.00000
    21.3299     4121.00000
    21.3430     4208.00000
    21.3562     4160.00000
    21.3693     4223.00000
    21.3824     4239.00000
    21.3956     4199.00000
    21.4087     4328.00000
    21.4218     4160.00000
    21.4349     4210.00000
    21.4481     4180.00000
    21.4612     4232.00000
    21.4743     4204.00000
    21.4875     4253.00000
    21.5006     3979.00000
    21.5137     4173.00000
    21.5269     4010.00000
    21.5400     4184.00000
    21.5531     4124.00000
    21.5662     4132.00000
    21.5794     4219.00000
    21.5925     4280.00000
    21.6056     4204.00000
    21.6188     4254.00000
    21.6319     4137.00000
    21.6450     4276.00000
    21.6582     4310.00000
    21.6713     4247.00000
    21.6844     4163.00000
    21.6975     4151.00000
    21.7107     4201.00000
    21.7238     4128.00000
    21.7369     4211.00000
    21.7501     4342.00000
    21.7632     4105.00000
    21.7763     4125.00000
    21.7895     4087.00000
    21.8026     4171.00000
    21.8157     4250.00000
    21.8288     4239.00000
    21.8420     4394.00000
    21.8551     4352.00000
    21.8682     4423.00000
    21.8814     4459.00000
    21.8945     4534.00000
    21.9076     4428.00000
    21.9208     4493.00000
    21.9339     4298.00000
    21.9470     4368.00000
    21.9602     4273.00000
    21.9733     4192.00000
    21.9864     4388.00000
    21.9995     4278.00000
    22.0127     4280.00000
    22.0258     4244.00000
    22.0389     4343.00000
    22.0521     4273.00000
    22.0652     4158.00000
    22.0783     4293.00000
    22.0915     4285.00000
    22.1046     4319.00000
    22.1177     4087.00000
    22.1308     4243.00000
    22.1440     4145.00000
    22.1571     4126.00000
    22.1702     4260.00000
    22.1834     4243.00000
    22.1965     4111.00000
    22.2096     4249.00000
    22.2228     4279.00000
    22.2359     4315.00000
    22.2490     4326.00000
    22.2621     4617.00000
    22.2753     4604.00000
    22.2884     4751.00000
    22.3015     5072.00000
    22.3147     5839.00000
    22.3278     6737.00000
    22.3409     8256.00000
    22.3541    10537.00000
    22.3672    13746.00000
    22.3803    17700.00000
    22.3935    20253.00000
    22.4066    20206.00000
    22.4197    18194.00000
    22.4328    16732.00000
    22.4460    16112.00000
    22.4591    14242.00000
    22.4722    11204.00000
    22.4854     8872.00000
    22.4985     7176.00000
    22.5116     6292.00000
    22.5248     5497.00000
    22.5379     4708.00000
    22.5510     4469.00000
    22.5641     4376.00000
    22.5773     4186.00000
    22.5904     4291.00000
    22.6035     4315.00000
    22.6167     4250.00000
    22.6298     4011.00000
    22.6429     4087.00000
    22.6561     4113.00000
    22.6692     4097.00000
    22.6823     4005.00000
    22.6954     4161.00000
    22.7086     4072.00000
    22.7217     4015.00000
    22.7348     4015.00000
    22.7480     4070.00000
    22.7611     4099.00000
    22.7742     4002.00000
    22.7874     4162.00000
    22.8005     4047.00000
    22.8136     4016.00000
    22.8268     4051.00000
    22.8399     4014.00000
    22.8530     4132.00000
    22.8661     4139.00000
    22.8793     4050.00000
    22.8924     4011.00000
    22.9055     3964.00000
    22.9187     3908.00000
    22.9318     3947.00000
    22.9449     4052.00000
    22.9581     4094.00000
    22.9712     3869.00000
    22.9843     4045.00000
    22.9974     3925.00000
    23.0106     4097.00000
    23.0237     3847.00000
    23.0368     4015.00000
    23.0500     4056.00000
    23.0631     3927.00000
    23.0762     3925.00000
    23.0894     3970.00000
    23.1025     3875.00000
    23.1156     3940.00000
    23.1287     3914.00000
    23.1419     3857.00000
    23.1550     3830.00000
    23.1681     3992.00000
    23.1813     3907.00000
    23.1944     3873.00000
    23.2075     3934.00000
    23.2207     4000.00000
    23.2338     3908.00000
    23.2469     3839.00000
    23.2601     3782.00000
    23.2732     4003.00000
    23.2863     3897.00000
    23.2994     3894.00000
    23.3126     3968.00000
    23.3257     3892.00000
    23.3388     3930.00000
    23.3520     3902.00000
    23.3651     3987.00000
    23.3782     3946.00000
    23.3914     4047.00000
    23.4045     3901.00000
    23.4176     4077.00000
    23.4307     3939.00000
    23.4439     3893.00000
    23.4570     4039.00000
    23.4701     4050.00000
    23.4833     4021.00000
    23.4964     3915.00000
    23.5095     3894.00000
    23.5227     3927.00000
    23.5358     3978.00000
    23.5489     3924.00000
    23.5620     4271.00000
    23.5752     4024.00000
    23.5883     4012.00000
    23.6014     3994.00000
    23.6146     4153.00000
    23.6277     4065.00000
    23.6408     3968.00000
    23.6540     4016.00000
    23.6671     4029.00000
    23.6802     4176.00000
    23.6933     4052.00000
    23.7065     4192.00000
    23.7196     4122.00000
    23.7327     4291.00000
    23.7459     4186.00000
    23.7590     4245.00000
    23.7721     3953.00000
    23.7853     4065.00000
    23.7984     4155.00000
    23.8115     4200.00000
    23.8247     4130.00000
    23.8378     4070.00000
    23.8509     4053.00000
    23.8640     4130.00000
    23.8772     4135.00000
    23.8903     4172.00000
    23.9034     4341.00000
    23.9166     4376.00000
    23.9297     4271.00000
    23.9428     4276.00000
    23.9560     4402.00000
    23.9691     4477.00000
    23.9822     4696.00000
    23.9953     4609.00000
    24.0085     4734.00000
    24.0216     4786.00000
    24.0347     4853.00000
    24.0479     4858.00000
    24.0610     5099.00000
    24.0741     5143.00000
    24.0873     5224.00000
    24.1004     5747.00000
    24.1135     6025.00000
    24.1266     6959.00000
    24.1398     8403.00000
    24.1529    10966.00000
    24.1660    15408.00000
    24.1792    21362.00000
    24.1923    28439.00000
    24.2054    36809.00000
    24.2186    44565.00000
    24.2317    46003.00000
    24.2448    42353.00000
    24.2580    38028.00000
    24.2711    35359.00000
    24.2842    32562.00000
    24.2973    28492.00000
    24.3105    21851.00000
    24.3236    16505.00000
    24.3367    13156.00000
    24.3499    11483.00000
    24.3630    10917.00000
    24.3761    10949.00000
    24.3893    12970.00000
    24.4024    17231.00000
    24.4155    24506.00000
    24.4286    32732.00000
    24.4418    40603.00000
    24.4549    45791.00000
    24.4680    46886.00000
    24.4812    45148.00000
    24.4943    40641.00000
    24.5074    37558.00000
    24.5206    33061.00000
    24.5337    26822.00000
    24.5468    21089.00000
    24.5599    15831.00000
    24.5731    12537.00000
    24.5862     9324.00000
    24.5993     6992.00000
    24.6125     5856.00000
    24.6256     5170.00000
    24.6387     4925.00000
    24.6519     4653.00000
    24.6650     4702.00000
    24.6781     4352.00000
    24.6913     4309.00000
    24.7044     4160.00000
    24.7175     4052.00000
    24.7306     4165.00000
    24.7438     4026.00000
    24.7569     4055.00000
    24.7700     3978.00000
    24.7832     3981.00000
    24.7963     3915.00000
    24.8094     3928.00000
    24.8226     4014.00000
    24.8357     3988.00000
    24.8488     3992.00000
    24.8619     3908.00000
    24.8751     3794.00000
    24.8882     3951.00000
    24.9013     3863.00000
    24.9145     3888.00000
    24.9276     3789.00000
    24.9407     3941.00000
    24.9539     3815.00000
    24.9670     3795.00000
    24.9801     3826.00000
    24.9932     3863.00000
    25.0064     3891.00000
    25.0195     3970.00000
    25.0326     3961.00000
    25.0458     4006.00000
    25.0589     4076.00000
    25.0720     4032.00000
    25.0852     4018.00000
    25.0983     3913.00000
    25.1114     3980.00000
    25.1246     3940.00000
    25.1377     3857.00000
    25.1508     3847.00000
    25.1639     3783.00000
    25.1771     3773.00000
    25.1902     3752.00000
    25.2033     3680.00000
    25.2165     3764.00000
    25.2296     3779.00000
    25.2427     3840.00000
    25.2559     3802.00000
    25.2690     3687.00000
    25.2821     3701.00000
    25.2952     3764.00000
    25.3084     3720.00000
    25.3215     3620.00000
    25.3346     3704.00000
    25.3478     3737.00000
    25.3609     3769.00000
    25.3740     3708.00000
    25.3872     3821.00000
    25.4003     3678.00000
    25.4134     3747.00000
    25.4265     3734.00000
    25.4397     3738.00000
    25.4528     3680.00000
    25.4659     3754.00000
    25.4791     3680.00000
    25.4922     3750.00000
    25.5053     3631.00000
    25.5185     3686.00000
    25.5316     3675.00000
    25.5447     3638.00000
    25.5579     3700.00000
    25.5710     3667.00000
    25.5841     3636.00000
    25.5972     3652.00000
    25.6104     3621.00000
    25.6235     3691.00000
    25.6366     3642.00000
    25.6498     3670.00000
    25.6629     3681.00000
    25.6760     3570.00000
    25.6892     3649.00000
    25.7023     3518.00000
    25.7154     3782.00000
    25.7285     3657.00000
    25.7417     3739.00000
    25.7548     3685.00000
    25.7679     3604.00000
    25.7811     3496.00000
    25.7942     3544.00000
    25.8073     3599.00000
    25.8205     3648.00000
    25.8336     3653.00000
    25.8467     3615.00000
    25.8598     3635.00000
    25.8730     3654.00000
    25.8861     3737.00000
    25.8992     3577.00000
    25.9124     3632.00000
    25.9255     3581.00000
    25.9386     3538.00000
    25.9518     3657.00000
    25.9649     3578.00000
    25.9780     3617.00000
    25.9911     3743.00000
    26.0043     3812.00000
    26.0174     3765.00000
    26.0305     3806.00000
    26.0437     3923.00000
    26.0568     4008.00000
    26.0699     4058.00000
    26.0831     4028.00000
    26.0962     4020.00000
    26.1093     4103.00000
    26.1225     4061.00000
    26.1356     4025.00000
    26.1487     3953.00000
    26.1618     3962.00000
    26.1750     3925.00000
    26.1881     3680.00000
    26.2012     3654.00000
    26.2144     3817.00000
    26.2275     3761.00000
    26.2406     3601.00000
    26.2538     3572.00000
    26.2669     3550.00000
    26.2800     3523.00000
    26.2931     3588.00000
    26.3063     3624.00000
    26.3194     3596.00000
    26.3325     3604.00000
    26.3457     3482.00000
    26.3588     3622.00000
    26.3719     3577.00000
    26.3851     3572.00000
    26.3982     3641.00000
    26.4113     3636.00000
    26.4244     3701.00000
    26.4376     3632.00000
    26.4507     3743.00000
    26.4638     3524.00000
    26.4770     3565.00000
    26.4901     3561.00000
    26.5032     3530.00000
    26.5164     3619.00000
    26.5295     3633.00000
    26.5426     3620.00000
    26.5558     3502.00000
    26.5689     3542.00000
    26.5820     3601.00000
    26.5951     3689.00000
    26.6083     3717.00000
    26.6214     3465.00000
    26.6345     3706.00000
    26.6477     3595.00000
    26.6608     3602.00000
    26.6739     3568.00000
    26.6871     3452.00000
    26.7002     3432.00000
    26.7133     3613.00000
    26.7264     3490.00000
    26.7396     3589.00000
    26.7527     3480.00000
    26.7658     3483.00000
    26.7790     3519.00000
    26.7921     3588.00000
    26.8052     3623.00000
    26.8184     3663.00000
    26.8315     3714.00000
    26.8446     3651.00000
    26.8577     3731.00000
    26.8709     3693.00000
    26.8840     3775.00000
    26.8971     3729.00000
    26.9103     3797.00000
    26.9234     3531.00000
    26.9365     3735.00000
    26.9497     3665.00000
    26.9628     3729.00000
    26.9759     3817.00000
    26.9891     3783.00000
    27.0022     3655.00000
    27.0153     3829.00000
    27.0284     3756.00000
    27.0416     3818.00000
    27.0547     3704.00000
    27.0678     3651.00000
    27.0810     3712.00000
    27.0941     3779.00000
    27.1072     3688.00000
    27.1204     3619.00000
    27.1335     3746.00000
    27.1466     3681.00000
    27.1597     3713.00000
    27.1729     3792.00000
    27.1860     3762.00000
    27.1991     3786.00000
    27.2123     3801.00000
    27.2254     3682.00000
    27.2385     3750.00000
    27.2517     3786.00000
    27.2648     3728.00000
    27.2779     3738.00000
    27.2910     3651.00000
    27.3042     3712.00000
    27.3173     3720.00000
    27.3304     3783.00000
    27.3436     3724.00000
    27.3567     3642.00000
    27.3698     3830.00000
    27.3830     3845.00000
    27.3961     3820.00000
    27.4092     3826.00000
    27.4224     3856.00000
    27.4355     3901.00000
    27.4486     3955.00000
    27.4617     3971.00000
    27.4749     3995.00000
    27.4880     4039.00000
    27.5011     4126.00000
    27.5143     4124.00000
    27.5274     4372.00000
    27.5405     4480.00000
    27.5537     4622.00000
    27.5668     4571.00000
    27.5799     4811.00000
    27.5930     5101.00000
    27.6062     5100.00000
    27.6193     5362.00000
    27.6324     5765.00000
    27.6456     6086.00000
    27.6587     6488.00000
    27.6718     7423.00000
    27.6850     8046.00000
    27.6981     9359.00000
    27.7112    11476.00000
    27.7243    14857.00000
    27.7375    20216.00000
    27.7506    28586.00000
    27.7637    42041.00000
    27.7769    58337.00000
    27.7900    72954.00000
    27.8031    80068.00000
    27.8163    77194.00000
    27.8294    70388.00000
    27.8425    63822.00000
    27.8556    59380.00000
    27.8688    54673.00000
    27.8819    47188.00000
    27.8950    38373.00000
    27.9082    29594.00000
    27.9213    22115.00000
    27.9344    16115.00000
    27.9476    11800.00000
    27.9607     8963.00000
    27.9738     7641.00000
    27.9870     6647.00000
    28.0001     6108.00000
    28.0132     5603.00000
    28.0263     5037.00000
    28.0395     4736.00000
    28.0526     4601.00000
    28.0657     4404.00000
    28.0789     4247.00000
    28.0920     4088.00000
    28.1051     4053.00000
    28.1183     3943.00000
    28.1314     4038.00000
    28.1445     3898.00000
    28.1576     3844.00000
    28.1708     3888.00000
    28.1839     3776.00000
    28.1970     3801.00000
    28.2102     3818.00000
    28.2233     3717.00000
    28.2364     3750.00000
    28.2496     3759.00000
    28.2627     3613.00000
    28.2758     3674.00000
    28.2889     3717.00000
    28.3021     3817.00000
    28.3152     3623.00000
    28.3283     3785.00000
    28.3415     3820.00000
    28.3546     3936.00000
    28.3677     3933.00000
    28.3809     4100.00000
    28.3940     4218.00000
    28.4071     4039.00000
    28.4203     3995.00000
    28.4334     3976.00000
    28.4465     3899.00000
    28.4596     3868.00000
    28.4728     3911.00000
    28.4859     3816.00000
    28.4990     3841.00000
    28.5122     3724.00000
    28.5253     3682.00000
    28.5384     3785.00000
    28.5516     3821.00000
    28.5647     3661.00000
    28.5778     3536.00000
    28.5909     3621.00000
    28.6041     3680.00000
    28.6172     3624.00000
    28.6303     3723.00000
    28.6435     3679.00000
    28.6566     3563.00000
    28.6697     3663.00000
    28.6829     3609.00000
    28.6960     3627.00000
    28.7091     3551.00000
    28.7222     3615.00000
    28.7354     3642.00000
    28.7485     3645.00000
    28.7616     3691.00000
    28.7748     3516.00000
    28.7879     3567.00000
    28.8010     3584.00000
    28.8142     3532.00000
    28.8273     3663.00000
    28.8404     3496.00000
    28.8536     3524.00000
    28.8667     3716.00000
    28.8798     3607.00000
    28.8929     3623.00000
    28.9061     3558.00000
    28.9192     3573.00000
    28.9323     3467.00000
    28.9455     3637.00000
    28.9586     3583.00000
    28.9717     3617.00000
    28.9849     3692.00000
    28.9980     3678.00000
    29.0111     3647.00000
    29.0242     3663.00000
    29.0374     3801.00000
    29.0505     3767.00000
    29.0636     3846.00000
    29.0768     3944.00000
    29.0899     3869.00000
    29.1030     3898.00000
    29.1162     4079.00000
    29.1293     4029.00000
    29.1424     4131.00000
    29.1555     4367.00000
    29.1687     4632.00000
    29.1818     4633.00000
    29.1949     4749.00000
    29.2081     5001.00000
    29.2212     5255.00000
    29.2343     5988.00000
    29.2475     7420.00000
    29.2606    10175.00000
    29.2737    15044.00000
    29.2869    20990.00000
    29.3000    28240.00000
    29.3131    34517.00000
    29.3262    36082.00000
    29.3394    32254.00000
    29.3525    27202.00000
    29.3656    25071.00000
    29.3788    23786.00000
    29.3919    23235.00000
    29.4050    21263.00000
    29.4182    17634.00000
    29.4313    14386.00000
    29.4444    12532.00000
    29.4575    11698.00000
    29.4707    12424.00000
    29.4838    13834.00000
    29.4969    16223.00000
    29.5101    17918.00000
    29.5232    18410.00000
    29.5363    17937.00000
    29.5495    16343.00000
    29.5626    14572.00000
    29.5757    13228.00000
    29.5888    12039.00000
    29.6020    11167.00000
    29.6151     9906.00000
    29.6282     8256.00000
    29.6414     6733.00000
    29.6545     5318.00000
    29.6676     4645.00000
    29.6808     4197.00000
    29.6939     3991.00000
    29.7070     3857.00000
    29.7201     3709.00000
    29.7333     3806.00000
    29.7464     3654.00000
    29.7595     3620.00000
    29.7727     3641.00000
    29.7858     3564.00000
    29.7989     3539.00000
    29.8121     3525.00000
    29.8252     3400.00000
    29.8383     3445.00000
    29.8515     3398.00000
    29.8646     3498.00000
    29.8777     3377.00000
    29.8908     3401.00000
    29.9040     3413.00000
    29.9171     3470.00000
    29.9302     3527.00000
    29.9434     3384.00000
    29.9565     3414.00000
    29.9696     3488.00000
    29.9828     3507.00000
    29.9959     3405.00000
    30.0090     3393.00000
    30.0221     3409.00000
    30.0353     3518.00000
    30.0484     3492.00000
    30.0615     3455.00000
    30.0747     3453.00000
    30.0878     3389.00000
    30.1009     3349.00000
    30.1141     3306.00000
    30.1272     3277.00000
    30.1403     3390.00000
    30.1535     3251.00000
    30.1666     3346.00000
    30.1797     3381.00000
    30.1928     3417.00000
    30.2060     3321.00000
    30.2191     3348.00000
    30.2322     3272.00000
    30.2454     3410.00000
    30.2585     3309.00000
    30.2716     3356.00000
    30.2848     3282.00000
    30.2979     3324.00000
    30.3110     3221.00000
    30.3241     3421.00000
    30.3373     3282.00000
    30.3504     3320.00000
    30.3635     3289.00000
    30.3767     3398.00000
    30.3898     3357.00000
    30.4029     3282.00000
    30.4161     3358.00000
    30.4292     3320.00000
    30.4423     3128.00000
    30.4554     3378.00000
    30.4686     3300.00000
    30.4817     3380.00000
    30.4948     3389.00000
    30.5080     3408.00000
    30.5211     3240.00000
    30.5342     3329.00000
    30.5474     3297.00000
    30.5605     3316.00000
    30.5736     3291.00000
    30.5868     3360.00000
    30.5999     3201.00000
    30.6130     3285.00000
    30.6261     3239.00000
    30.6393     3230.00000
    30.6524     3272.00000
    30.6655     3260.00000
    30.6787     3298.00000
    30.6918     3277.00000
    30.7049     3159.00000
    30.7181     3212.00000
    30.7312     3262.00000
    30.7443     3254.00000
    30.7574     3234.00000
    30.7706     3284.00000
    30.7837     3218.00000
    30.7968     3182.00000
    30.8100     3236.00000
    30.8231     3261.00000
    30.8362     3178.00000
    30.8494     3190.00000
    30.8625     3304.00000
    30.8756     3118.00000
    30.8887     3186.00000
    30.9019     3227.00000
    30.9150     3071.00000
    30.9281     3152.00000
    30.9413     3205.00000
    30.9544     3150.00000
    30.9675     3097.00000
    30.9807     3361.00000
    30.9938     3241.00000
    31.0069     3240.00000
    31.0200     3184.00000
    31.0332     3115.00000
    31.0463     3186.00000
    31.0594     3166.00000
    31.0726     3219.00000
    31.0857     3214.00000
    31.0988     3288.00000
    31.1120     3120.00000
    31.1251     3355.00000
    31.1382     3274.00000
    31.1514     3182.00000
    31.1645     3198.00000
    31.1776     3219.00000
    31.1907     3129.00000
    31.2039     3124.00000
    31.2170     3132.00000
    31.2301     3124.00000
    31.2433     3134.00000
    31.2564     3099.00000
    31.2695     3222.00000
    31.2827     3134.00000
    31.2958     3201.00000
    31.3089     3234.00000
    31.3220     3268.00000
    31.3352     3233.00000
    31.3483     3042.00000
    31.3614     3195.00000
    31.3746     3197.00000
    31.3877     3076.00000
    31.4008     3232.00000
    31.4140     3102.00000
    31.4271     3112.00000
    31.4402     3081.00000
    31.4533     3105.00000
    31.4665     3137.00000
    31.4796     3070.00000
    31.4927     3204.00000
    31.5059     3137.00000
    31.5190     3065.00000
    31.5321     3028.00000
    31.5453     3086.00000
    31.5584     3145.00000
    31.5715     3202.00000
    31.5847     3055.00000
    31.5978     3093.00000
    31.6109     3103.00000
    31.6240     3112.00000
    31.6372     3155.00000
    31.6503     3090.00000
    31.6634     3052.00000
    31.6766     3238.00000
    31.6897     3164.00000
    31.7028     3068.00000
    31.7160     3212.00000
    31.7291     2978.00000
    31.7422     3229.00000
    31.7553     3170.00000
    31.7685     3142.00000
    31.7816     3123.00000
    31.7947     3175.00000
    31.8079     3173.00000
    31.8210     3183.00000
    31.8341     3113.00000
    31.8473     2986.00000
    31.8604     3049.00000
    31.8735     3088.00000
    31.8866     3145.00000
    31.8998     3022.00000
    31.9129     3124.00000
    31.9260     3056.00000
    31.9392     3226.00000
    31.9523     3058.00000
    31.9654     3063.00000
    31.9786     3126.00000
    31.9917     3091.00000
    32.0048     3133.00000
    32.0180     3143.00000
    32.0311     3174.00000
    32.0442     3074.00000
    32.0573     3140.00000
    32.0705     3126.00000
    32.0836     3147.00000
    32.0967     3127.00000
    32.1099     3208.00000
    32.1230     3208.00000
    32.1361     3190.00000
    32.1493     3125.00000
    32.1624     3252.00000
    32.1755     3278.00000
    32.1886     3206.00000
    32.2018     3236.00000
    32.2149     3184.00000
    32.2280     3190.00000
    32.2412     3325.00000
    32.2543     3313.00000
    32.2674     3270.00000
    32.2806     3108.00000
    32.2937     3223.00000
    32.3068     3217.00000
    32.3199     3387.00000
    32.3331     3279.00000
    32.3462     3207.00000
    32.3593     3316.00000
    32.3725     3205.00000
    32.3856     3107.00000
    32.3987     3327.00000
    32.4119     3172.00000
    32.4250     3131.00000
    32.4381     3254.00000
    32.4512     3223.00000
    32.4644     3216.00000
    32.4775     3313.00000
    32.4906     3225.00000
    32.5038     3122.00000
    32.5169     3297.00000
    32.5300     3119.00000
    32.5432     3209.00000
    32.5563     3306.00000
    32.5694     3266.00000
    32.5826     3248.00000
    32.5957     3162.00000
    32.6088     3428.00000
    32.6219     3393.00000
    32.6351     3351.00000
    32.6482     3379.00000
    32.6613     3572.00000
    32.6745     3587.00000
    32.6876     3534.00000
    32.7007     3648.00000
    32.7139     3782.00000
    32.7270     3791.00000
    32.7401     3798.00000
    32.7532     4006.00000
    32.7664     4154.00000
    32.7795     4609.00000
    32.7926     5388.00000
    32.8058     7094.00000
    32.8189    10294.00000
    32.8320    15519.00000
    32.8452    20852.00000
    32.8583    22891.00000
    32.8714    20596.00000
    32.8845    16299.00000
    32.8977    13094.00000
    32.9108    12150.00000
    32.9239    12786.00000
    32.9371    13827.00000
    32.9502    12974.00000
    32.9633    10606.00000
    32.9765     8054.00000
    32.9896     6366.00000
    33.0027     5256.00000
    33.0159     4636.00000
    33.0290     4164.00000
    33.0421     4222.00000
    33.0552     4037.00000
    33.0684     4068.00000
    33.0815     4090.00000
    33.0946     4017.00000
    33.1078     4102.00000
    33.1209     4251.00000
    33.1340     4350.00000
    33.1472     4497.00000
    33.1603     4580.00000
    33.1734     4612.00000
    33.1865     4746.00000
    33.1997     5169.00000
    33.2128     6054.00000
    33.2259     7174.00000
    33.2391     9473.00000
    33.2522    13310.00000
    33.2653    19030.00000
    33.2785    26564.00000
    33.2916    33272.00000
    33.3047    35202.00000
    33.3178    32001.00000
    33.3310    27905.00000
    33.3441    24911.00000
    33.3572    22420.00000
    33.3704    21663.00000
    33.3835    21456.00000
    33.3966    19671.00000
    33.4098    16650.00000
    33.4229    13485.00000
    33.4360    10568.00000
    33.4492     7839.00000
    33.4623     6176.00000
    33.4754     5186.00000
    33.4885     4810.00000
    33.5017     4573.00000
    33.5148     4310.00000
    33.5279     4153.00000
    33.5411     4140.00000
    33.5542     4010.00000
    33.5673     3984.00000
    33.5805     4103.00000
    33.5936     4048.00000
    33.6067     4079.00000
    33.6198     4155.00000
    33.6330     4084.00000
    33.6461     4167.00000
    33.6592     4330.00000
    33.6724     4486.00000
    33.6855     4586.00000
    33.6986     4947.00000
    33.7118     5248.00000
    33.7249     5932.00000
    33.7380     6517.00000
    33.7511     7884.00000
    33.7643     9728.00000
    33.7774    12861.00000
    33.7905    16927.00000
    33.8037    21783.00000
    33.8168    25886.00000
    33.8299    29775.00000
    33.8431    31821.00000
    33.8562    31682.00000
    33.8693    30960.00000
    33.8825    32795.00000
    33.8956    32833.00000
    33.9087    30451.00000
    33.9218    26723.00000
    33.9350    23227.00000
    33.9481    19829.00000
    33.9612    17519.00000
    33.9744    15772.00000
    33.9875    13471.00000
    34.0006    10926.00000
    34.0138     8547.00000
    34.0269     6927.00000
    34.0400     5901.00000
    34.0531     4866.00000
    34.0663     4443.00000
    34.0794     4031.00000
    34.0925     3841.00000
    34.1057     3738.00000
    34.1188     3686.00000
    34.1319     3505.00000
    34.1451     3453.00000
    34.1582     3487.00000
    34.1713     3321.00000
    34.1844     3369.00000
    34.1976     3309.00000
    34.2107     3378.00000
    34.2238     3225.00000
    34.2370     3312.00000
    34.2501     3222.00000
    34.2632     3240.00000
    34.2764     3241.00000
    34.2895     3227.00000
    34.3026     3273.00000
    34.3158     3283.00000
    34.3289     3153.00000
    34.3420     3141.00000
    34.3551     3117.00000
    34.3683     3155.00000
    34.3814     3085.00000
    34.3945     3142.00000
    34.4077     3188.00000
    34.4208     3090.00000
    34.4339     3113.00000
    34.4471     3118.00000
    34.4602     3250.00000
    34.4733     3191.00000
    34.4864     3217.00000
    34.4996     3173.00000
    34.5127     3214.00000
    34.5258     3187.00000
    34.5390     3247.00000
    34.5521     3354.00000
    34.5652     3312.00000
    34.5784     3205.00000
    34.5915     3227.00000
    34.6046     3362.00000
    34.6177     3362.00000
    34.6309     3442.00000
    34.6440     3352.00000
    34.6571     3417.00000
    34.6703     3430.00000
    34.6834     3664.00000
    34.6965     3722.00000
    34.7097     3821.00000
    34.7228     4148.00000
    34.7359     4656.00000
    34.7491     5932.00000
    34.7622     7292.00000
    34.7753     9679.00000
    34.7884    12745.00000
    34.8016    14159.00000
    34.8147    13675.00000
    34.8278    11882.00000
    34.8410    10199.00000
    34.8541     8750.00000
    34.8672     8601.00000
    34.8804     8925.00000
    34.8935     9111.00000
    34.9066     8482.00000
    34.9197     7173.00000
    34.9329     5964.00000
    34.9460     4925.00000
    34.9591     4232.00000
    34.9723     3833.00000
    34.9854     3539.00000
    34.9985     3467.00000
    35.0117     3470.00000
    35.0248     3301.00000
    35.0379     3226.00000
    35.0510     3243.00000
    35.0642     3270.00000
    35.0773     3467.00000
    35.0904     3577.00000
    35.1036     3740.00000
    35.1167     4059.00000
    35.1298     3956.00000
    35.1430     3792.00000
    35.1561     3585.00000
    35.1692     3488.00000
    35.1824     3366.00000
    35.1955     3415.00000
    35.2086     3472.00000
    35.2217     3457.00000
    35.2349     3364.00000
    35.2480     3328.00000
    35.2611     3163.00000
    35.2743     3158.00000
    35.2874     3148.00000
    35.3005     2961.00000
    35.3137     3011.00000
    35.3268     2962.00000
    35.3399     2997.00000
    35.3530     2959.00000
    35.3662     3082.00000
    35.3793     2904.00000
    35.3924     2947.00000
    35.4056     2994.00000
    35.4187     3043.00000
    35.4318     3062.00000
    35.4450     2962.00000
    35.4581     3012.00000
    35.4712     3065.00000
    35.4843     3044.00000
    35.4975     2905.00000
    35.5106     2870.00000
    35.5237     2993.00000
    35.5369     3007.00000
    35.5500     2883.00000
    35.5631     2977.00000
    35.5763     2923.00000
    35.5894     2949.00000
    35.6025     2910.00000
    35.6156     2897.00000
    35.6288     2993.00000
    35.6419     3000.00000
    35.6550     2914.00000
    35.6682     3049.00000
    35.6813     2927.00000
    35.6944     2929.00000
    35.7076     2977.00000
    35.7207     2968.00000
    35.7338     2929.00000
    35.7470     2822.00000
    35.7601     2946.00000
    35.7732     3055.00000
    35.7863     2881.00000
    35.7995     2889.00000
    35.8126     2924.00000
    35.8257     2812.00000
    35.8389     2799.00000
    35.8520     2976.00000
    35.8651     2872.00000
    35.8783     2865.00000
    35.8914     2975.00000
    35.9045     2867.00000
    35.9176     2998.00000
    35.9308     3022.00000
    35.9439     2961.00000
    35.9570     2931.00000
    35.9702     3050.00000
    35.9833     2923.00000
    35.9964     2983.00000
    36.0096     2963.00000
    36.0227     2870.00000
    36.0358     2955.00000
    36.0489     3009.00000
    36.0621     2934.00000
    36.0752     2868.00000
    36.0883     3037.00000
    36.1015     3004.00000
    36.1146     2996.00000
    36.1277     2956.00000
    36.1409     3021.00000
    36.1540     2979.00000
    36.1671     3099.00000
    36.1802     3032.00000
    36.1934     3104.00000
    36.2065     3101.00000
    36.2196     3019.00000
    36.2328     3007.00000
    36.2459     3092.00000
    36.2590     2965.00000
    36.2722     2985.00000
    36.2853     2953.00000
    36.2984     2901.00000
    36.3116     2996.00000
    36.3247     2960.00000
    36.3378     2919.00000
    36.3509     2972.00000
    36.3641     2964.00000
    36.3772     2968.00000
    36.3903     2923.00000
    36.4035     2909.00000
    36.4166     2994.00000
    36.4297     3049.00000
    36.4429     2943.00000
    36.4560     2865.00000
    36.4691     2892.00000
    36.4822     2996.00000
    36.4954     2945.00000
    36.5085     3049.00000
    36.5216     3122.00000
    36.5348     3109.00000
    36.5479     3230.00000
    36.5610     3061.00000
    36.5742     3163.00000
    36.5873     3233.00000
    36.6004     3256.00000
    36.6135     3638.00000
    36.6267     4251.00000
    36.6398     5252.00000
    36.6529     6776.00000
    36.6661     8391.00000
    36.6792     9536.00000
    36.6923     9996.00000
    36.7055     9161.00000
    36.7186     7672.00000
    36.7317     6298.00000
    36.7449     5901.00000
    36.7580     6292.00000
    36.7711     6421.00000
    36.7842     6654.00000
    36.7974     6186.00000
    36.8105     5435.00000
    36.8236     4569.00000
    36.8368     3820.00000
    36.8499     3489.00000
    36.8630     3410.00000
    36.8762     3193.00000
    36.8893     2975.00000
    36.9024     3070.00000
    36.9155     3056.00000
    36.9287     3044.00000
    36.9418     2999.00000
    36.9549     2995.00000
    36.9681     3020.00000
    36.9812     3010.00000
    36.9943     2955.00000
    37.0075     2895.00000
    37.0206     2927.00000
    37.0337     2934.00000
    37.0468     2886.00000
    37.0600     2914.00000
    37.0731     2883.00000
    37.0862     2887.00000
    37.0994     2872.00000
    37.1125     2985.00000
    37.1256     2825.00000
    37.1388     2966.00000
    37.1519     2925.00000
    37.1650     2954.00000
    37.1782     2905.00000
    37.1913     2915.00000
    37.2044     2943.00000
    37.2175     2926.00000
    37.2307     3051.00000
    37.2438     2902.00000
    37.2569     3063.00000
    37.2701     3074.00000
    37.2832     3144.00000
    37.2963     3024.00000
    37.3095     3135.00000
    37.3226     3192.00000
    37.3357     3186.00000
    37.3488     3240.00000
    37.3620     3285.00000
    37.3751     3432.00000
    37.3882     3600.00000
    37.4014     3890.00000
    37.4145     4352.00000
    37.4276     5031.00000
    37.4408     6261.00000
    37.4539     7562.00000
    37.4670     8802.00000
    37.4801     9612.00000
    37.4933    10080.00000
    37.5064     9955.00000
    37.5195     9063.00000
    37.5327     7950.00000
    37.5458     7260.00000
    37.5589     7059.00000
    37.5721     6830.00000
    37.5852     6750.00000
    37.5983     6552.00000
    37.6115     6021.00000
    37.6246     5378.00000
    37.6377     4583.00000
    37.6508     4079.00000
    37.6640     3545.00000
    37.6771     3444.00000
    37.6902     3236.00000
    37.7034     3158.00000
    37.7165     3214.00000
    37.7296     3319.00000
    37.7428     3434.00000
    37.7559     3816.00000
    37.7690     3860.00000
    37.7821     3783.00000
    37.7953     3783.00000
    37.8084     3542.00000
    37.8215     3462.00000
    37.8347     3393.00000
    37.8478     3321.00000
    37.8609     3306.00000
    37.8741     3413.00000
    37.8872     3359.00000
    37.9003     3109.00000
    37.9134     3119.00000
    37.9266     3106.00000
    37.9397     3007.00000
    37.9528     2816.00000
    37.9660     2861.00000
    37.9791     2896.00000
    37.9922     2797.00000
    38.0054     2793.00000
    38.0185     2794.00000
    38.0316     2792.00000
    38.0448     2793.00000
    38.0579     2727.00000
    38.0710     2762.00000
    38.0841     2784.00000
    38.0973     2859.00000
    38.1104     2779.00000
    38.1235     2729.00000
    38.1367     2745.00000
    38.1498     2679.00000
    38.1629     2840.00000
    38.1761     2753.00000
    38.1892     2786.00000
    38.2023     2745.00000
    38.2154     2696.00000
    38.2286     2836.00000
    38.2417     2761.00000
    38.2548     2681.00000
    38.2680     2765.00000
    38.2811     2797.00000
    38.2942     2581.00000
    38.3074     2729.00000
    38.3205     2753.00000
    38.3336     2758.00000
    38.3467     2743.00000
    38.3599     2719.00000
    38.3730     2841.00000
    38.3861     2772.00000
    38.3993     2731.00000
    38.4124     2745.00000
    38.4255     2703.00000
    38.4387     2767.00000
    38.4518     2711.00000
    38.4649     2715.00000
    38.4781     2715.00000
    38.4912     2694.00000
    38.5043     2738.00000
    38.5174     2737.00000
    38.5306     2733.00000
    38.5437     2639.00000
    38.5568     2759.00000
    38.5700     2755.00000
    38.5831     2846.00000
    38.5962     2777.00000
    38.6094     2741.00000
    38.6225     2764.00000
    38.6356     2758.00000
    38.6487     2730.00000
    38.6619     2763.00000
    38.6750     2838.00000
    38.6881     2861.00000
    38.7013     2707.00000
    38.7144     2675.00000
    38.7275     2694.00000
    38.7407     2703.00000
    38.7538     2785.00000
    38.7669     2749.00000
    38.7800     2827.00000
    38.7932     2757.00000
    38.8063     2765.00000
    38.8194     2697.00000
    38.8326     2722.00000
    38.8457     2760.00000
    38.8588     2751.00000
    38.8720     2791.00000
    38.8851     2659.00000
    38.8982     2657.00000
    38.9114     2707.00000
    38.9245     2591.00000
    38.9376     2664.00000
    38.9507     2772.00000
    38.9639     2692.00000
    38.9770     2704.00000
    38.9901     2739.00000
    39.0033     2791.00000
    39.0164     2680.00000
    39.0295     2727.00000
    39.0427     2821.00000
    39.0558     2749.00000
    39.0689     2689.00000
    39.0820     2775.00000
    39.0952     2747.00000
    39.1083     2670.00000
    39.1214     2711.00000
    39.1346     2754.00000
    39.1477     2789.00000
    39.1608     2744.00000
    39.1740     2722.00000
    39.1871     2643.00000
    39.2002     2662.00000
    39.2133     2669.00000
    39.2265     2608.00000
    39.2396     2691.00000
    39.2527     2710.00000
    39.2659     2776.00000
    39.2790     2783.00000
    39.2921     2753.00000
    39.3053     2788.00000
    39.3184     2791.00000
    39.3315     2752.00000
    39.3446     2678.00000
    39.3578     2712.00000
    39.3709     2771.00000
    39.3840     2822.00000
    39.3972     2732.00000
    39.4103     2786.00000
    39.4234     2731.00000
    39.4366     2643.00000
    39.4497     2618.00000
    39.4628     2741.00000
    39.4760     2759.00000
    39.4891     2764.00000
    39.5022     2600.00000
    39.5153     2826.00000
    39.5285     2746.00000
    39.5416     2721.00000
    39.5547     2753.00000
    39.5679     2822.00000
    39.5810     2810.00000
    39.5941     2727.00000
    39.6073     2751.00000
    39.6204     2800.00000
    39.6335     2922.00000
    39.6466     2771.00000
    39.6598     2904.00000
    39.6729     3068.00000
    39.6860     3057.00000
    39.6992     2971.00000
    39.7123     3147.00000
    39.7254     3332.00000
    39.7386     3799.00000
    39.7517     4285.00000
    39.7648     4776.00000
    39.7779     5107.00000
    39.7911     5204.00000
    39.8042     5102.00000
    39.8173     4845.00000
    39.8305     4332.00000
    39.8436     4120.00000
    39.8567     4159.00000
    39.8699     4244.00000
    39.8830     4071.00000
    39.8961     4082.00000
    39.9092     4088.00000
    39.9224     3743.00000
    39.9355     3547.00000
    39.9486     3453.00000
    39.9618     3204.00000
    39.9749     3143.00000
    39.9880     3061.00000
    40.0012     3088.00000
    40.0143     3227.00000
    40.0274     3123.00000
    40.0406     3155.00000
    40.0537     3258.00000
    40.0668     3448.00000
    40.0799     3777.00000
    40.0931     4171.00000
    40.1062     4951.00000
    40.1193     5803.00000
    40.1325     6778.00000
    40.1456     7194.00000
    40.1587     7236.00000
    40.1719     6655.00000
    40.1850     6000.00000
    40.1981     5290.00000
    40.2112     5208.00000
    40.2244     5247.00000
    40.2375     5371.00000
    40.2506     5549.00000
    40.2638     5397.00000
    40.2769     5064.00000
    40.2900     4924.00000
    40.3032     4920.00000
    40.3163     5127.00000
    40.3294     5897.00000
    40.3425     7153.00000
    40.3557     8802.00000
    40.3688     9692.00000
    40.3819     9472.00000
    40.3951     8246.00000
    40.4082     6891.00000
    40.4213     5950.00000
    40.4345     5627.00000
    40.4476     5885.00000
    40.4607     6081.00000
    40.4739     6443.00000
    40.4870     6228.00000
    40.5001     5657.00000
    40.5132     4805.00000
    40.5264     4207.00000
    40.5395     3772.00000
    40.5526     3531.00000
    40.5658     3250.00000
    40.5789     3155.00000
    40.5920     3130.00000
    40.6052     3008.00000
    40.6183     2978.00000
    40.6314     3000.00000
    40.6445     2884.00000
    40.6577     2888.00000
    40.6708     2870.00000
    40.6839     2859.00000
    40.6971     2743.00000
    40.7102     2777.00000
    40.7233     2850.00000
    40.7365     2874.00000
    40.7496     2751.00000
    40.7627     2757.00000
    40.7758     2781.00000
    40.7890     2865.00000
    40.8021     2813.00000
    40.8152     2850.00000
    40.8284     2771.00000
    40.8415     2799.00000
    40.8546     2961.00000
    40.8678     2894.00000
    40.8809     2907.00000
    40.8940     2863.00000
    40.9072     2965.00000
    40.9203     3079.00000
    40.9334     3153.00000
    40.9465     3137.00000
    40.9597     3225.00000
    40.9728     3330.00000
    40.9859     3330.00000
    40.9991     3560.00000
    41.0122     3674.00000
    41.0253     3925.00000
    41.0385     4364.00000
    41.0516     4889.00000
    41.0647     5735.00000
    41.0778     6843.00000
    41.0910     8029.00000
    41.1041     9420.00000
    41.1172    10616.00000
    41.1304    11219.00000
    41.1435    10605.00000
    41.1566     9278.00000
    41.1698     8503.00000
    41.1829     8042.00000
    41.1960     8308.00000
    41.2091     9556.00000
    41.2223    11517.00000
    41.2354    13813.00000
    41.2485    15724.00000
    41.2617    16043.00000
    41.2748    14130.00000
    41.2879    11918.00000
    41.3011     9582.00000
    41.3142     8050.00000
    41.3273     8090.00000
    41.3405     8924.00000
    41.3536    10661.00000
    41.3667    12774.00000
    41.3798    14045.00000
    41.3930    15001.00000
    41.4061    14926.00000
    41.4192    14371.00000
    41.4324    12289.00000
    41.4455     9780.00000
    41.4586     8081.00000
    41.4718     7354.00000
    41.4849     7105.00000
    41.4980     7787.00000
    41.5111     8117.00000
    41.5243     8082.00000
    41.5374     7186.00000
    41.5505     6214.00000
    41.5637     5351.00000
    41.5768     4382.00000
    41.5899     3739.00000
    41.6031     3336.00000
    41.6162     3276.00000
    41.6293     3153.00000
    41.6424     3077.00000
    41.6556     2950.00000
    41.6687     2852.00000
    41.6818     2898.00000
    41.6950     2759.00000
    41.7081     2800.00000
    41.7212     2925.00000
    41.7344     2724.00000
    41.7475     2759.00000
    41.7606     2804.00000
    41.7738     2696.00000
    41.7869     2687.00000
    41.8000     2727.00000
    41.8131     2699.00000
    41.8263     2831.00000
    41.8394     2694.00000
    41.8525     2716.00000
    41.8657     2646.00000
    41.8788     2656.00000
    41.8919     2701.00000
    41.9051     2630.00000
    41.9182     2717.00000
    41.9313     2698.00000
    41.9444     2684.00000
    41.9576     2707.00000
    41.9707     2617.00000
    41.9838     2583.00000
    41.9970     2566.00000
    42.0101     2613.00000
    42.0232     2654.00000
    42.0364     2637.00000
    42.0495     2630.00000
    42.0626     2638.00000
    42.0757     2709.00000
    42.0889     2807.00000
    42.1020     2677.00000
    42.1151     2650.00000
    42.1283     2604.00000
    42.1414     2640.00000
    42.1545     2763.00000
    42.1677     2682.00000
    42.1808     2679.00000
    42.1939     2621.00000
    42.2071     2561.00000
    42.2202     2737.00000
    42.2333     2672.00000
    42.2464     2626.00000
    42.2596     2679.00000
    42.2727     2670.00000
    42.2858     2631.00000
    42.2990     2609.00000
    42.3121     2525.00000
    42.3252     2688.00000
    42.3384     2615.00000
    42.3515     2676.00000
    42.3646     2666.00000
    42.3777     2576.00000
    42.3909     2577.00000
    42.4040     2622.00000
    42.4171     2698.00000
    42.4303     2642.00000
    42.4434     2713.00000
    42.4565     2616.00000
    42.4697     2785.00000
    42.4828     2612.00000
    42.4959     2717.00000
    42.5090     2662.00000
    42.5222     2669.00000
    42.5353     2663.00000
    42.5484     2627.00000
    42.5616     2681.00000
    42.5747     2683.00000
    42.5878     2574.00000
    42.6010     2589.00000
    42.6141     2638.00000
    42.6272     2674.00000
    42.6404     2736.00000
    42.6535     2668.00000
    42.6666     2581.00000
    42.6797     2541.00000
    42.6929     2598.00000
    42.7060     2697.00000
    42.7191     2583.00000
    42.7323     2703.00000
    42.7454     2737.00000
    42.7585     2685.00000
    42.7717     2673.00000
    42.7848     2580.00000
    42.7979     2612.00000
    42.8110     2764.00000
    42.8242     2641.00000
    42.8373     2757.00000
    42.8504     2557.00000
    42.8636     2730.00000
    42.8767     2713.00000
    42.8898     2641.00000
    42.9030     2732.00000
    42.9161     2558.00000
    42.9292     2650.00000
    42.9423     2693.00000
    42.9555     2696.00000
    42.9686     2686.00000
    42.9817     2681.00000
    42.9949     2572.00000
    43.0080     2706.00000
    43.0211     2689.00000
    43.0343     2596.00000
    43.0474     2602.00000
    43.0605     2642.00000
    43.0736     2604.00000
    43.0868     2653.00000
    43.0999     2736.00000
    43.1130     2764.00000
    43.1262     2661.00000
    43.1393     2681.00000
    43.1524     2654.00000
    43.1656     2551.00000
    43.1787     2562.00000
    43.1918     2656.00000
    43.2050     2686.00000
    43.2181     2638.00000
    43.2312     2584.00000
    43.2443     2607.00000
    43.2575     2630.00000
    43.2706     2600.00000
    43.2837     2678.00000
    43.2969     2696.00000
    43.3100     2679.00000
    43.3231     2629.00000
    43.3363     2634.00000
    43.3494     2702.00000
    43.3625     2634.00000
    43.3756     2640.00000
    43.3888     2747.00000
    43.4019     2737.00000
    43.4150     2683.00000
    43.4282     2699.00000
    43.4413     2686.00000
    43.4544     2842.00000
    43.4676     2968.00000
    43.4807     3006.00000
    43.4938     3124.00000
    43.5069     3283.00000
    43.5201     3549.00000
    43.5332     3419.00000
    43.5463     3393.00000
    43.5595     3341.00000
    43.5726     3077.00000
    43.5857     2962.00000
    43.5989     3076.00000
    43.6120     3166.00000
    43.6251     3188.00000
    43.6383     3054.00000
    43.6514     3058.00000
    43.6645     2967.00000
    43.6776     2962.00000
    43.6908     2819.00000
    43.7039     2800.00000
    43.7170     2663.00000
    43.7302     2697.00000
    43.7433     2598.00000
    43.7564     2647.00000
    43.7696     2725.00000
    43.7827     2569.00000
    43.7958     2543.00000
    43.8089     2640.00000
    43.8221     2659.00000
    43.8352     2609.00000
    43.8483     2672.00000
    43.8615     2577.00000
    43.8746     2734.00000
    43.8877     2700.00000
    43.9009     2604.00000
    43.9140     2647.00000
    43.9271     2600.00000
    43.9402     2618.00000
    43.9534     2639.00000
    43.9665     2544.00000
    43.9796     2621.00000
    43.9928     2643.00000
    44.0059     2600.00000
    44.0190     2584.00000
    44.0322     2582.00000
    44.0453     2575.00000
    44.0584     2541.00000
    44.0715     2558.00000
    44.0847     2594.00000
    44.0978     2573.00000
    44.1109     2613.00000
    44.1241     2653.00000
    44.1372     2674.00000
    44.1503     2778.00000
    44.1635     2685.00000
    44.1766     2813.00000
    44.1897     2911.00000
    44.2029     3030.00000
    44.2160     3033.00000
    44.2291     3068.00000
    44.2422     3090.00000
    44.2554     3075.00000
    44.2685     3323.00000
    44.2816     3463.00000
    44.2948     3712.00000
    44.3079     3863.00000
    44.3210     3740.00000
    44.3342     3607.00000
    44.3473     3422.00000
    44.3604     3265.00000
    44.3735     3055.00000
    44.3867     2972.00000
    44.3998     3023.00000
    44.4129     3199.00000
    44.4261     3279.00000
    44.4392     3251.00000
    44.4523     3124.00000
    44.4655     2987.00000
    44.4786     2866.00000
    44.4917     2915.00000
    44.5048     2797.00000
    44.5180     2798.00000
    44.5311     2692.00000
    44.5442     2695.00000
    44.5574     2776.00000
    44.5705     2804.00000
    44.5836     2842.00000
    44.5968     2920.00000
    44.6099     2922.00000
    44.6230     3012.00000
    44.6362     3160.00000
    44.6493     3316.00000
    44.6624     3616.00000
    44.6755     3893.00000
    44.6887     4571.00000
    44.7018     5029.00000
    44.7149     5578.00000
    44.7281     5887.00000
    44.7412     5651.00000
    44.7543     5346.00000
    44.7675     4964.00000
    44.7806     4498.00000
    44.7937     4272.00000
    44.8068     4161.00000
    44.8200     4125.00000
    44.8331     4233.00000
    44.8462     4360.00000
    44.8594     4158.00000
    44.8725     3968.00000
    44.8856     3653.00000
    44.8988     3384.00000
    44.9119     3061.00000
    44.9250     2989.00000
    44.9381     2919.00000
    44.9513     2718.00000
    44.9644     2834.00000
    44.9775     2646.00000
    44.9907     2750.00000
    45.0038     2746.00000
    45.0169     2768.00000
    45.0301     2647.00000
    45.0432     2587.00000
    45.0563     2589.00000
    45.0695     2612.00000
    45.0826     2563.00000
    45.0957     2660.00000
    45.1088     2639.00000
    45.1220     2687.00000
    45.1351     2610.00000
    45.1482     2624.00000
    45.1614     2583.00000
    45.1745     2542.00000
    45.1876     2593.00000
    45.2008     2646.00000
    45.2139     2574.00000
    45.2270     2636.00000
    45.2401     2529.00000
    45.2533     2626.00000
    45.2664     2587.00000
    45.2795     2516.00000
    45.2927     2633.00000
    45.3058     2635.00000
    45.3189     2660.00000
    45.3321     2542.00000
    45.3452     2620.00000
    45.3583     2666.00000
    45.3714     2579.00000
    45.3846     2595.00000
    45.3977     2604.00000
    45.4108     2609.00000
    45.4240     2572.00000
    45.4371     2676.00000
    45.4502     2581.00000
    45.4634     2730.00000
    45.4765     2580.00000
    45.4896     2764.00000
    45.5028     2669.00000
    45.5159     2742.00000
    45.5290     2822.00000
    45.5421     2830.00000
    45.5553     2792.00000
    45.5684     2770.00000
    45.5815     2858.00000
    45.5947     2937.00000
    45.6078     2812.00000
    45.6209     2903.00000
    45.6341     2985.00000
    45.6472     3029.00000
    45.6603     3141.00000
    45.6734     3313.00000
    45.6866     3622.00000
    45.6997     4218.00000
    45.7128     5298.00000
    45.7260     7212.00000
    45.7391     9630.00000
    45.7522    11773.00000
    45.7654    12267.00000
    45.7785    10852.00000
    45.7916     8341.00000
    45.8047     6388.00000
    45.8179     5303.00000
    45.8310     4906.00000
    45.8441     5300.00000
    45.8573     6312.00000
    45.8704     7253.00000
    45.8835     7630.00000
    45.8967     7102.00000
    45.9098     5814.00000
    45.9229     4730.00000
    45.9361     3951.00000
    45.9492     3374.00000
    45.9623     3077.00000
    45.9754     2934.00000
    45.9886     2927.00000
    46.0017     2762.00000
    46.0148     2809.00000
    46.0280     2934.00000
    46.0411     2818.00000
    46.0542     2701.00000
    46.0674     2687.00000
    46.0805     2734.00000
    46.0936     2763.00000
    46.1067     2705.00000
    46.1199     2734.00000
    46.1330     2653.00000
    46.1461     2722.00000
    46.1593     2769.00000
    46.1724     2807.00000
    46.1855     2789.00000
    46.1987     2770.00000
    46.2118     2664.00000
    46.2249     2757.00000
    46.2380     2825.00000
    46.2512     2938.00000
    46.2643     2902.00000
    46.2774     3042.00000
    46.2906     3313.00000
    46.3037     3700.00000
    46.3168     4522.00000
    46.3300     5698.00000
    46.3431     7135.00000
    46.3562     7834.00000
    46.3694     7205.00000
    46.3825     6119.00000
    46.3956     5079.00000
    46.4087     4298.00000
    46.4219     3974.00000
    46.4350     3877.00000
    46.4481     4247.00000
    46.4613     4785.00000
    46.4744     5288.00000
    46.4875     5215.00000
    46.5007     4650.00000
    46.5138     4089.00000
    46.5269     3519.00000
    46.5400     3162.00000
    46.5532     3049.00000
    46.5663     2902.00000
    46.5794     2838.00000
    46.5926     2716.00000
    46.6057     2755.00000
    46.6188     2738.00000
    46.6320     2747.00000
    46.6451     2697.00000
    46.6582     2683.00000
    46.6713     2789.00000
    46.6845     2713.00000
    46.6976     2723.00000
    46.7107     2649.00000
    46.7239     2677.00000
    46.7370     2716.00000
    46.7501     2656.00000
    46.7633     2673.00000
    46.7764     2723.00000
    46.7895     2673.00000
    46.8027     2685.00000
    46.8158     2693.00000
    46.8289     2665.00000
    46.8420     2584.00000
    46.8552     2616.00000
    46.8683     2647.00000
    46.8814     2752.00000
    46.8946     2690.00000
    46.9077     2642.00000
    46.9208     2703.00000
    46.9340     2608.00000
    46.9471     2678.00000
    46.9602     2704.00000
    46.9733     2639.00000
    46.9865     2635.00000
    46.9996     2668.00000
    47.0127     2780.00000
    47.0259     2686.00000
    47.0390     2747.00000
    47.0521     2802.00000
    47.0653     2773.00000
    47.0784     2812.00000
    47.0915     2861.00000
    47.1046     2989.00000
    47.1178     2919.00000
    47.1309     2963.00000
    47.1440     2905.00000
    47.1572     3012.00000
    47.1703     3105.00000
    47.1834     3324.00000
    47.1966     3343.00000
    47.2097     3553.00000
    47.2228     3934.00000
    47.2359     4480.00000
    47.2491     5173.00000
    47.2622     6288.00000
    47.2753     7276.00000
    47.2885     8414.00000
    47.3016     9029.00000
    47.3147     9129.00000
    47.3279     8114.00000
    47.3410     6850.00000
    47.3541     5762.00000
    47.3673     5098.00000
    47.3804     4971.00000
    47.3935     5303.00000
    47.4066     5582.00000
    47.4198     5868.00000
    47.4329     5981.00000
    47.4460     5803.00000
    47.4592     5108.00000
    47.4723     4388.00000
    47.4854     3693.00000
    47.4986     3409.00000
    47.5117     3076.00000
    47.5248     3063.00000
    47.5379     3011.00000
    47.5511     3007.00000
    47.5642     2934.00000
    47.5773     2856.00000
    47.5905     2936.00000
    47.6036     2935.00000
    47.6167     2977.00000
    47.6299     2931.00000
    47.6430     3064.00000
    47.6561     3079.00000
    47.6692     3210.00000
    47.6824     3273.00000
    47.6955     3355.00000
    47.7086     3304.00000
    47.7218     3339.00000
    47.7349     3360.00000
    47.7480     3526.00000
    47.7612     3506.00000
    47.7743     3560.00000
    47.7874     3755.00000
    47.8005     3937.00000
    47.8137     4141.00000
    47.8268     4372.00000
    47.8399     4742.00000
    47.8531     5178.00000
    47.8662     6019.00000
    47.8793     6969.00000
    47.8925     8691.00000
    47.9056    10881.00000
    47.9187    13926.00000
    47.9319    16983.00000
    47.9450    19110.00000
    47.9581    18791.00000
    47.9712    16693.00000
    47.9844    14132.00000
    47.9975    11898.00000
    48.0106    10379.00000
    48.0238     9677.00000
    48.0369     9952.00000
    48.0500    10970.00000
    48.0632    11653.00000
    48.0763    11874.00000
    48.0894    11050.00000
    48.1025     9785.00000
    48.1157     8168.00000
    48.1288     6746.00000
    48.1419     5677.00000
    48.1551     4900.00000
    48.1682     4433.00000
    48.1813     4040.00000
    48.1945     3911.00000
    48.2076     3643.00000
    48.2207     3559.00000
    48.2338     3430.00000
    48.2470     3527.00000
    48.2601     3413.00000
    48.2732     3420.00000
    48.2864     3456.00000
    48.2995     3496.00000
    48.3126     3420.00000
    48.3258     3356.00000
    48.3389     3258.00000
    48.3520     3331.00000
    48.3652     3468.00000
    48.3783     3662.00000
    48.3914     4034.00000
    48.4045     4530.00000
    48.4177     5331.00000
    48.4308     6810.00000
    48.4439     8735.00000
    48.4571    10655.00000
    48.4702    11966.00000
    48.4833    12169.00000
    48.4965    12409.00000
    48.5096    12287.00000
    48.5227    12088.00000
    48.5358    11359.00000
    48.5490    10397.00000
    48.5621     9805.00000
    48.5752     9265.00000
    48.5884     8935.00000
    48.6015     8473.00000
    48.6146     8290.00000
    48.6278     7897.00000
    48.6409     7818.00000
    48.6540     7441.00000
    48.6671     6978.00000
    48.6803     6260.00000
    48.6934     5489.00000
    48.7065     4854.00000
    48.7197     4361.00000
    48.7328     3919.00000
    48.7459     3731.00000
    48.7591     3701.00000
    48.7722     3819.00000
    48.7853     4094.00000
    48.7985     4279.00000
    48.8116     5024.00000
    48.8247     5946.00000
    48.8378     7225.00000
    48.8510     9179.00000
    48.8641    11233.00000
    48.8772    12829.00000
    48.8904    12841.00000
    48.9035    11341.00000
    48.9166     9453.00000
    48.9298     7745.00000
    48.9429     6595.00000
    48.9560     6162.00000
    48.9691     6240.00000
    48.9823     6935.00000
    48.9954     7453.00000
    49.0085     8245.00000
    49.0217     7929.00000
    49.0348     7157.00000
    49.0479     6110.00000
    49.0611     5282.00000
    49.0742     4382.00000
    49.0873     3914.00000
    49.1004     3661.00000
    49.1136     3402.00000
    49.1267     3229.00000
    49.1398     3051.00000
    49.1530     3069.00000
    49.1661     2986.00000
    49.1792     2887.00000
    49.1924     2930.00000
    49.2055     2867.00000
    49.2186     2837.00000
    49.2318     2787.00000
    49.2449     2763.00000
    49.2580     2723.00000
    49.2711     2701.00000
    49.2843     2737.00000
    49.2974     2790.00000
    49.3105     2840.00000
    49.3237     2879.00000
    49.3368     2843.00000
    49.3499     2692.00000
    49.3631     2802.00000
    49.3762     2819.00000
    49.3893     2866.00000
    49.4024     3083.00000
    49.4156     3121.00000
    49.4287     3338.00000
    49.4418     3384.00000
    49.4550     3400.00000
    49.4681     3475.00000
    49.4812     3268.00000
    49.4944     3098.00000
    49.5075     3060.00000
    49.5206     3043.00000
    49.5337     2990.00000
    49.5469     3148.00000
    49.5600     3244.00000
    49.5731     3402.00000
    49.5863     3457.00000
    49.5994     3517.00000
    49.6125     3348.00000
    49.6257     3292.00000
    49.6388     3228.00000
    49.6519     3295.00000
    49.6651     3206.00000
    49.6782     3217.00000
    49.6913     3037.00000
    49.7044     3173.00000
    49.7176     3232.00000
    49.7307     3108.00000
    49.7438     3064.00000
    49.7570     3034.00000
    49.7701     3090.00000
    49.7832     3096.00000
    49.7964     3121.00000
    49.8095     3155.00000
    49.8226     3168.00000
    49.8357     3183.00000
    49.8489     3208.00000
    49.8620     3293.00000
    49.8751     3303.00000
    49.8883     3271.00000
    49.9014     3327.00000
    49.9145     3434.00000
    49.9277     3487.00000
    49.9408     3491.00000
    49.9539     3740.00000
    49.9670     3914.00000
    49.9802     4401.00000
    49.9933     4801.00000
    50.0064     5660.00000
    50.0196     6822.00000
    50.0327     8780.00000
    50.0458    11200.00000
    50.0590    14663.00000
    50.0721    17330.00000
    50.0852    18420.00000
    50.0984    18031.00000
    50.1115    16250.00000
    50.1246    13494.00000
    50.1377    11541.00000
    50.1509     9994.00000
    50.1640     9953.00000
    50.1771    10270.00000
    50.1903    11404.00000
    50.2034    12826.00000
    50.2165    13045.00000
    50.2297    12653.00000
    50.2428    11240.00000
    50.2559     9028.00000
    50.2690     7544.00000
    50.2822     6421.00000
    50.2953     5626.00000
    50.3084     5297.00000
    50.3216     4927.00000
    50.3347     4699.00000
    50.3478     4374.00000
    50.3610     4195.00000
    50.3741     3866.00000
    50.3872     3677.00000
    50.4003     3482.00000
    50.4135     3364.00000
    50.4266     3202.00000
    50.4397     3301.00000
    50.4529     3097.00000
    50.4660     3179.00000
    50.4791     3232.00000
    50.4923     3077.00000
    50.5054     3240.00000
    50.5185     3202.00000
    50.5317     3243.00000
    50.5448     3287.00000
    50.5579     3246.00000
    50.5710     3448.00000
    50.5842     3654.00000
    50.5973     3703.00000
    50.6104     3790.00000
    50.6236     4059.00000
    50.6367     4549.00000
    50.6498     4978.00000
    50.6630     6000.00000
    50.6761     6886.00000
    50.6892     8111.00000
    50.7023     9241.00000
    50.7155    10320.00000
    50.7286    10781.00000
    50.7417    10376.00000
    50.7549     8994.00000
    50.7680     7805.00000
    50.7811     6708.00000
    50.7943     6314.00000
    50.8074     6048.00000
    50.8205     6173.00000
    50.8336     6473.00000
    50.8468     6591.00000
    50.8599     6852.00000
    50.8730     6640.00000
    50.8862     6246.00000
    50.8993     5264.00000
    50.9124     4625.00000
    50.9256     4186.00000
    50.9387     3786.00000
    50.9518     3532.00000
    50.9649     3299.00000
    50.9781     3099.00000
    50.9912     3143.00000
    51.0043     3004.00000
    51.0175     2826.00000
    51.0306     2872.00000
    51.0437     2825.00000
    51.0569     2784.00000
    51.0700     2745.00000
    51.0831     2870.00000
    51.0963     2728.00000
    51.1094     2692.00000
    51.1225     2720.00000
    51.1356     2683.00000
    51.1488     2761.00000
    51.1619     2689.00000
    51.1750     2746.00000
    51.1882     2709.00000
    51.2013     2743.00000
    51.2144     2752.00000
    51.2276     2641.00000
    51.2407     2843.00000
    51.2538     2724.00000
    51.2669     2739.00000
    51.2801     2743.00000
    51.2932     2716.00000
    51.3063     2748.00000
    51.3195     2763.00000
    51.3326     2767.00000
    51.3457     2804.00000
    51.3589     2810.00000
    51.3720     2816.00000
    51.3851     2801.00000
    51.3982     2801.00000
    51.4114     2868.00000
    51.4245     2980.00000
    51.4376     2916.00000
    51.4508     2937.00000
    51.4639     3085.00000
    51.4770     3118.00000
    51.4902     3143.00000
    51.5033     3266.00000
    51.5164     3373.00000
    51.5296     3524.00000
    51.5427     3723.00000
    51.5558     3897.00000
    51.5689     4369.00000
    51.5821     5091.00000
    51.5952     6185.00000
    51.6083     7785.00000
    51.6215     8827.00000
    51.6346     9227.00000
    51.6477     8306.00000
    51.6609     6940.00000
    51.6740     5714.00000
    51.6871     4851.00000
    51.7002     4273.00000
    51.7134     4160.00000
    51.7265     4667.00000
    51.7396     5117.00000
    51.7528     5677.00000
    51.7659     6070.00000
    51.7790     5819.00000
    51.7922     5296.00000
    51.8053     4483.00000
    51.8184     4109.00000
    51.8315     3900.00000
    51.8447     3867.00000
    51.8578     3930.00000
    51.8709     3823.00000
    51.8841     3659.00000
    51.8972     3398.00000
    51.9103     3181.00000
    51.9235     2936.00000
    51.9366     2929.00000
    51.9497     2980.00000
    51.9628     2938.00000
    51.9760     3099.00000
    51.9891     3071.00000
    52.0022     3053.00000
    52.0154     3158.00000
    52.0285     3058.00000
    52.0416     2833.00000
    52.0548     2770.00000
    52.0679     2842.00000
    52.0810     2676.00000
    52.0942     2797.00000
    52.1073     2829.00000
    52.1204     2633.00000
    52.1335     2696.00000
    52.1467     2641.00000
    52.1598     2729.00000
    52.1729     2646.00000
    52.1861     2670.00000
    52.1992     2696.00000
    52.2123     2572.00000
    52.2255     2616.00000
    52.2386     2745.00000
    52.2517     2663.00000
    52.2648     2646.00000
    52.2780     2675.00000
    52.2911     2669.00000
    52.3042     2677.00000
    52.3174     2764.00000
    52.3305     2773.00000
    52.3436     2730.00000
    52.3568     2797.00000
    52.3699     2879.00000
    52.3830     2744.00000
    52.3961     2840.00000
    52.4093     2861.00000
    52.4224     2926.00000
    52.4355     2952.00000
    52.4487     2986.00000
    52.4618     3063.00000
    52.4749     3099.00000
    52.4881     3038.00000
    52.5012     3100.00000
    52.5143     3369.00000
    52.5275     3635.00000
    52.5406     4164.00000
    52.5537     4835.00000
    52.5668     5763.00000
    52.5800     7389.00000
    52.5931     8715.00000
    52.6062     9716.00000
    52.6194    10408.00000
    52.6325    11198.00000
    52.6456    10939.00000
    52.6588     9884.00000
    52.6719     8576.00000
    52.6850     7077.00000
    52.6981     5891.00000
    52.7113     5612.00000
    52.7244     5943.00000
    52.7375     6164.00000
    52.7507     6757.00000
    52.7638     7000.00000
    52.7769     7089.00000
    52.7901     6793.00000
    52.8032     6068.00000
    52.8163     5361.00000
    52.8294     4461.00000
    52.8426     3844.00000
    52.8557     3478.00000
    52.8688     3177.00000
    52.8820     3072.00000
    52.8951     2966.00000
    52.9082     3017.00000
    52.9214     2936.00000
    52.9345     3028.00000
    52.9476     2946.00000
    52.9608     2910.00000
    52.9739     2895.00000
    52.9870     3055.00000
    53.0001     3114.00000
    53.0133     3240.00000
    53.0264     3512.00000
    53.0395     3762.00000
    53.0527     4052.00000
    53.0658     4677.00000
    53.0789     5009.00000
    53.0921     5110.00000
    53.1052     5201.00000
    53.1183     5185.00000
    53.1314     5310.00000
    53.1446     5325.00000
    53.1577     5187.00000
    53.1708     4745.00000
    53.1840     4454.00000
    53.1971     4178.00000
    53.2102     4026.00000
    53.2234     3949.00000
    53.2365     3997.00000
    53.2496     4013.00000
    53.2627     4041.00000
    53.2759     3878.00000
    53.2890     3977.00000
    53.3021     3866.00000
    53.3153     3601.00000
    53.3284     3404.00000
    53.3415     3159.00000
    53.3547     2938.00000
    53.3678     2809.00000
    53.3809     2763.00000
    53.3941     2724.00000
    53.4072     2749.00000
    53.4203     2639.00000
    53.4334     2811.00000
    53.4466     2727.00000
    53.4597     2682.00000
    53.4728     2724.00000
    53.4860     2796.00000
    53.4991     2862.00000
    53.5122     3030.00000
    53.5254     3272.00000
    53.5385     3552.00000
    53.5516     3872.00000
    53.5647     4276.00000
    53.5779     4392.00000
    53.5910     4543.00000
    53.6041     4352.00000
    53.6173     4046.00000
    53.6304     3673.00000
    53.6435     3254.00000
    53.6567     3175.00000
    53.6698     3148.00000
    53.6829     3412.00000
    53.6960     3436.00000
    53.7092     3528.00000
    53.7223     3665.00000
    53.7354     3535.00000
    53.7486     3484.00000
    53.7617     3288.00000
    53.7748     3022.00000
    53.7880     2961.00000
    53.8011     2936.00000
    53.8142     2809.00000
    53.8274     2864.00000
    53.8405     2728.00000
    53.8536     2742.00000
    53.8667     2717.00000
    53.8799     2622.00000
    53.8930     2699.00000
    53.9061     2638.00000
    53.9193     2693.00000
    53.9324     2648.00000
    53.9455     2646.00000
    53.9587     2658.00000
    53.9718     2675.00000
    53.9849     2581.00000
    53.9980     2588.00000
    54.0112     2574.00000
    54.0243     2635.00000
    54.0374     2504.00000
    54.0506     2631.00000
    54.0637     2501.00000
    54.0768     2603.00000
    54.0900     2519.00000
    54.1031     2460.00000
    54.1162     2552.00000
    54.1293     2506.00000
    54.1425     2588.00000
    54.1556     2636.00000
    54.1687     2616.00000
    54.1819     2508.00000
    54.1950     2455.00000
    54.2081     2519.00000
    54.2213     2594.00000
    54.2344     2509.00000
    54.2475     2553.00000
    54.2607     2444.00000
    54.2738     2551.00000
    54.2869     2513.00000
    54.3000     2510.00000
    54.3132     2537.00000
    54.3263     2651.00000
    54.3394     2649.00000
    54.3526     2645.00000
    54.3657     2530.00000
    54.3788     2544.00000
    54.3920     2567.00000
    54.4051     2604.00000
    54.4182     2617.00000
    54.4313     2577.00000
    54.4445     2650.00000
    54.4576     2635.00000
    54.4707     2718.00000
    54.4839     2736.00000
    54.4970     2832.00000
    54.5101     2865.00000
    54.5233     2931.00000
    54.5364     2923.00000
    54.5495     2929.00000
    54.5626     2901.00000
    54.5758     2752.00000
    54.5889     2865.00000
    54.6020     2878.00000
    54.6152     2764.00000
    54.6283     2859.00000
    54.6414     2740.00000
    54.6546     2816.00000
    54.6677     2679.00000
    54.6808     2797.00000
    54.6940     2697.00000
    54.7071     2725.00000
    54.7202     2678.00000
    54.7333     2687.00000
    54.7465     2729.00000
    54.7596     2639.00000
    54.7727     2628.00000
    54.7859     2632.00000
    54.7990     2618.00000
    54.8121     2655.00000
    54.8253     2585.00000
    54.8384     2556.00000
    54.8515     2670.00000
    54.8646     2476.00000
    54.8778     2561.00000
    54.8909     2582.00000
    54.9040     2612.00000
    54.9172     2582.00000
    54.9303     2578.00000
    54.9434     2519.00000
    54.9566     2561.00000
    54.9697     2531.00000
    54.9828     2613.00000
    54.9959     2537.00000
    55.0091     2526.00000
    55.0222     2588.00000
    55.0353     2545.00000
    55.0485     2528.00000
    55.0616     2555.00000
    55.0747     2637.00000
    55.0879     2583.00000
    55.1010     2681.00000
    55.1141     2618.00000
    55.1272     2563.00000
    55.1404     2471.00000
    55.1535     2536.00000
    55.1666     2511.00000
    55.1798     2658.00000
    55.1929     2576.00000
    55.2060     2515.00000
    55.2192     2648.00000
    55.2323     2576.00000
    55.2454     2601.00000
    55.2586     2681.00000
    55.2717     2612.00000
    55.2848     2606.00000
    55.2979     2614.00000
    55.3111     2739.00000
    55.3242     2674.00000
    55.3373     2672.00000
    55.3505     2699.00000
    55.3636     2826.00000
    55.3767     2808.00000
    55.3899     2704.00000
    55.4030     2883.00000
    55.4161     2853.00000
    55.4292     2900.00000
    55.4424     2930.00000
    55.4555     2986.00000
    55.4686     2955.00000
    55.4818     3011.00000
    55.4949     3002.00000
    55.5080     3172.00000
    55.5212     3212.00000
    55.5343     3258.00000
    55.5474     3506.00000
    55.5605     3677.00000
    55.5737     3993.00000
    55.5868     4322.00000
    55.5999     5273.00000
    55.6131     6126.00000
    55.6262     7598.00000
    55.6393     9114.00000
    55.6525    10456.00000
    55.6656    11368.00000
    55.6787    11142.00000
    55.6918    10104.00000
    55.7050     8620.00000
    55.7181     7185.00000
    55.7312     6096.00000
    55.7444     5758.00000
    55.7575     5634.00000
    55.7706     5884.00000
    55.7838     6444.00000
    55.7969     7062.00000
    55.8100     7454.00000
    55.8232     7464.00000
    55.8363     7002.00000
    55.8494     6277.00000
    55.8625     5331.00000
    55.8757     4717.00000
    55.8888     4182.00000
    55.9019     3813.00000
    55.9151     3686.00000
    55.9282     3553.00000
    55.9413     3410.00000
    55.9545     3401.00000
    55.9676     3309.00000
    55.9807     3534.00000
    55.9938     3580.00000
    56.0070     3645.00000
    56.0201     3643.00000
    56.0332     3504.00000
    56.0464     3245.00000
    56.0595     3245.00000
    56.0726     3133.00000
    56.0858     3126.00000
    56.0989     3131.00000
    56.1120     3056.00000
    56.1251     3065.00000
    56.1383     3145.00000
    56.1514     3225.00000
    56.1645     3310.00000
    56.1777     3221.00000
    56.1908     3334.00000
    56.2039     3161.00000
    56.2171     3133.00000
    56.2302     3131.00000
    56.2433     3191.00000
    56.2565     3330.00000
    56.2696     3417.00000
    56.2827     3643.00000
    56.2958     3996.00000
    56.3090     4826.00000
    56.3221     5721.00000
    56.3352     6926.00000
    56.3484     8587.00000
    56.3615     9843.00000
    56.3746    10780.00000
    56.3878    10984.00000
    56.4009    10582.00000
    56.4140     9581.00000
    56.4271     7960.00000
    56.4403     6592.00000
    56.4534     5856.00000
    56.4665     5640.00000
    56.4797     6035.00000
    56.4928     6798.00000
    56.5059     8049.00000
    56.5191     9161.00000
    56.5322     9700.00000
    56.5453    10111.00000
    56.5584     9437.00000
    56.5716     8352.00000
    56.5847     6933.00000
    56.5978     5773.00000
    56.6110     5429.00000
    56.6241     5317.00000
    56.6372     5387.00000
    56.6504     5838.00000
    56.6635     6089.00000
    56.6766     6108.00000
    56.6898     5894.00000
    56.7029     5481.00000
    56.7160     5042.00000
    56.7291     4675.00000
    56.7423     4075.00000
    56.7554     3914.00000
    56.7685     3907.00000
    56.7817     3709.00000
    56.7948     3872.00000
    56.8079     3789.00000
    56.8211     3819.00000
    56.8342     3742.00000
    56.8473     3499.00000
    56.8604     3195.00000
    56.8736     3168.00000
    56.8867     3159.00000
    56.8998     3049.00000
    56.9130     2929.00000
    56.9261     2889.00000
    56.9392     2859.00000
    56.9524     2840.00000
    56.9655     2994.00000
    56.9786     2814.00000
    56.9917     2869.00000
    57.0049     2801.00000
    57.0180     2843.00000
    57.0311     2915.00000
    57.0443     2933.00000
    57.0574     2982.00000
    57.0705     2961.00000
    57.0837     3076.00000
    57.0968     3041.00000
    57.1099     2973.00000
    57.1231     3133.00000
    57.1362     3216.00000
    57.1493     3210.00000
    57.1624     3390.00000
    57.1756     3503.00000
    57.1887     3799.00000
    57.2018     4135.00000
    57.2150     4678.00000
    57.2281     5191.00000
    57.2412     5934.00000
    57.2544     7056.00000
    57.2675     7881.00000
    57.2806     8745.00000
    57.2937     9116.00000
    57.3069     9543.00000
    57.3200     9823.00000
    57.3331     9849.00000
    57.3463     9979.00000
    57.3594     9282.00000
    57.3725     8893.00000
    57.3857     8192.00000
    57.3988     7498.00000
    57.4119     7328.00000
    57.4250     7058.00000
    57.4382     7661.00000
    57.4513     8189.00000
    57.4644     8619.00000
    57.4776     9396.00000
    57.4907     9740.00000
    57.5038     9331.00000
    57.5170     8714.00000
    57.5301     7621.00000
    57.5432     6727.00000
    57.5564     5599.00000
    57.5695     4846.00000
    57.5826     4545.00000
    57.5957     4427.00000
    57.6089     4401.00000
    57.6220     4401.00000
    57.6351     4714.00000
    57.6483     4766.00000
    57.6614     4700.00000
    57.6745     4397.00000
    57.6877     4245.00000
    57.7008     4044.00000
    57.7139     3499.00000
    57.7270     3463.00000
    57.7402     3358.00000
    57.7533     3099.00000
    57.7664     3084.00000
    57.7796     3008.00000
    57.7927     3142.00000
    57.8058     2968.00000
    57.8190     3090.00000
    57.8321     3166.00000
    57.8452     3126.00000
    57.8583     3136.00000
    57.8715     3195.00000
    57.8846     3209.00000
    57.8977     3469.00000
    57.9109     3564.00000
    57.9240     3966.00000
    57.9371     4306.00000
    57.9503     4953.00000
    57.9634     5604.00000
    57.9765     6692.00000
    57.9897     7790.00000
    58.0028     8430.00000
    58.0159     8188.00000
    58.0290     7486.00000
    58.0422     6427.00000
    58.0553     5587.00000
    58.0684     4962.00000
    58.0816     4611.00000
    58.0947     4541.00000
    58.1078     4545.00000
    58.1210     4858.00000
    58.1341     5593.00000
    58.1472     6144.00000
    58.1603     6401.00000
    58.1735     6484.00000
    58.1866     5915.00000
    58.1997     5199.00000
    58.2129     4563.00000
    58.2260     4104.00000
    58.2391     3855.00000
    58.2523     3703.00000
    58.2654     3527.00000
    58.2785     3418.00000
    58.2916     3598.00000
    58.3048     3730.00000
    58.3179     4008.00000
    58.3310     3849.00000
    58.3442     3810.00000
    58.3573     3690.00000
    58.3704     3533.00000
    58.3836     3309.00000
    58.3967     3145.00000
    58.4098     3121.00000
    58.4230     3014.00000
    58.4361     3018.00000
    58.4492     3048.00000
    58.4623     3042.00000
    58.4755     3122.00000
    58.4886     3201.00000
    58.5017     3224.00000
    58.5149     3144.00000
    58.5280     2987.00000
    58.5411     3072.00000
    58.5543     2911.00000
    58.5674     2971.00000
    58.5805     2920.00000
    58.5936     3029.00000
    58.6068     2943.00000
    58.6199     2989.00000
    58.6330     3005.00000
    58.6462     3084.00000
    58.6593     3247.00000
    58.6724     3345.00000
    58.6856     3552.00000
    58.6987     3756.00000
    58.7118     3920.00000
    58.7249     4284.00000
    58.7381     4581.00000
    58.7512     5164.00000
    58.7643     5739.00000
    58.7775     6541.00000
    58.7906     7274.00000
    58.8037     7950.00000
    58.8169     8208.00000
    58.8300     8125.00000
    58.8431     7757.00000
    58.8562     6957.00000
    58.8694     6204.00000
    58.8825     5809.00000
    58.8956     5711.00000
    58.9088     5957.00000
    58.9219     6413.00000
    58.9350     7210.00000
    58.9482     8171.00000
    58.9613     9635.00000
    58.9744    10730.00000
    58.9876    11693.00000
    59.0007    11431.00000
    59.0138    10720.00000
    59.0269     9044.00000
    59.0401     7423.00000
    59.0532     6092.00000
    59.0663     5400.00000
    59.0795     5150.00000
    59.0926     4913.00000
    59.1057     4934.00000
    59.1189     5399.00000
    59.1320     5844.00000
    59.1451     6255.00000
    59.1582     6440.00000
    59.1714     6334.00000
    59.1845     5836.00000
    59.1976     5188.00000
    59.2108     4997.00000
    59.2239     4511.00000
    59.2370     4532.00000
    59.2502     4719.00000
    59.2633     5202.00000
    59.2764     5806.00000
    59.2895     6658.00000
    59.3027     7566.00000
    59.3158     8744.00000
    59.3289     9392.00000
    59.3421     9537.00000
    59.3552     9088.00000
    59.3683     8179.00000
    59.3815     6804.00000
    59.3946     5782.00000
    59.4077     5133.00000
    59.4208     4789.00000
    59.4340     4892.00000
    59.4471     5110.00000
    59.4602     5405.00000
    59.4734     5895.00000
    59.4865     6163.00000
    59.4996     6244.00000
    59.5128     6015.00000
    59.5259     5947.00000
    59.5390     4996.00000
    59.5522     4422.00000
    59.5653     4036.00000
    59.5784     3725.00000
    59.5915     3608.00000
    59.6047     3439.00000
    59.6178     3248.00000
    59.6309     3227.00000
    59.6441     3185.00000
    59.6572     3225.00000
    59.6703     3162.00000
    59.6835     3301.00000
    59.6966     3494.00000
    59.7097     3516.00000
    59.7228     3658.00000
    59.7360     3844.00000
    59.7491     4342.00000
    59.7622     4755.00000
    59.7754     5729.00000
    59.7885     6735.00000
    59.8016     7773.00000
    59.8148     9001.00000
    59.8279    10009.00000
    59.8410    10370.00000
    59.8541    11050.00000
    59.8673    10582.00000
    59.8804    10138.00000
    59.8935     9560.00000
    59.9067     8663.00000
    59.9198     8828.00000
    59.9329    10005.00000
    59.9461    11576.00000
    59.9592    13245.00000
    59.9723    14019.00000
    59.9855    13531.00000
    59.9986    12468.00000
    60.0117    10826.00000
    60.0248     9762.00000
    60.0380     8513.00000
    60.0511     7553.00000
    60.0642     6743.00000
    60.0774     6364.00000
    60.0905     6209.00000
    60.1036     6522.00000
    60.1168     7023.00000
    60.1299     7404.00000
    60.1430     7118.00000
    60.1561     6410.00000
    60.1693     5723.00000
    60.1824     4884.00000
    60.1955     4074.00000
    60.2087     3866.00000
    60.2218     3444.00000
    60.2349     3329.00000
    60.2481     3197.00000
    60.2612     3097.00000
    60.2743     3009.00000
    60.2874     2953.00000
    60.3006     2822.00000
    60.3137     2808.00000
    60.3268     2756.00000
    60.3400     2784.00000
    60.3531     2696.00000
    60.3662     2774.00000
    60.3794     2759.00000
    60.3925     2648.00000
    60.4056     2690.00000
    60.4188     2644.00000
    60.4319     2617.00000
    60.4450     2695.00000
    60.4581     2699.00000
    60.4713     2741.00000
    60.4844     2828.00000
    60.4975     2721.00000
    60.5107     2786.00000
    60.5238     2831.00000
    60.5369     2738.00000
    60.5501     2816.00000
    60.5632     2846.00000
    60.5763     2707.00000
    60.5894     2855.00000
    60.6026     2735.00000
    60.6157     2842.00000
    60.6288     2949.00000
    60.6420     2901.00000
    60.6551     3034.00000
    60.6682     3022.00000
    60.6814     3076.00000
    60.6945     3230.00000
    60.7076     3245.00000
    60.7207     3346.00000
    60.7339     3638.00000
    60.7470     3864.00000
    60.7601     4241.00000
    60.7733     4885.00000
    60.7864     5602.00000
    60.7995     6757.00000
    60.8127     8086.00000
    60.8258     9162.00000
    60.8389     9853.00000
    60.8521     9783.00000
    60.8652     9114.00000
    60.8783     8074.00000
    60.8914     7159.00000
    60.9046     6842.00000
    60.9177     6763.00000
    60.9308     6930.00000
    60.9440     7818.00000
    60.9571     8929.00000
    60.9702     9890.00000
    60.9834    10933.00000
    60.9965    11394.00000
    61.0096    10983.00000
    61.0227     9926.00000
    61.0359     8921.00000
    61.0490     7784.00000
    61.0621     6644.00000
    61.0753     5964.00000
    61.0884     5795.00000
    61.1015     5774.00000
    61.1147     6190.00000
    61.1278     6545.00000
    61.1409     7081.00000
    61.1540     7373.00000
    61.1672     7244.00000
    61.1803     7078.00000
    61.1934     6597.00000
    61.2066     6264.00000
    61.2197     5867.00000
    61.2328     5456.00000
    61.2460     5354.00000
    61.2591     5255.00000
    61.2722     5310.00000
    61.2854     5276.00000
    61.2985     5431.00000
    61.3116     5577.00000
    61.3247     5796.00000
    61.3379     5866.00000
    61.3510     5838.00000
    61.3641     5711.00000
    61.3773     5274.00000
    61.3904     4899.00000
    61.4035     4495.00000
    61.4167     3946.00000
    61.4298     3737.00000
    61.4429     3811.00000
    61.4560     3693.00000
    61.4692     3864.00000
    61.4823     3799.00000
    61.4954     3848.00000
    61.5086     3775.00000
    61.5217     3679.00000
    61.5348     3705.00000
    61.5480     3322.00000
    61.5611     3315.00000
    61.5742     2959.00000
    61.5873     2760.00000
    61.6005     2795.00000
    61.6136     2675.00000
    61.6267     2667.00000
    61.6399     2603.00000
    61.6530     2545.00000
    61.6661     2493.00000
    61.6793     2479.00000
    61.6924     2446.00000
    61.7055     2529.00000
    61.7187     2504.00000
    61.7318     2498.00000
    61.7449     2529.00000
    61.7580     2629.00000
    61.7712     2458.00000
    61.7843     2427.00000
    61.7974     2469.00000
    61.8106     2570.00000
    61.8237     2536.00000
    61.8368     2528.00000
    61.8500     2421.00000
    61.8631     2527.00000
    61.8762     2339.00000
    61.8893     2369.00000
    61.9025     2458.00000
    61.9156     2463.00000
    61.9287     2377.00000
    61.9419     2535.00000
    61.9550     2533.00000
    61.9681     2546.00000
    61.9813     2588.00000
    61.9944     2496.00000
    62.0075     2403.00000
    62.0206     2618.00000
    62.0338     2434.00000
    62.0469     2475.00000
    62.0600     2428.00000
    62.0732     2471.00000
    62.0863     2452.00000
    62.0994     2541.00000
    62.1126     2444.00000
    62.1257     2523.00000
    62.1388     2427.00000
    62.1520     2432.00000
    62.1651     2457.00000
    62.1782     2489.00000
    62.1913     2426.00000
    62.2045     2561.00000
    62.2176     2432.00000
    62.2307     2342.00000
    62.2439     2455.00000
    62.2570     2391.00000
    62.2701     2476.00000
    62.2833     2357.00000
    62.2964     2357.00000
    62.3095     2416.00000
    62.3226     2443.00000
    62.3358     2444.00000
    62.3489     2464.00000
    62.3620     2431.00000
    62.3752     2472.00000
    62.3883     2485.00000
    62.4014     2514.00000
    62.4146     2531.00000
    62.4277     2599.00000
    62.4408     2610.00000
    62.4539     2544.00000
    62.4671     2604.00000
    62.4802     2510.00000
    62.4933     2555.00000
    62.5065     2485.00000
    62.5196     2456.00000
    62.5327     2471.00000
    62.5459     2381.00000
    62.5590     2465.00000
    62.5721     2438.00000
    62.5852     2414.00000
    62.5984     2458.00000
    62.6115     2454.00000
    62.6246     2451.00000
    62.6378     2444.00000
    62.6509     2440.00000
    62.6640     2439.00000
    62.6772     2288.00000
    62.6903     2421.00000
    62.7034     2417.00000
    62.7166     2480.00000
    62.7297     2459.00000
    62.7428     2418.00000
    62.7559     2372.00000
    62.7691     2379.00000
    62.7822     2410.00000
    62.7953     2436.00000
    62.8085     2430.00000
    62.8216     2385.00000
    62.8347     2350.00000
    62.8479     2451.00000
    62.8610     2363.00000
    62.8741     2374.00000
    62.8872     2323.00000
    62.9004     2395.00000
    62.9135     2410.00000
    62.9266     2347.00000
    62.9398     2432.00000
    62.9529     2429.00000
    62.9660     2372.00000
    62.9792     2376.00000
    62.9923     2300.00000
    63.0054     2485.00000
    63.0185     2452.00000
    63.0317     2415.00000
    63.0448     2313.00000
    63.0579     2389.00000
    63.0711     2438.00000
    63.0842     2400.00000
    63.0973     2463.00000
    63.1105     2415.00000
    63.1236     2432.00000
    63.1367     2363.00000
    63.1499     2384.00000
    63.1630     2370.00000
    63.1761     2334.00000
    63.1892     2435.00000
    63.2024     2449.00000
    63.2155     2397.00000
    63.2286     2324.00000
    63.2418     2352.00000
    63.2549     2407.00000
    63.2680     2405.00000
    63.2812     2433.00000
    63.2943     2389.00000
    63.3074     2353.00000
    63.3205     2382.00000
    63.3337     2416.00000
    63.3468     2315.00000
    63.3599     2366.00000
    63.3731     2358.00000
    63.3862     2430.00000
    63.3993     2454.00000
    63.4125     2386.00000
    63.4256     2441.00000
    63.4387     2400.00000
    63.4518     2353.00000
    63.4650     2434.00000
    63.4781     2490.00000
    63.4912     2402.00000
    63.5044     2415.00000
    63.5175     2446.00000
    63.5306     2361.00000
    63.5438     2544.00000
    63.5569     2550.00000
    63.5700     2446.00000
    63.5831     2511.00000
    63.5963     2442.00000
    63.6094     2428.00000
    63.6225     2512.00000
    63.6357     2556.00000
    63.6488     2546.00000
    63.6619     2522.00000
    63.6751     2544.00000
    63.6882     2739.00000
    63.7013     2798.00000
    63.7145     2864.00000
    63.7276     2953.00000
    63.7407     3069.00000
    63.7538     3131.00000
    63.7670     3372.00000
    63.7801     3597.00000
    63.7932     3891.00000
    63.8064     3971.00000
    63.8195     4153.00000
    63.8326     4023.00000
    63.8458     3798.00000
    63.8589     3521.00000
    63.8720     3187.00000
    63.8851     3219.00000
    63.8983     3077.00000
    63.9114     2960.00000
    63.9245     3047.00000
    63.9377     2998.00000
    63.9508     3046.00000
    63.9639     3115.00000
    63.9771     3229.00000
    63.9902     3269.00000
    64.0033     3276.00000
    64.0164     3170.00000
    64.0296     3092.00000
    64.0427     2909.00000
    64.0558     2841.00000
    64.0690     2680.00000
    64.0821     2647.00000
    64.0952     2631.00000
    64.1084     2601.00000
    64.1215     2602.00000
    64.1346     2700.00000
    64.1478     2627.00000
    64.1609     2703.00000
    64.1740     2605.00000
    64.1871     2712.00000
    64.2003     2842.00000
    64.2134     2766.00000
    64.2265     2947.00000
    64.2397     3055.00000
    64.2528     3284.00000
    64.2659     3669.00000
    64.2791     3972.00000
    64.2922     4334.00000
    64.3053     4719.00000
    64.3184     5077.00000
    64.3316     5194.00000
    64.3447     5408.00000
    64.3578     5232.00000
    64.3710     5050.00000
    64.3841     4656.00000
    64.3972     4271.00000
    64.4104     3923.00000
    64.4235     3654.00000
    64.4366     3482.00000
    64.4498     3557.00000
    64.4629     3656.00000
    64.4760     3721.00000
    64.4891     3724.00000
    64.5023     3840.00000
    64.5154     3759.00000
    64.5285     3932.00000
    64.5417     3814.00000
    64.5548     3657.00000
    64.5679     3524.00000
    64.5811     3248.00000
    64.5942     2982.00000
    64.6073     2841.00000
    64.6204     2648.00000
    64.6336     2670.00000
    64.6467     2556.00000
    64.6598     2547.00000
    64.6730     2505.00000
    64.6861     2466.00000
    64.6992     2377.00000
    64.7124     2521.00000
    64.7255     2437.00000
    64.7386     2409.00000
    64.7517     2488.00000
    64.7649     2357.00000
    64.7780     2433.00000
    64.7911     2356.00000
    64.8043     2419.00000
    64.8174     2365.00000
    64.8305     2312.00000
    64.8437     2368.00000
    64.8568     2394.00000
    64.8699     2296.00000
    64.8830     2345.00000
    64.8962     2433.00000
    64.9093     2379.00000
    64.9224     2429.00000
    64.9356     2330.00000
    64.9487     2427.00000
    64.9618     2352.00000
    64.9750     2422.00000
    64.9881     2362.00000
    65.0012     2335.00000
    65.0144     2392.00000
    65.0275     2366.00000
    65.0406     2463.00000
    65.0537     2514.00000
    65.0669     2468.00000
    65.0800     2347.00000
    65.0931     2424.00000
    65.1063     2475.00000
    65.1194     2513.00000
    65.1325     2387.00000
    65.1457     2567.00000
    65.1588     2490.00000
    65.1719     2609.00000
    65.1850     2578.00000
    65.1982     2513.00000
    65.2113     2628.00000
    65.2244     2498.00000
    65.2376     2514.00000
    65.2507     2508.00000
    65.2638     2648.00000
    65.2770     2605.00000
    65.2901     2628.00000
    65.3032     2609.00000
    65.3163     2664.00000
    65.3295     2610.00000
    65.3426     2671.00000
    65.3557     2654.00000
    65.3689     2658.00000
    65.3820     2670.00000
    65.3951     2606.00000
    65.4083     2540.00000
    65.4214     2524.00000
    65.4345     2474.00000
    65.4476     2532.00000
    65.4608     2402.00000
    65.4739     2436.00000
    65.4870     2448.00000
    65.5002     2474.00000
    65.5133     2401.00000
    65.5264     2417.00000
    65.5396     2435.00000
    65.5527     2433.00000
    65.5658     2415.00000
    65.5790     2363.00000
    65.5921     2373.00000
    65.6052     2400.00000
    65.6183     2318.00000
    65.6315     2309.00000
    65.6446     2335.00000
    65.6577     2334.00000
    65.6709     2293.00000
    65.6840     2330.00000
    65.6971     2361.00000
    65.7103     2255.00000
    65.7234     2316.00000
    65.7365     2296.00000
    65.7496     2322.00000
    65.7628     2357.00000
    65.7759     2303.00000
    65.7890     2381.00000
    65.8022     2294.00000
    65.8153     2333.00000
    65.8284     2306.00000
    65.8416     2321.00000
    65.8547     2371.00000
    65.8678     2347.00000
    65.8810     2295.00000
    65.8941     2364.00000
    65.9072     2368.00000
    65.9203     2311.00000
    65.9335     2290.00000
    65.9466     2309.00000
    65.9597     2358.00000
    65.9729     2355.00000
    65.9860     2367.00000
    65.9991     2354.00000
    66.0123     2347.00000
    66.0254     2219.00000
    66.0385     2325.00000
    66.0516     2310.00000
    66.0648     2341.00000
    66.0779     2348.00000
    66.0910     2341.00000
    66.1042     2259.00000
    66.1173     2350.00000
    66.1304     2410.00000
    66.1436     2358.00000
    66.1567     2278.00000
    66.1698     2255.00000
    66.1829     2271.00000
    66.1961     2362.00000
    66.2092     2243.00000
    66.2223     2263.00000
    66.2355     2203.00000
    66.2486     2271.00000
    66.2617     2336.00000
    66.2749     2261.00000
    66.2880     2273.00000
    66.3011     2383.00000
    66.3142     2255.00000
    66.3274     2250.00000
    66.3405     2260.00000
    66.3536     2363.00000
    66.3668     2331.00000
    66.3799     2250.00000
    66.3930     2267.00000
    66.4062     2307.00000
    66.4193     2360.00000
    66.4324     2227.00000
    66.4455     2261.00000
    66.4587     2296.00000
    66.4718     2341.00000
    66.4849     2252.00000
    66.4981     2334.00000
    66.5112     2294.00000
    66.5243     2246.00000
    66.5375     2251.00000
    66.5506     2277.00000
    66.5637     2309.00000
    66.5769     2388.00000
    66.5900     2337.00000
    66.6031     2314.00000
    66.6162     2393.00000
    66.6294     2475.00000
    66.6425     2431.00000
    66.6556     2473.00000
    66.6688     2463.00000
    66.6819     2564.00000
    66.6950     2451.00000
    66.7082     2376.00000
    66.7213     2374.00000
    66.7344     2363.00000
    66.7476     2394.00000
    66.7607     2419.00000
    66.7738     2509.00000
    66.7869     2476.00000
    66.8001     2552.00000
    66.8132     2585.00000
    66.8263     2580.00000
    66.8395     2682.00000
    66.8526     2554.00000
    66.8657     2578.00000
    66.8789     2445.00000
    66.8920     2463.00000
    66.9051     2397.00000
    66.9182     2392.00000
    66.9314     2289.00000
    66.9445     2395.00000
    66.9576     2417.00000
    66.9708     2386.00000
    66.9839     2460.00000
    66.9970     2402.00000
    67.0102     2394.00000
    67.0233     2423.00000
    67.0364     2357.00000
    67.0495     2327.00000
    67.0627     2376.00000
    67.0758     2277.00000
    67.0889     2336.00000
    67.1021     2257.00000
    67.1152     2264.00000
    67.1283     2286.00000
    67.1415     2344.00000
    67.1546     2329.00000
    67.1677     2326.00000
    67.1808     2259.00000
    67.1940     2302.00000
    67.2071     2232.00000
    67.2202     2335.00000
    67.2334     2268.00000
    67.2465     2303.00000
    67.2596     2305.00000
    67.2728     2287.00000
    67.2859     2327.00000
    67.2990     2426.00000
    67.3121     2277.00000
    67.3253     2307.00000
    67.3384     2295.00000
    67.3515     2422.00000
    67.3647     2210.00000
    67.3778     2208.00000
    67.3909     2269.00000
    67.4041     2288.00000
    67.4172     2322.00000
    67.4303     2374.00000
    67.4435     2270.00000
    67.4566     2283.00000
    67.4697     2237.00000
    67.4828     2237.00000
    67.4960     2383.00000
    67.5091     2353.00000
    67.5222     2236.00000
    67.5354     2237.00000
    67.5485     2321.00000
    67.5616     2221.00000
    67.5748     2323.00000
    67.5879     2385.00000
    67.6010     2243.00000
    67.6142     2317.00000
    67.6273     2401.00000
    67.6404     2332.00000
    67.6535     2231.00000
    67.6667     2437.00000
    67.6798     2285.00000
    67.6929     2340.00000
    67.7061     2211.00000
    67.7192     2203.00000
    67.7323     2235.00000
    67.7455     2297.00000
    67.7586     2353.00000
    67.7717     2381.00000
    67.7848     2315.00000
    67.7980     2298.00000
    67.8111     2366.00000
    67.8242     2431.00000
    67.8374     2244.00000
    67.8505     2392.00000
    67.8636     2397.00000
    67.8768     2322.00000
    67.8899     2322.00000
    67.9030     2384.00000
    67.9161     2423.00000
    67.9293     2347.00000
    67.9424     2367.00000
    67.9555     2426.00000
    67.9687     2485.00000
    67.9818     2494.00000
    67.9949     2527.00000
    68.0081     2701.00000
    68.0212     2820.00000
    68.0343     3040.00000
    68.0474     3306.00000
    68.0606     3440.00000
    68.0737     3548.00000
    68.0868     3580.00000
    68.1000     3203.00000
    68.1131     3070.00000
    68.1262     2795.00000
    68.1394     2703.00000
    68.1525     2649.00000
    68.1656     2519.00000
    68.1787     2623.00000
    68.1919     2520.00000
    68.2050     2633.00000
    68.2181     2719.00000
    68.2313     2787.00000
    68.2444     2915.00000
    68.2575     2850.00000
    68.2707     2925.00000
    68.2838     2997.00000
    68.2969     2783.00000
    68.3101     2640.00000
    68.3232     2638.00000
    68.3363     2616.00000
    68.3494     2475.00000
    68.3626     2460.00000
    68.3757     2411.00000
    68.3888     2488.00000
    68.4020     2633.00000
    68.4151     2497.00000
    68.4282     2669.00000
    68.4414     2700.00000
    68.4545     2772.00000
    68.4676     2828.00000
    68.4807     2749.00000
    68.4939     2667.00000
    68.5070     2770.00000
    68.5201     2556.00000
    68.5333     2608.00000
    68.5464     2536.00000
    68.5595     2582.00000
    68.5727     2599.00000
    68.5858     2669.00000
    68.5989     2694.00000
    68.6120     2731.00000
    68.6252     2725.00000
    68.6383     2727.00000
    68.6514     2722.00000
    68.6646     2774.00000
    68.6777     2649.00000
    68.6908     2655.00000
    68.7040     2676.00000
    68.7171     2620.00000
    68.7302     2543.00000
    68.7434     2448.00000
    68.7565     2604.00000
    68.7696     2477.00000
    68.7827     2612.00000
    68.7959     2502.00000
    68.8090     2624.00000
    68.8221     2597.00000
    68.8353     2671.00000
    68.8484     2772.00000
    68.8615     2755.00000
    68.8747     2836.00000
    68.8878     3055.00000
    68.9009     3343.00000
    68.9140     3785.00000
    68.9272     4317.00000
    68.9403     5017.00000
    68.9534     5403.00000
    68.9666     5267.00000
    68.9797     4831.00000
    68.9928     4222.00000
    69.0060     3662.00000
    69.0191     3103.00000
    69.0322     2939.00000
    69.0453     2783.00000
    69.0585     2803.00000
    69.0716     2711.00000
    69.0847     2855.00000
    69.0979     3068.00000
    69.1110     3284.00000
    69.1241     3467.00000
    69.1373     3866.00000
    69.1504     3899.00000
    69.1635     3815.00000
    69.1767     3675.00000
    69.1898     3377.00000
    69.2029     3101.00000
    69.2160     2853.00000
    69.2292     2800.00000
    69.2423     2703.00000
    69.2554     2863.00000
    69.2686     2934.00000
    69.2817     3078.00000
    69.2948     3309.00000
    69.3080     3748.00000
    69.3211     3889.00000
    69.3342     3960.00000
    69.3473     3600.00000
    69.3605     3327.00000
    69.3736     3017.00000
    69.3867     2999.00000
    69.3999     2725.00000
    69.4130     2789.00000
    69.4261     2678.00000
    69.4393     2615.00000
    69.4524     2682.00000
    69.4655     2699.00000
    69.4786     2806.00000
    69.4918     2917.00000
    69.5049     3072.00000
    69.5180     3169.00000
    69.5312     3280.00000
    69.5443     3149.00000
    69.5574     3090.00000
    69.5706     2756.00000
    69.5837     2750.00000
    69.5968     2686.00000
    69.6099     2766.00000
    69.6231     2841.00000
    69.6362     2846.00000
    69.6493     3000.00000
    69.6625     3102.00000
    69.6756     3242.00000
    69.6887     3202.00000
    69.7019     3546.00000
    69.7150     3609.00000
    69.7281     3667.00000
    69.7413     3677.00000
    69.7544     3598.00000
    69.7675     3669.00000
    69.7806     3724.00000
    69.7938     3748.00000
    69.8069     3699.00000
    69.8200     3556.00000
    69.8332     3472.00000
    69.8463     3324.00000
    69.8594     3261.00000
    69.8726     3384.00000
    69.8857     3545.00000
    69.8988     3974.00000
    69.9119     4244.00000
    69.9251     4639.00000
    69.9382     5287.00000
    69.9513     5854.00000
    69.9645     6406.00000
    69.9776     7088.00000
    69.9907     7255.00000
    70.0039     7110.00000
    70.0170     6617.00000
    70.0301     5753.00000
    70.0433     5168.00000
    70.0564     4619.00000
    70.0695     4309.00000
    70.0826     3987.00000
    70.0958     4130.00000
    70.1089     4181.00000
    70.1220     4335.00000
    70.1352     4472.00000
    70.1483     4594.00000
    70.1614     4687.00000
    70.1746     4801.00000
    70.1877     4914.00000
    70.2008     5089.00000
    70.2139     4917.00000
    70.2271     4589.00000
    70.2402     4345.00000
    70.2533     4339.00000
    70.2665     4373.00000
    70.2796     4438.00000
    70.2927     4567.00000
    70.3059     4769.00000
    70.3190     4788.00000
    70.3321     4514.00000
    70.3452     4280.00000
    70.3584     3952.00000
    70.3715     3759.00000
    70.3846     3546.00000
    70.3978     3444.00000
    70.4109     3503.00000
    70.4240     3707.00000
    70.4372     3723.00000
    70.4503     4048.00000
    70.4634     4306.00000
    70.4765     4821.00000
    70.4897     5466.00000
    70.5028     5876.00000
    70.5159     6200.00000
    70.5291     5707.00000
    70.5422     5532.00000
    70.5553     5000.00000
    70.5685     4390.00000
    70.5816     3876.00000
    70.5947     3670.00000
    70.6078     3288.00000
    70.6210     3376.00000
    70.6341     3277.00000
    70.6472     3298.00000
    70.6604     3413.00000
    70.6735     3570.00000
    70.6866     3720.00000
    70.6998     3958.00000
    70.7129     3999.00000
    70.7260     4113.00000
    70.7392     3966.00000
    70.7523     3749.00000
    70.7654     3608.00000
    70.7785     3416.00000
    70.7917     3257.00000
    70.8048     3025.00000
    70.8179     2908.00000
    70.8311     2861.00000
    70.8442     2709.00000
    70.8573     2810.00000
    70.8705     2667.00000
    70.8836     2697.00000
    70.8967     2778.00000
    70.9099     2832.00000
    70.9230     2876.00000
    70.9361     2899.00000
    70.9492     2948.00000
    70.9624     2898.00000
    70.9755     2871.00000
    70.9886     2822.00000
    71.0018     2713.00000
    71.0149     2789.00000
    71.0280     2818.00000
    71.0412     2718.00000
    71.0543     2738.00000
    71.0674     2719.00000
    71.0805     2845.00000
    71.0937     2824.00000
    71.1068     2966.00000
    71.1199     3094.00000
    71.1331     3288.00000
    71.1462     3289.00000
    71.1593     3450.00000
    71.1725     3644.00000
    71.1856     3810.00000
    71.1987     4064.00000
    71.2118     4148.00000
    71.2250     4085.00000
    71.2381     4252.00000
    71.2512     4168.00000
    71.2644     4311.00000
    71.2775     4254.00000
    71.2906     4192.00000
    71.3038     4166.00000
    71.3169     4356.00000
    71.3300     4393.00000
    71.3431     4741.00000
    71.3563     5303.00000
    71.3694     5723.00000
    71.3825     5876.00000
    71.3957     5773.00000
    71.4088     5421.00000
    71.4219     4659.00000
    71.4351     4478.00000
    71.4482     3995.00000
    71.4613     3821.00000
    71.4744     3693.00000
    71.4876     3818.00000
    71.5007     3567.00000
    71.5138     3512.00000
    71.5270     3517.00000
    71.5401     3369.00000
    71.5532     3677.00000
    71.5664     3835.00000
    71.5795     3806.00000
    71.5926     3955.00000
    71.6058     3799.00000
    71.6189     3447.00000
    71.6320     3208.00000
    71.6451     3057.00000
    71.6583     3052.00000
    71.6714     2912.00000
    71.6845     2997.00000
    71.6977     3158.00000
    71.7108     3162.00000
    71.7239     3436.00000
    71.7371     3626.00000
    71.7502     3946.00000
    71.7633     4126.00000
    71.7764     4027.00000
    71.7896     3759.00000
    71.8027     3591.00000
    71.8158     3256.00000
    71.8290     3071.00000
    71.8421     2954.00000
    71.8552     2846.00000
    71.8684     2697.00000
    71.8815     2731.00000
    71.8946     2742.00000
    71.9078     2760.00000
    71.9209     2999.00000
    71.9340     3017.00000
    71.9471     3184.00000
    71.9603     3254.00000
    71.9734     3417.00000
    71.9865     3444.00000
    71.9997     3220.00000
    72.0128     3081.00000
    72.0259     2955.00000
    72.0391     2946.00000
    72.0522     2881.00000
    72.0653     2930.00000
    72.0784     2940.00000
    72.0916     3133.00000
    72.1047     3115.00000
    72.1178     3178.00000
    72.1310     3209.00000
    72.1441     3360.00000
    72.1572     3281.00000
    72.1704     3385.00000
    72.1835     3461.00000
    72.1966     3487.00000
    72.2097     3374.00000
    72.2229     3404.00000
    72.2360     3305.00000
    72.2491     3132.00000
    72.2623     2927.00000
    72.2754     2930.00000
    72.2885     2831.00000
    72.3017     2699.00000
    72.3148     2917.00000
    72.3279     2870.00000
    72.3410     2853.00000
    72.3542     2790.00000
    72.3673     2855.00000
    72.3804     2974.00000
    72.3936     2943.00000
    72.4067     2824.00000
    72.4198     2866.00000
    72.4330     2902.00000
    72.4461     2823.00000
    72.4592     2765.00000
    72.4724     2591.00000
    72.4855     2482.00000
    72.4986     2569.00000
    72.5117     2498.00000
    72.5249     2461.00000
    72.5380     2398.00000
    72.5511     2462.00000
    72.5643     2392.00000
    72.5774     2453.00000
    72.5905     2531.00000
    72.6037     2439.00000
    72.6168     2400.00000
    72.6299     2519.00000
    72.6430     2457.00000
    72.6562     2398.00000
    72.6693     2554.00000
    72.6824     2527.00000
    72.6956     2483.00000
    72.7087     2544.00000
    72.7218     2515.00000
    72.7350     2583.00000
    72.7481     2577.00000
    72.7612     2552.00000
    72.7743     2644.00000
    72.7875     2631.00000
    72.8006     2839.00000
    72.8137     2923.00000
    72.8269     3107.00000
    72.8400     3251.00000
    72.8531     3570.00000
    72.8663     3818.00000
    72.8794     4096.00000
    72.8925     4244.00000
    72.9057     4144.00000
    72.9188     4072.00000
    72.9319     3761.00000
    72.9450     3496.00000
    72.9582     3222.00000
    72.9713     3010.00000
    72.9844     3018.00000
    72.9976     2867.00000
    73.0107     2815.00000
    73.0238     2980.00000
    73.0370     2935.00000
    73.0501     2943.00000
    73.0632     3058.00000
    73.0763     3070.00000
    73.0895     3159.00000
    73.1026     3257.00000
    73.1157     3254.00000
    73.1289     3224.00000
    73.1420     3037.00000
    73.1551     3011.00000
    73.1683     2993.00000
    73.1814     2777.00000
    73.1945     2678.00000
    73.2076     2618.00000
    73.2208     2697.00000
    73.2339     2736.00000
    73.2470     2679.00000
    73.2602     2734.00000
    73.2733     2763.00000
    73.2864     2948.00000
    73.2996     3222.00000
    73.3127     3383.00000
    73.3258     3633.00000
    73.3390     3836.00000
    73.3521     4074.00000
    73.3652     4173.00000
    73.3783     4211.00000
    73.3915     4176.00000
    73.4046     3913.00000
    73.4177     3594.00000
    73.4309     3375.00000
    73.4440     2952.00000
    73.4571     2912.00000
    73.4703     2916.00000
    73.4834     3019.00000
    73.4965     3125.00000
    73.5096     3146.00000
    73.5228     3338.00000
    73.5359     3457.00000
    73.5490     3628.00000
    73.5622     3628.00000
    73.5753     3617.00000
    73.5884     3589.00000
    73.6016     3443.00000
    73.6147     3338.00000
    73.6278     3327.00000
    73.6409     3238.00000
    73.6541     3067.00000
    73.6672     3027.00000
    73.6803     3185.00000
    73.6935     3149.00000
    73.7066     3245.00000
    73.7197     3488.00000
    73.7329     3726.00000
    73.7460     3882.00000
    73.7591     4186.00000
    73.7722     4289.00000
    73.7854     4471.00000
    73.7985     4382.00000
    73.8116     4196.00000
    73.8248     4010.00000
    73.8379     3628.00000
    73.8510     3483.00000
    73.8642     3193.00000
    73.8773     3176.00000
    73.8904     3070.00000
    73.9035     3044.00000
    73.9167     3099.00000
    73.9298     3041.00000
    73.9429     3143.00000
    73.9561     3174.00000
    73.9692     3288.00000
    73.9823     3243.00000
    73.9955     3326.00000
    74.0086     3361.00000
    74.0217     3367.00000
    74.0349     3193.00000
    74.0480     3094.00000
    74.0611     2879.00000
    74.0742     2901.00000
    74.0874     2819.00000
    74.1005     2715.00000
    74.1136     2764.00000
    74.1268     2639.00000
    74.1399     2657.00000
    74.1530     2646.00000
    74.1662     2755.00000
    74.1793     2708.00000
    74.1924     2836.00000
    74.2056     2929.00000
    74.2187     3052.00000
    74.2318     3358.00000
    74.2449     3733.00000
    74.2581     4028.00000
    74.2712     4603.00000
    74.2843     4905.00000
    74.2975     5170.00000
    74.3106     5199.00000
    74.3237     4766.00000
    74.3369     4804.00000
    74.3500     4765.00000
    74.3631     5026.00000
    74.3762     5131.00000
    74.3894     5407.00000
    74.4025     5140.00000
    74.4156     5043.00000
    74.4288     4902.00000
    74.4419     4505.00000
    74.4550     4113.00000
    74.4682     3842.00000
    74.4813     3867.00000
    74.4944     3880.00000
    74.5075     4020.00000
    74.5207     3932.00000
    74.5338     3818.00000
    74.5469     3705.00000
    74.5601     3603.00000
    74.5732     3567.00000
    74.5863     3765.00000
    74.5995     3757.00000
    74.6126     3850.00000
    74.6257     3669.00000
    74.6388     3658.00000
    74.6520     3212.00000
    74.6651     2996.00000
    74.6782     2861.00000
    74.6914     2647.00000
    74.7045     2634.00000
    74.7176     2531.00000
    74.7308     2466.00000
    74.7439     2479.00000
    74.7570     2383.00000
    74.7701     2364.00000
    74.7833     2328.00000
    74.7964     2421.00000
    74.8095     2316.00000
    74.8227     2386.00000
    74.8358     2388.00000
    74.8489     2387.00000
    74.8621     2344.00000
    74.8752     2253.00000
    74.8883     2360.00000
    74.9015     2385.00000
    74.9146     2323.00000
    74.9277     2211.00000
    74.9408     2356.00000
    74.9540     2355.00000
    74.9671     2297.00000
    74.9802     2355.00000
    74.9934     2358.00000
    75.0065     2293.00000
    75.0196     2322.00000
    75.0328     2300.00000
    75.0459     2273.00000
    75.0590     2289.00000
    75.0722     2321.00000
    75.0853     2335.00000
    75.0984     2339.00000
    75.1115     2396.00000
    75.1247     2316.00000
    75.1378     2191.00000
    75.1509     2280.00000
    75.1641     2334.00000
    75.1772     2281.00000
    75.1903     2336.00000
    75.2035     2324.00000
    75.2166     2298.00000
    75.2297     2345.00000
    75.2428     2347.00000
    75.2560     2349.00000
    75.2691     2328.00000
    75.2822     2278.00000
    75.2954     2236.00000
    75.3085     2227.00000
    75.3216     2331.00000
    75.3348     2343.00000
    75.3479     2334.00000
    75.3610     2243.00000
    75.3741     2340.00000
    75.3873     2292.00000
    75.4004     2272.00000
    75.4135     2388.00000
    75.4267     2305.00000
    75.4398     2223.00000
    75.4529     2340.00000
    75.4661     2271.00000
    75.4792     2254.00000
    75.4923     2283.00000
    75.5054     2378.00000
    75.5186     2299.00000
    75.5317     2288.00000
    75.5448     2324.00000
    75.5580     2279.00000
    75.5711     2344.00000
    75.5842     2287.00000
    75.5974     2300.00000
    75.6105     2384.00000
    75.6236     2295.00000
    75.6367     2392.00000
    75.6499     2252.00000
    75.6630     2379.00000
    75.6761     2401.00000
    75.6893     2262.00000
    75.7024     2431.00000
    75.7155     2323.00000
    75.7287     2384.00000
    75.7418     2353.00000
    75.7549     2444.00000
    75.7681     2342.00000
    75.7812     2419.00000
    75.7943     2405.00000
    75.8074     2428.00000
    75.8206     2397.00000
    75.8337     2367.00000
    75.8468     2413.00000
    75.8600     2359.00000
    75.8731     2432.00000
    75.8862     2396.00000
    75.8994     2479.00000
    75.9125     2476.00000
    75.9256     2364.00000
    75.9387     2359.00000
    75.9519     2393.00000
    75.9650     2399.00000
    75.9781     2526.00000
    75.9913     2391.00000
    76.0044     2374.00000
    76.0175     2399.00000
    76.0307     2433.00000
    76.0438     2476.00000
    76.0569     2512.00000
    76.0701     2421.00000
    76.0832     2443.00000
    76.0963     2440.00000
    76.1094     2493.00000
    76.1226     2577.00000
    76.1357     2502.00000
    76.1488     2634.00000
    76.1620     2524.00000
    76.1751     2633.00000
    76.1882     2683.00000
    76.2014     2694.00000
    76.2145     2657.00000
    76.2276     2688.00000
    76.2407     2741.00000
    76.2539     2780.00000
    76.2670     2834.00000
    76.2801     2817.00000
    76.2933     2834.00000
    76.3064     2716.00000
    76.3195     2675.00000
    76.3327     2576.00000
    76.3458     2687.00000
    76.3589     2719.00000
    76.3720     2703.00000
    76.3852     2904.00000
    76.3983     2847.00000
    76.4114     3067.00000
    76.4246     3115.00000
    76.4377     3190.00000
    76.4508     3447.00000
    76.4640     3669.00000
    76.4771     3821.00000
    76.4902     4103.00000
    76.5033     4419.00000
    76.5165     4720.00000
    76.5296     4613.00000
    76.5427     4835.00000
    76.5559     4767.00000
    76.5690     4447.00000
    76.5821     4107.00000
    76.5953     3859.00000
    76.6084     3530.00000
    76.6215     3311.00000
    76.6347     3171.00000
    76.6478     3189.00000
    76.6609     3026.00000
    76.6740     3090.00000
    76.6872     3137.00000
    76.7003     3145.00000
    76.7134     3263.00000
    76.7266     3353.00000
    76.7397     3482.00000
    76.7528     3600.00000
    76.7660     3627.00000
    76.7791     3577.00000
    76.7922     3412.00000
    76.8053     3359.00000
    76.8185     3094.00000
    76.8316     2883.00000
    76.8447     2820.00000
    76.8579     2687.00000
    76.8710     2627.00000
    76.8841     2596.00000
    76.8973     2580.00000
    76.9104     2552.00000
    76.9235     2563.00000
    76.9366     2559.00000
    76.9498     2530.00000
    76.9629     2554.00000
    76.9760     2528.00000
    76.9892     2556.00000
    77.0023     2439.00000
    77.0154     2445.00000
    77.0286     2454.00000
    77.0417     2484.00000
    77.0548     2462.00000
    77.0679     2402.00000
    77.0811     2518.00000
    77.0942     2489.00000
    77.1073     2507.00000
    77.1205     2626.00000
    77.1336     2532.00000
    77.1467     2617.00000
    77.1599     2599.00000
    77.1730     2659.00000
    77.1861     2726.00000
    77.1993     2748.00000
    77.2124     2979.00000
    77.2255     2924.00000
    77.2386     3222.00000
    77.2518     3216.00000
    77.2649     3613.00000
    77.2780     3920.00000
    77.2912     4055.00000
    77.3043     4221.00000
    77.3174     4361.00000
    77.3306     4524.00000
    77.3437     4483.00000
    77.3568     4442.00000
    77.3699     4361.00000
    77.3831     4316.00000
    77.3962     4026.00000
    77.4093     3762.00000
    77.4225     3456.00000
    77.4356     3190.00000
    77.4487     3110.00000
    77.4619     3067.00000
    77.4750     3124.00000
    77.4881     3101.00000
    77.5013     3191.00000
    77.5144     3288.00000
    77.5275     3396.00000
    77.5406     3520.00000
    77.5538     3510.00000
    77.5669     3445.00000
    77.5800     3515.00000
    77.5932     3578.00000
    77.6063     3420.00000
    77.6194     3397.00000
    77.6326     3296.00000
    77.6457     3271.00000
    77.6588     3159.00000
    77.6719     3202.00000
    77.6851     3149.00000
    77.6982     3254.00000
    77.7113     3202.00000
    77.7245     2988.00000
    77.7376     2799.00000
    77.7507     2765.00000
    77.7639     2634.00000
    77.7770     2633.00000
    77.7901     2437.00000
    77.8032     2565.00000
    77.8164     2496.00000
    77.8295     2591.00000
    77.8426     2632.00000
    77.8558     2468.00000
    77.8689     2647.00000
    77.8820     2635.00000
    77.8952     2623.00000
    77.9083     2669.00000
    77.9214     2782.00000
    77.9345     2715.00000
    77.9477     2619.00000
    77.9608     2709.00000
    77.9739     2678.00000
    77.9871     2625.00000
    78.0002     2570.00000
    78.0133     2651.00000
    78.0265     2693.00000
    78.0396     2719.00000
    78.0527     2892.00000
    78.0658     2932.00000
    78.0790     2924.00000
    78.0921     3026.00000
    78.1052     2957.00000
    78.1184     2822.00000
    78.1315     2671.00000
    78.1446     2658.00000
    78.1578     2604.00000
    78.1709     2503.00000
    78.1840     2518.00000
    78.1972     2572.00000
    78.2103     2519.00000
    78.2234     2448.00000
    78.2365     2499.00000
    78.2497     2539.00000
    78.2628     2597.00000
    78.2759     2647.00000
    78.2891     2596.00000
    78.3022     2627.00000
    78.3153     2717.00000
    78.3285     2678.00000
    78.3416     2623.00000
    78.3547     2574.00000
    78.3679     2591.00000
    78.3810     2607.00000
    78.3941     2541.00000
    78.4072     2407.00000
    78.4204     2586.00000
    78.4335     2503.00000
    78.4466     2633.00000
    78.4598     2704.00000
    78.4729     2952.00000
    78.4860     2909.00000
    78.4992     3070.00000
    78.5123     3227.00000
    78.5254     3327.00000
    78.5385     3377.00000
    78.5517     3420.00000
    78.5648     3418.00000
    78.5779     3589.00000
    78.5911     3597.00000
    78.6042     3606.00000
    78.6173     3625.00000
    78.6305     3508.00000
    78.6436     3324.00000
    78.6567     3260.00000
    78.6698     3120.00000
    78.6830     3039.00000
    78.6961     2980.00000
    78.7092     2861.00000
    78.7224     2902.00000
    78.7355     2888.00000
    78.7486     2983.00000
    78.7618     3086.00000
    78.7749     3181.00000
    78.7880     3085.00000
    78.8011     3125.00000
    78.8143     3198.00000
    78.8274     3382.00000
    78.8405     3276.00000
    78.8537     3369.00000
    78.8668     3507.00000
    78.8799     3546.00000
    78.8931     3532.00000
    78.9062     3503.00000
    78.9193     3378.00000
    78.9324     3272.00000
    78.9456     3174.00000
    78.9587     3043.00000
    78.9718     2983.00000
    78.9850     3105.00000
    78.9981     2941.00000
    79.0112     3097.00000
    79.0244     3090.00000
    79.0375     3153.00000
    79.0506     3331.00000
    79.0638     3396.00000
    79.0769     3498.00000
    79.0900     3743.00000
    79.1031     3866.00000
    79.1163     3949.00000
    79.1294     4304.00000
    79.1425     4175.00000
    79.1557     3955.00000
    79.1688     3747.00000
    79.1819     3795.00000
    79.1951     3719.00000
    79.2082     3702.00000
    79.2213     3658.00000
    79.2345     3841.00000
    79.2476     3821.00000
    79.2607     3786.00000
    79.2738     3954.00000
    79.2870     3983.00000
    79.3001     3991.00000
    79.3132     4019.00000
    79.3264     4024.00000
    79.3395     4045.00000
    79.3526     3867.00000
    79.3658     3827.00000
    79.3789     3771.00000
    79.3920     3627.00000
    79.4051     3495.00000
    79.4183     3497.00000
    79.4314     3247.00000
    79.4445     3208.00000
    79.4577     3252.00000
    79.4708     3315.00000
    79.4839     3281.00000
    79.4971     3406.00000
    79.5102     3449.00000
    79.5233     3314.00000
    79.5364     3470.00000
    79.5496     3444.00000
    79.5627     3573.00000
    79.5758     3707.00000
    79.5890     3801.00000
    79.6021     3998.00000
    79.6152     4106.00000
    79.6284     4299.00000
    79.6415     4415.00000
    79.6546     4307.00000
    79.6677     4157.00000
    79.6809     3893.00000
    79.6940     3680.00000
    79.7071     3445.00000
    79.7203     3164.00000
    79.7334     3170.00000
    79.7465     2923.00000
    79.7597     3036.00000
    79.7728     2964.00000
    79.7859     2935.00000
    79.7990     2924.00000
    79.8122     2986.00000
    79.8253     3069.00000
    79.8384     3172.00000
    79.8516     3250.00000
    79.8647     3288.00000
    79.8778     3359.00000
    79.8910     3317.00000
    79.9041     3481.00000
    79.9172     3216.00000
    79.9304     3217.00000
    79.9435     3074.00000
    79.9566     3091.00000
    79.9697     3013.00000
    79.9829     2998.00000
    79.9960     2944.00000
    80.0091     3047.00000
    80.0223     2888.00000
    80.0354     2869.00000
    80.0485     2836.00000
    80.0617     2872.00000
    80.0748     2751.00000
    80.0879     2673.00000
    80.1010     2664.00000
    80.1142     2779.00000
    80.1273     2660.00000
    80.1404     2694.00000
    80.1536     2731.00000
    80.1667     2627.00000
    80.1798     2769.00000
    80.1930     2740.00000
    80.2061     2756.00000
    80.2192     2872.00000
    80.2323     2883.00000
    80.2455     2875.00000
    80.2586     3014.00000
    80.2717     3139.00000
    80.2849     3107.00000
    80.2980     3269.00000
    80.3111     3417.00000
    80.3243     3621.00000
    80.3374     3855.00000
    80.3505     4045.00000
    80.3637     4620.00000
    80.3768     5190.00000
    80.3899     5763.00000
    80.4030     6219.00000
    80.4162     6330.00000
    80.4293     6333.00000
    80.4424     6258.00000
    80.4556     5693.00000
    80.4687     5606.00000
    80.4818     5550.00000
    80.4950     5259.00000
    80.5081     5249.00000
    80.5212     5074.00000
    80.5343     5169.00000
    80.5475     5166.00000
    80.5606     4974.00000
    80.5737     4982.00000
    80.5869     4833.00000
    80.6000     4691.00000
    80.6131     4860.00000
    80.6263     4850.00000
    80.6394     5038.00000
    80.6525     5247.00000
    80.6656     5173.00000
    80.6788     5002.00000
    80.6919     5028.00000
    80.7050     5042.00000
    80.7182     5031.00000
    80.7313     5179.00000
    80.7444     5363.00000
    80.7576     5385.00000
    80.7707     5527.00000
    80.7838     5425.00000
    80.7970     5345.00000
    80.8101     5278.00000
    80.8232     4889.00000
    80.8363     4923.00000
    80.8495     4714.00000
    80.8626     4567.00000
    80.8757     4438.00000
    80.8889     4137.00000
    80.9020     3904.00000
    80.9151     3679.00000
    80.9283     3569.00000
    80.9414     3453.00000
    80.9545     3344.00000
    80.9676     3453.00000
    80.9808     3387.00000
    80.9939     3482.00000
    81.0070     3437.00000
    81.0202     3503.00000
    81.0333     3501.00000
    81.0464     3515.00000
    81.0596     3415.00000
    81.0727     3378.00000
    81.0858     3346.00000
    81.0989     3428.00000
    81.1121     3386.00000
    81.1252     3275.00000
    81.1383     3286.00000
    81.1515     3158.00000
    81.1646     3269.00000
    81.1777     3195.00000
    81.1909     3216.00000
    81.2040     3287.00000
    81.2171     3343.00000
    81.2302     3443.00000
    81.2434     3526.00000
    81.2565     3681.00000
    81.2696     3636.00000
    81.2828     3637.00000
    81.2959     3634.00000
    81.3090     3717.00000
    81.3222     3376.00000
    81.3353     3484.00000
    81.3484     3420.00000
    81.3616     3267.00000
    81.3747     3307.00000
    81.3878     3427.00000
    81.4009     3440.00000
    81.4141     3547.00000
    81.4272     3470.00000
    81.4403     3415.00000
    81.4535     3406.00000
    81.4666     3514.00000
    81.4797     3403.00000
    81.4929     3307.00000
    81.5060     3264.00000
    81.5191     3184.00000
    81.5322     3156.00000
    81.5454     2965.00000
    81.5585     2908.00000
    81.5716     3011.00000
    81.5848     3020.00000
    81.5979     2820.00000
    81.6110     2761.00000
    81.6242     2835.00000
    81.6373     2797.00000
    81.6504     2844.00000
    81.6636     2804.00000
    81.6767     2885.00000
    81.6898     2779.00000
    81.7029     2779.00000
    81.7161     2631.00000
    81.7292     2679.00000
    81.7423     2565.00000
    81.7555     2618.00000
    81.7686     2533.00000
    81.7817     2467.00000
    81.7949     2416.00000
    81.8080     2398.00000
    81.8211     2379.00000
    81.8342     2457.00000
    81.8474     2464.00000
    81.8605     2485.00000
    81.8736     2392.00000
    81.8868     2426.00000
    81.8999     2426.00000
    81.9130     2422.00000
    81.9262     2439.00000
    81.9393     2359.00000
    81.9524     2300.00000
    81.9655     2438.00000
    81.9787     2455.00000
    81.9918     2449.00000
    82.0049     2390.00000
    82.0181     2433.00000
    82.0312     2391.00000
    82.0443     2499.00000
    82.0575     2494.00000
    82.0706     2437.00000
    82.0837     2501.00000
    82.0968     2542.00000
    82.1100     2599.00000
    82.1231     2638.00000
    82.1362     2487.00000
    82.1494     2799.00000
    82.1625     2806.00000
    82.1756     2958.00000
    82.1888     3001.00000
    82.2019     3107.00000
    82.2150     3092.00000
    82.2281     3159.00000
    82.2413     3304.00000
    82.2544     3282.00000
    82.2675     3272.00000
    82.2807     3335.00000
    82.2938     3488.00000
    82.3069     3446.00000
    82.3201     3549.00000
    82.3332     3546.00000
    82.3463     3562.00000
    82.3595     3695.00000
    82.3726     3718.00000
    82.3857     3810.00000
    82.3988     3865.00000
    82.4120     4016.00000
    82.4251     3910.00000
    82.4382     3995.00000
    82.4514     3947.00000
    82.4645     3712.00000
    82.4776     3537.00000
    82.4908     3373.00000
    82.5039     3346.00000
    82.5170     3153.00000
    82.5302     3174.00000
    82.5433     3165.00000
    82.5564     3122.00000
    82.5695     3308.00000
    82.5827     3209.00000
    82.5958     3396.00000
    82.6089     3479.00000
    82.6221     3716.00000
    82.6352     3991.00000
    82.6483     4280.00000
    82.6615     4597.00000
    82.6746     4431.00000
    82.6877     4175.00000
    82.7008     3852.00000
    82.7140     3550.00000
    82.7271     3354.00000
    82.7402     3030.00000
    82.7534     2861.00000
    82.7665     2729.00000
    82.7796     2675.00000
    82.7928     2661.00000
    82.8059     2594.00000
    82.8190     2636.00000
    82.8321     2652.00000
    82.8453     2658.00000
    82.8584     2656.00000
    82.8715     2788.00000
    82.8847     2853.00000
    82.8978     3012.00000
    82.9109     3103.00000
    82.9241     3192.00000
    82.9372     3048.00000
    82.9503     2882.00000
    82.9634     2734.00000
    82.9766     2608.00000
    82.9897     2527.00000
    83.0028     2561.00000
    83.0160     2544.00000
    83.0291     2592.00000
    83.0422     2497.00000
    83.0554     2501.00000
    83.0685     2472.00000
    83.0816     2586.00000
    83.0947     2532.00000
    83.1079     2492.00000
    83.1210     2410.00000
    83.1341     2442.00000
    83.1473     2321.00000
    83.1604     2486.00000
    83.1735     2410.00000
    83.1867     2509.00000
    83.1998     2401.00000
    83.2129     2388.00000
    83.2261     2408.00000
    83.2392     2351.00000
    83.2523     2389.00000
    83.2654     2413.00000
    83.2786     2280.00000
    83.2917     2381.00000
    83.3048     2387.00000
    83.3180     2450.00000
    83.3311     2504.00000
    83.3442     2431.00000
    83.3574     2449.00000
    83.3705     2393.00000
    83.3836     2439.00000
    83.3967     2313.00000
    83.4099     2382.00000
    83.4230     2349.00000
    83.4361     2433.00000
    83.4493     2337.00000
    83.4624     2420.00000
    83.4755     2381.00000
    83.4887     2424.00000
    83.5018     2305.00000
    83.5149     2500.00000
    83.5281     2425.00000
    83.5412     2407.00000
    83.5543     2438.00000
    83.5674     2535.00000
    83.5806     2604.00000
    83.5937     2645.00000
    83.6068     2540.00000
    83.6200     2539.00000
    83.6331     2591.00000
    83.6462     2646.00000
    83.6594     2539.00000
    83.6725     2588.00000
    83.6856     2565.00000
    83.6987     2582.00000
    83.7119     2617.00000
    83.7250     2673.00000
    83.7381     2536.00000
    83.7513     2604.00000
    83.7644     2645.00000
    83.7775     2648.00000
    83.7907     2631.00000
    83.8038     2530.00000
    83.8169     2624.00000
    83.8300     2722.00000
    83.8432     2735.00000
    83.8563     2690.00000
    83.8694     2746.00000
    83.8826     2916.00000
    83.8957     2879.00000
    83.9088     2964.00000
    83.9220     3202.00000
    83.9351     3336.00000
    83.9482     3381.00000
    83.9613     3438.00000
    83.9745     3258.00000
    83.9876     3183.00000
    84.0007     3014.00000
    84.0139     2905.00000
    84.0270     2803.00000
    84.0401     2686.00000
    84.0533     2555.00000
    84.0664     2483.00000
    84.0795     2497.00000
    84.0927     2486.00000
    84.1058     2466.00000
    84.1189     2483.00000
    84.1320     2617.00000
    84.1452     2571.00000
    84.1583     2626.00000
    84.1714     2684.00000
    84.1846     2684.00000
    84.1977     2760.00000
    84.2108     2807.00000
    84.2240     2831.00000
    84.2371     2692.00000
    84.2502     2612.00000
    84.2633     2521.00000
    84.2765     2457.00000
    84.2896     2443.00000
    84.3027     2404.00000
    84.3159     2375.00000
    84.3290     2326.00000
    84.3421     2411.00000
    84.3553     2346.00000
    84.3684     2367.00000
    84.3815     2345.00000
    84.3946     2368.00000
    84.4078     2277.00000
    84.4209     2358.00000
    84.4340     2394.00000
    84.4472     2377.00000
    84.4603     2340.00000
    84.4734     2368.00000
    84.4866     2383.00000
    84.4997     2438.00000
    84.5128     2344.00000
    84.5260     2399.00000
    84.5391     2487.00000
    84.5522     2472.00000
    84.5653     2379.00000
    84.5785     2507.00000
    84.5916     2404.00000
    84.6047     2412.00000
    84.6179     2473.00000
    84.6310     2397.00000
    84.6441     2390.00000
    84.6573     2435.00000
    84.6704     2311.00000
    84.6835     2360.00000
    84.6966     2309.00000
    84.7098     2363.00000
    84.7229     2378.00000
    84.7360     2426.00000
    84.7492     2311.00000
    84.7623     2388.00000
    84.7754     2302.00000
    84.7886     2396.00000
    84.8017     2335.00000
    84.8148     2411.00000
    84.8279     2330.00000
    84.8411     2372.00000
    84.8542     2329.00000
    84.8673     2436.00000
    84.8805     2546.00000
    84.8936     2358.00000
    84.9067     2346.00000
    84.9199     2312.00000
    84.9330     2381.00000
    84.9461     2463.00000
    84.9593     2300.00000
    84.9724     2483.00000
    84.9855     2443.00000
    84.9986     2427.00000
    85.0118     2237.00000
    85.0249     2418.00000
    85.0380     2314.00000
    85.0512     2374.00000
    85.0643     2339.00000
    85.0774     2305.00000
    85.0906     2302.00000
    85.1037     2339.00000
    85.1168     2442.00000
    85.1299     2308.00000
    85.1431     2373.00000
    85.1562     2459.00000
    85.1693     2310.00000
    85.1825     2325.00000
    85.1956     2329.00000
    85.2087     2406.00000
    85.2219     2343.00000
    85.2350     2419.00000
    85.2481     2385.00000
    85.2612     2334.00000
    85.2744     2464.00000
    85.2875     2372.00000
    85.3006     2274.00000
    85.3138     2385.00000
    85.3269     2377.00000
    85.3400     2440.00000
    85.3532     2493.00000
    85.3663     2449.00000
    85.3794     2437.00000
    85.3925     2444.00000
    85.4057     2510.00000
    85.4188     2542.00000
    85.4319     2519.00000
    85.4451     2658.00000
    85.4582     2790.00000
    85.4713     2773.00000
    85.4845     2713.00000
    85.4976     2722.00000
    85.5107     2748.00000
    85.5238     2856.00000
    85.5370     2762.00000
    85.5501     2916.00000
    85.5632     2957.00000
    85.5764     2926.00000
    85.5895     2982.00000
    85.6026     2983.00000
    85.6158     2910.00000
    85.6289     2856.00000
    85.6420     2778.00000
    85.6552     2670.00000
    85.6683     2611.00000
    85.6814     2683.00000
    85.6945     2808.00000
    85.7077     2943.00000
    85.7208     3110.00000
    85.7339     3075.00000
    85.7471     3247.00000
    85.7602     3562.00000
    85.7733     3651.00000
    85.7865     3747.00000
    85.7996     3893.00000
    85.8127     3922.00000
    85.8259     3931.00000
    85.8390     4006.00000
    85.8521     3868.00000
    85.8652     3740.00000
    85.8784     3757.00000
    85.8915     3637.00000
    85.9046     3524.00000
    85.9178     3533.00000
    85.9309     3387.00000
    85.9440     3328.00000
    85.9572     3227.00000
    85.9703     3300.00000
    85.9834     3173.00000
    85.9965     3228.00000
    86.0097     3197.00000
    86.0228     3328.00000
    86.0359     3359.00000
    86.0491     3506.00000
    86.0622     3625.00000
    86.0753     3562.00000
    86.0885     3580.00000
    86.1016     3468.00000
    86.1147     3491.00000
    86.1278     3428.00000
    86.1410     3340.00000
    86.1541     3253.00000
    86.1672     3290.00000
    86.1804     3102.00000
    86.1935     2933.00000
    86.2066     2899.00000
    86.2198     2828.00000
    86.2329     2833.00000
    86.2460     2782.00000
    86.2591     2663.00000
    86.2723     2676.00000
    86.2854     2643.00000
    86.2985     2636.00000
    86.3117     2665.00000
    86.3248     2689.00000
    86.3379     2624.00000
    86.3511     2699.00000
    86.3642     2496.00000
    86.3773     2660.00000
    86.3904     2517.00000
    86.4036     2570.00000
    86.4167     2573.00000
    86.4298     2564.00000
    86.4430     2520.00000
    86.4561     2437.00000
    86.4692     2405.00000
    86.4824     2434.00000
    86.4955     2367.00000
    86.5086     2420.00000
    86.5218     2272.00000
    86.5349     2396.00000
    86.5480     2407.00000
    86.5611     2424.00000
    86.5743     2459.00000
    86.5874     2343.00000
    86.6005     2360.00000
    86.6137     2437.00000
    86.6268     2470.00000
    86.6399     2488.00000
    86.6531     2428.00000
    86.6662     2417.00000
    86.6793     2518.00000
    86.6925     2646.00000
    86.7056     2655.00000
    86.7187     2688.00000
    86.7318     2775.00000
    86.7450     2886.00000
    86.7581     2850.00000
    86.7712     3032.00000
    86.7844     3112.00000
    86.7975     2947.00000
    86.8106     2918.00000
    86.8238     2915.00000
    86.8369     2710.00000
    86.8500     2733.00000
    86.8631     2619.00000
    86.8763     2606.00000
    86.8894     2591.00000
    86.9025     2520.00000
    86.9157     2521.00000
    86.9288     2511.00000
    86.9419     2601.00000
    86.9551     2474.00000
    86.9682     2585.00000
    86.9813     2594.00000
    86.9944     2645.00000
    87.0076     2667.00000
    87.0207     2751.00000
    87.0338     2837.00000
    87.0470     2786.00000
    87.0601     2817.00000
    87.0732     2746.00000
    87.0864     2768.00000
    87.0995     2762.00000
    87.1126     2771.00000
    87.1257     2780.00000
    87.1389     2787.00000
    87.1520     2922.00000
    87.1651     3025.00000
    87.1783     3183.00000
    87.1914     3234.00000
    87.2045     3283.00000
    87.2177     3379.00000
    87.2308     3421.00000
    87.2439     3169.00000
    87.2570     3089.00000
    87.2702     3119.00000
    87.2833     2889.00000
    87.2964     2935.00000
    87.3096     3034.00000
    87.3227     2982.00000
    87.3358     2949.00000
    87.3490     3005.00000
    87.3621     3041.00000
    87.3752     3008.00000
    87.3884     2911.00000
    87.4015     2918.00000
    87.4146     2918.00000
    87.4277     2905.00000
    87.4409     2851.00000
    87.4540     2951.00000
    87.4671     2823.00000
    87.4803     2816.00000
    87.4934     2788.00000
    87.5065     2948.00000
    87.5197     2723.00000
    87.5328     2729.00000
    87.5459     2756.00000
    87.5590     2666.00000
    87.5722     2808.00000
    87.5853     2645.00000
    87.5984     2758.00000
    87.6116     2627.00000
    87.6247     2722.00000
    87.6378     2728.00000
    87.6510     2693.00000
    87.6641     2732.00000
    87.6772     2600.00000
    87.6904     2588.00000
    87.7035     2592.00000
    87.7166     2568.00000
    87.7297     2579.00000
    87.7429     2534.00000
    87.7560     2600.00000
    87.7691     2717.00000
    87.7823     2700.00000
    87.7954     2673.00000
    87.8085     2753.00000
    87.8217     2885.00000
    87.8348     2900.00000
    87.8479     3023.00000
    87.8610     3103.00000
    87.8742     3231.00000
    87.8873     3254.00000
    87.9004     3308.00000
    87.9136     3406.00000
    87.9267     3337.00000
    87.9398     3314.00000
    87.9530     3138.00000
    87.9661     3057.00000
    87.9792     3009.00000
    87.9923     3073.00000
    88.0055     3022.00000
    88.0186     3013.00000
    88.0317     3108.00000
    88.0449     3150.00000
    88.0580     3337.00000
    88.0711     3501.00000
    88.0843     3621.00000
    88.0974     3696.00000
    88.1105     3799.00000
    88.1236     3762.00000
    88.1368     3669.00000
    88.1499     3608.00000
    88.1630     3423.00000
    88.1762     3431.00000
    88.1893     3327.00000
    88.2024     3153.00000
    88.2156     3217.00000
    88.2287     3042.00000
    88.2418     3015.00000
    88.2550     3037.00000
    88.2681     3032.00000
    88.2812     2998.00000
    88.2943     3025.00000
    88.3075     3129.00000
    88.3206     3101.00000
    88.3337     3142.00000
    88.3469     3145.00000
    88.3600     3223.00000
    88.3731     3193.00000
    88.3863     3214.00000
    88.3994     3213.00000
    88.4125     3139.00000
    88.4256     2975.00000
    88.4388     2994.00000
    88.4519     2854.00000
    88.4650     2943.00000
    88.4782     2837.00000
    88.4913     2832.00000
    88.5044     2860.00000
    88.5176     2886.00000
    88.5307     2823.00000
    88.5438     2763.00000
    88.5569     2790.00000
    88.5701     2828.00000
    88.5832     2717.00000
    88.5963     2800.00000
    88.6095     2683.00000
    88.6226     2688.00000
    88.6357     2718.00000
    88.6489     2691.00000
    88.6620     2833.00000
    88.6751     2802.00000
    88.6882     2884.00000
    88.7014     2931.00000
    88.7145     3150.00000
    88.7276     3277.00000
    88.7408     3484.00000
    88.7539     3634.00000
    88.7670     3594.00000
    88.7802     3755.00000
    88.7933     3869.00000
    88.8064     3909.00000
    88.8196     3745.00000
    88.8327     3660.00000
    88.8458     3511.00000
    88.8589     3196.00000
    88.8721     2980.00000
    88.8852     2855.00000
    88.8983     2777.00000
    88.9115     2623.00000
    88.9246     2590.00000
    88.9377     2573.00000
    88.9509     2582.00000
    88.9640     2646.00000
    88.9771     2628.00000
    88.9902     2660.00000
    89.0034     2665.00000
    89.0165     2783.00000
    89.0296     2861.00000
    89.0428     3000.00000
    89.0559     3097.00000
    89.0690     3060.00000
    89.0822     3116.00000
    89.0953     3055.00000
    89.1084     3042.00000
    89.1216     2930.00000
    89.1347     2986.00000
    89.1478     2770.00000
    89.1609     2863.00000
    89.1741     2796.00000
    89.1872     2791.00000
    89.2003     2789.00000
    89.2135     2909.00000
    89.2266     3026.00000
    89.2397     3041.00000
    89.2529     3199.00000
    89.2660     3329.00000
    89.2791     3281.00000
    89.2922     3267.00000
    89.3054     3226.00000
    89.3185     3028.00000
    89.3316     2841.00000
    89.3448     2795.00000
    89.3579     2718.00000
    89.3710     2618.00000
    89.3842     2611.00000
    89.3973     2661.00000
    89.4104     2557.00000
    89.4235     2534.00000
    89.4367     2615.00000
    89.4498     2547.00000
    89.4629     2535.00000
    89.4761     2549.00000
    89.4892     2635.00000
    89.5023     2653.00000
    89.5155     2806.00000
    89.5286     2794.00000
    89.5417     2724.00000
    89.5548     2870.00000
    89.5680     2808.00000
    89.5811     2812.00000
    89.5942     2748.00000
    89.6074     2668.00000
    89.6205     2683.00000
    89.6336     2605.00000
    89.6468     2570.00000
    89.6599     2515.00000
    89.6730     2546.00000
    89.6861     2497.00000
    89.6993     2576.00000
    89.7124     2414.00000
    89.7255     2528.00000
    89.7387     2467.00000
    89.7518     2423.00000
    89.7649     2572.00000
    89.7781     2622.00000
    89.7912     2595.00000
    89.8043     2587.00000
    89.8175     2618.00000
    89.8306     2811.00000
    89.8437     2865.00000
    89.8568     3189.00000
    89.8700     3392.00000
    89.8831     3421.00000
    89.8962     3532.00000
    89.9094     3511.00000
    89.9225     3260.00000
    89.9356     3221.00000
    89.9488     2929.00000
    89.9619     2907.00000
    89.9750     2823.00000
    89.9882     2823.00000
    90.0013     2774.00000
    90.0144     2746.00000
    90.0275     2819.00000
    90.0407     2979.00000
    90.0538     2814.00000
    90.0669     2847.00000
    90.0801     3039.00000
    90.0932     2901.00000
    90.1063     2924.00000
    90.1195     2901.00000
    90.1326     3046.00000
    90.1457     3062.00000
    90.1588     3066.00000
    90.1720     3127.00000
    90.1851     3144.00000
    90.1982     2978.00000
    90.2114     2956.00000
    90.2245     2908.00000
    90.2376     2729.00000
    90.2508     2592.00000
    90.2639     2641.00000
    90.2770     2707.00000
    90.2901     2677.00000
    90.3033     2692.00000
    90.3164     2713.00000
    90.3295     2672.00000
    90.3427     2795.00000
    90.3558     2749.00000
    90.3689     2896.00000
    90.3821     2866.00000
    90.3952     2940.00000
    90.4083     3032.00000
    90.4214     3239.00000
    90.4346     3183.00000
    90.4477     3127.00000
    90.4608     3068.00000
    90.4740     3085.00000
    90.4871     3117.00000
    90.5002     3055.00000
    90.5134     3062.00000
    90.5265     3001.00000
    90.5396     2831.00000
    90.5527     2940.00000
    90.5659     2864.00000
    90.5790     2997.00000
    90.5921     2929.00000
    90.6053     2886.00000
    90.6184     2968.00000
    90.6315     2974.00000
    90.6447     3084.00000
    90.6578     3009.00000
    90.6709     3004.00000
    90.6841     3015.00000
    90.6972     3049.00000
    90.7103     3037.00000
    90.7234     3142.00000
    90.7366     3117.00000
    90.7497     3363.00000
    90.7628     3205.00000
    90.7760     3283.00000
    90.7891     3129.00000
    90.8022     3087.00000
    90.8154     3187.00000
    90.8285     3181.00000
    90.8416     3055.00000
    90.8548     3012.00000
    90.8679     2960.00000
    90.8810     2991.00000
    90.8941     2938.00000
    90.9073     2868.00000
    90.9204     2953.00000
    90.9335     2863.00000
    90.9467     2846.00000
    90.9598     2789.00000
    90.9729     2726.00000
    90.9861     2733.00000
    90.9992     2658.00000
    91.0123     2745.00000
    91.0254     2635.00000
    91.0386     2794.00000
    91.0517     2702.00000
    91.0648     2676.00000
    91.0780     2807.00000
    91.0911     3015.00000
    91.1042     2901.00000
    91.1174     2769.00000
    91.1305     2919.00000
    91.1436     2955.00000
    91.1567     3075.00000
    91.1699     3236.00000
    91.1830     3310.00000
    91.1961     3344.00000
    91.2093     3311.00000
    91.2224     3267.00000
    91.2355     3113.00000
    91.2487     3005.00000
    91.2618     2969.00000
    91.2749     2822.00000
    91.2880     2771.00000
    91.3012     2744.00000
    91.3143     2752.00000
    91.3274     2809.00000
    91.3406     2919.00000
    91.3537     2984.00000
    91.3668     3095.00000
    91.3800     3097.00000
    91.3931     3445.00000
    91.4062     3529.00000
    91.4193     3655.00000
    91.4325     3831.00000
    91.4456     3943.00000
    91.4587     4119.00000
    91.4719     4246.00000
    91.4850     4415.00000
    91.4981     4511.00000
    91.5113     4259.00000
    91.5244     4171.00000
    91.5375     4100.00000
    91.5507     3823.00000
    91.5638     3629.00000
    91.5769     3388.00000
    91.5900     3254.00000
    91.6032     3204.00000
    91.6163     3048.00000
    91.6294     3057.00000
    91.6426     3065.00000
    91.6557     3033.00000
    91.6688     3043.00000
    91.6820     3038.00000
    91.6951     3100.00000
    91.7082     3232.00000
    91.7213     3213.00000
    91.7345     3352.00000
    91.7476     3456.00000
    91.7607     3437.00000
    91.7739     3533.00000
    91.7870     3651.00000
    91.8001     3583.00000
    91.8133     3714.00000
    91.8264     3835.00000
    91.8395     3842.00000
    91.8526     3935.00000
    91.8658     3915.00000
    91.8789     4080.00000
    91.8920     4041.00000
    91.9052     3647.00000
    91.9183     3561.00000
    91.9314     3461.00000
    91.9446     3158.00000
    91.9577     3040.00000
    91.9708     2911.00000
    91.9840     2823.00000
    91.9971     2931.00000
    92.0102     2746.00000
    92.0233     2637.00000
    92.0365     2725.00000
    92.0496     2710.00000
    92.0627     2670.00000
    92.0759     2664.00000
    92.0890     2670.00000
    92.1021     2834.00000
    92.1153     2796.00000
    92.1284     3013.00000
    92.1415     3103.00000
    92.1546     3178.00000
    92.1678     3233.00000
    92.1809     3245.00000
    92.1940     3352.00000
    92.2072     3194.00000
    92.2203     3158.00000
    92.2334     3043.00000
    92.2466     3094.00000
    92.2597     3130.00000
    92.2728     3051.00000
    92.2859     3002.00000
    92.2991     2736.00000
    92.3122     2910.00000
    92.3253     2809.00000
    92.3385     2791.00000
    92.3516     2695.00000
    92.3647     2715.00000
    92.3779     2579.00000
    92.3910     2559.00000
    92.4041     2669.00000
    92.4173     2618.00000
    92.4304     2605.00000
    92.4435     2567.00000
    92.4566     2628.00000
    92.4698     2575.00000
    92.4829     2631.00000
    92.4960     2649.00000
    92.5092     2587.00000
    92.5223     2604.00000
    92.5354     2598.00000
    92.5486     2772.00000
    92.5617     2645.00000
    92.5748     2619.00000
    92.5879     2542.00000
    92.6011     2583.00000
    92.6142     2619.00000
    92.6273     2543.00000
    92.6405     2585.00000
    92.6536     2672.00000
    92.6667     2541.00000
    92.6799     2532.00000
    92.6930     2664.00000
    92.7061     2707.00000
    92.7192     2782.00000
    92.7324     2778.00000
    92.7455     2749.00000
    92.7586     2774.00000
    92.7718     2811.00000
    92.7849     2831.00000
    92.7980     2731.00000
    92.8112     2771.00000
    92.8243     2736.00000
    92.8374     2609.00000
    92.8505     2677.00000
    92.8637     2576.00000
    92.8768     2604.00000
    92.8899     2697.00000
    92.9031     2775.00000
    92.9162     2634.00000
    92.9293     2728.00000
    92.9425     2802.00000
    92.9556     2759.00000
    92.9687     2884.00000
    92.9819     2819.00000
    92.9950     2855.00000
    93.0081     2877.00000
    93.0212     3068.00000
    93.0344     2981.00000
    93.0475     3026.00000
    93.0606     2976.00000
    93.0738     3030.00000
    93.0869     3222.00000
    93.1000     3284.00000
    93.1132     3438.00000
    93.1263     3557.00000
    93.1394     3695.00000
    93.1525     3766.00000
    93.1657     3762.00000
    93.1788     3586.00000
    93.1919     3488.00000
    93.2051     3358.00000
    93.2182     3289.00000
    93.2313     3080.00000
    93.2445     3007.00000
    93.2576     2920.00000
    93.2707     2845.00000
    93.2839     2646.00000
    93.2970     2752.00000
    93.3101     2820.00000
    93.3232     2755.00000
    93.3364     2643.00000
    93.3495     2744.00000
    93.3626     2663.00000
    93.3758     2689.00000
    93.3889     2761.00000
    93.4020     2748.00000
    93.4152     2805.00000
    93.4283     2965.00000
    93.4414     2859.00000
    93.4545     2971.00000
    93.4677     3064.00000
    93.4808     2826.00000
    93.4939     2931.00000
    93.5071     2902.00000
    93.5202     2736.00000
    93.5333     2709.00000
    93.5465     2583.00000
    93.5596     2611.00000
    93.5727     2521.00000
    93.5858     2440.00000
    93.5990     2508.00000
    93.6121     2464.00000
    93.6252     2402.00000
    93.6384     2366.00000
    93.6515     2309.00000
    93.6646     2371.00000
    93.6778     2332.00000
    93.6909     2269.00000
    93.7040     2460.00000
    93.7171     2369.00000
    93.7303     2386.00000
    93.7434     2263.00000
    93.7565     2308.00000
    93.7697     2271.00000
    93.7828     2358.00000
    93.7959     2342.00000
    93.8091     2316.00000
    93.8222     2334.00000
    93.8353     2291.00000
    93.8484     2371.00000
    93.8616     2274.00000
    93.8747     2337.00000
    93.8878     2253.00000
    93.9010     2348.00000
    93.9141     2346.00000
    93.9272     2263.00000
    93.9404     2359.00000
    93.9535     2285.00000
    93.9666     2304.00000
    93.9798     2232.00000
    93.9929     2374.00000
    94.0060     2201.00000
    94.0191     2274.00000
    94.0323     2252.00000
    94.0454     2285.00000
    94.0585     2338.00000
    94.0717     2225.00000
    94.0848     2286.00000
    94.0979     2281.00000
    94.1111     2307.00000
    94.1242     2333.00000
    94.1373     2286.00000
    94.1505     2310.00000
    94.1636     2365.00000
    94.1767     2359.00000
    94.1898     2279.00000
    94.2030     2269.00000
    94.2161     2311.00000
    94.2292     2281.00000
    94.2424     2342.00000
    94.2555     2357.00000
    94.2686     2473.00000
    94.2818     2316.00000
    94.2949     2497.00000
    94.3080     2461.00000
    94.3211     2475.00000
    94.3343     2385.00000
    94.3474     2472.00000
    94.3605     2638.00000
    94.3737     2728.00000
    94.3868     2749.00000
    94.3999     2730.00000
    94.4131     2922.00000
    94.4262     3121.00000
    94.4393     3221.00000
    94.4524     3235.00000
    94.4656     3266.00000
    94.4787     3193.00000
    94.4918     3144.00000
    94.5050     3008.00000
    94.5181     2946.00000
    94.5312     2970.00000
    94.5444     2888.00000
    94.5575     2822.00000
    94.5706     2909.00000
    94.5837     2819.00000
    94.5969     2738.00000
    94.6100     2729.00000
    94.6231     2784.00000
    94.6363     2825.00000
    94.6494     2830.00000
    94.6625     2747.00000
    94.6757     2759.00000
    94.6888     2769.00000
    94.7019     2769.00000
    94.7150     2753.00000
    94.7282     2986.00000
    94.7413     2856.00000
    94.7544     2933.00000
    94.7676     2973.00000
    94.7807     3006.00000
    94.7938     2957.00000
    94.8070     2864.00000
    94.8201     2821.00000
    94.8332     2726.00000
    94.8464     2716.00000
    94.8595     2768.00000
    94.8726     2732.00000
    94.8857     2819.00000
    94.8989     2846.00000
    94.9120     2895.00000
    94.9251     2895.00000
    94.9383     3013.00000
    94.9514     3020.00000
    94.9645     3094.00000
    94.9777     3220.00000
    94.9908     3187.00000
    95.0039     3259.00000
    95.0170     3199.00000
    95.0302     3201.00000
    95.0433     3076.00000
    95.0564     3041.00000
    95.0696     2901.00000
    95.0827     2819.00000
    95.0958     2878.00000
    95.1090     2895.00000
    95.1221     2893.00000
    95.1352     2893.00000
    95.1484     3033.00000
    95.1615     3157.00000
    95.1746     3078.00000
    95.1877     3140.00000
    95.2009     3072.00000
    95.2140     2869.00000
    95.2271     2915.00000
    95.2403     2824.00000
    95.2534     2903.00000
    95.2665     2893.00000
    95.2797     3012.00000
    95.2928     3000.00000
    95.3059     3037.00000
    95.3190     3002.00000
    95.3322     2790.00000
    95.3453     2723.00000
    95.3584     2723.00000
    95.3716     2651.00000
    95.3847     2623.00000
    95.3978     2643.00000
    95.4110     2613.00000
    95.4241     2682.00000
    95.4372     2418.00000
    95.4503     2582.00000
    95.4635     2651.00000
    95.4766     2714.00000
    95.4897     2634.00000
    95.5029     2723.00000
    95.5160     2581.00000
    95.5291     2533.00000
    95.5423     2537.00000
    95.5554     2530.00000
    95.5685     2465.00000
    95.5816     2504.00000
    95.5948     2495.00000
    95.6079     2387.00000
    95.6210     2523.00000
    95.6342     2351.00000
    95.6473     2274.00000
    95.6604     2370.00000
    95.6736     2343.00000
    95.6867     2447.00000
    95.6998     2299.00000
    95.7130     2320.00000
    95.7261     2314.00000
    95.7392     2346.00000
    95.7523     2285.00000
    95.7655     2220.00000
    95.7786     2270.00000
    95.7917     2344.00000
    95.8049     2264.00000
    95.8180     2326.00000
    95.8311     2416.00000
    95.8443     2256.00000
    95.8574     2317.00000
    95.8705     2316.00000
    95.8836     2289.00000
    95.8968     2291.00000
    95.9099     2311.00000
    95.9230     2298.00000
    95.9362     2322.00000
    95.9493     2232.00000
    95.9624     2324.00000
    95.9756     2305.00000
    95.9887     2309.00000
    96.0018     2248.00000
    96.0149     2450.00000
    96.0281     2261.00000
    96.0412     2349.00000
    96.0543     2245.00000
    96.0675     2284.00000
    96.0806     2312.00000
    96.0937     2374.00000
    96.1069     2296.00000
    96.1200     2264.00000
    96.1331     2239.00000
    96.1463     2274.00000
    96.1594     2248.00000
    96.1725     2234.00000
    96.1856     2284.00000
    96.1988     2296.00000
    96.2119     2278.00000
    96.2250     2242.00000
    96.2382     2297.00000
    96.2513     2194.00000
    96.2644     2286.00000
    96.2776     2316.00000
    96.2907     2306.00000
    96.3038     2188.00000
    96.3169     2197.00000
    96.3301     2293.00000
    96.3432     2275.00000
    96.3563     2347.00000
    96.3695     2339.00000
    96.3826     2333.00000
    96.3957     2276.00000
    96.4089     2299.00000
    96.4220     2374.00000
    96.4351     2328.00000
    96.4482     2319.00000
    96.4614     2352.00000
    96.4745     2272.00000
    96.4876     2238.00000
    96.5008     2320.00000
    96.5139     2422.00000
    96.5270     2311.00000
    96.5402     2394.00000
    96.5533     2281.00000
    96.5664     2319.00000
    96.5796     2314.00000
    96.5927     2402.00000
    96.6058     2458.00000
    96.6189     2370.00000
    96.6321     2335.00000
    96.6452     2471.00000
    96.6583     2436.00000
    96.6715     2456.00000
    96.6846     2454.00000
    96.6977     2575.00000
    96.7109     2393.00000
    96.7240     2550.00000
    96.7371     2406.00000
    96.7502     2474.00000
    96.7634     2431.00000
    96.7765     2466.00000
    96.7896     2400.00000
    96.8028     2365.00000
    96.8159     2349.00000
    96.8290     2420.00000
    96.8422     2410.00000
    96.8553     2358.00000
    96.8684     2413.00000
    96.8815     2470.00000
    96.8947     2545.00000
    96.9078     2532.00000
    96.9209     2487.00000
    96.9341     2602.00000
    96.9472     2626.00000
    96.9603     2708.00000
    96.9735     2684.00000
    96.9866     2732.00000
    96.9997     2904.00000
    97.0128     2838.00000
    97.0260     2791.00000
    97.0391     2878.00000
    97.0522     2903.00000
    97.0654     2934.00000
    97.0785     2872.00000
    97.0916     2989.00000
    97.1048     2925.00000
    97.1179     2897.00000
    97.1310     2978.00000
    97.1442     2865.00000
    97.1573     2858.00000
    97.1704     2995.00000
    97.1835     2896.00000
    97.1967     2940.00000
    97.2098     3045.00000
    97.2229     3301.00000
    97.2361     3414.00000
    97.2492     3533.00000
    97.2623     3542.00000
    97.2755     3579.00000
    97.2886     3510.00000
    97.3017     3448.00000
    97.3148     3346.00000
    97.3280     3140.00000
    97.3411     2961.00000
    97.3542     3005.00000
    97.3674     3026.00000
    97.3805     2907.00000
    97.3936     2857.00000
    97.4068     2872.00000
    97.4199     2940.00000
    97.4330     2923.00000
    97.4462     2905.00000
    97.4593     2952.00000
    97.4724     2962.00000
    97.4855     3027.00000
    97.4987     3029.00000
    97.5118     3193.00000
    97.5249     3291.00000
    97.5381     3375.00000
    97.5512     3497.00000
    97.5643     3578.00000
    97.5775     3578.00000
    97.5906     3667.00000
    97.6037     3532.00000
    97.6168     3517.00000
    97.6300     3559.00000
    97.6431     3353.00000
    97.6562     3249.00000
    97.6694     3208.00000
    97.6825     3232.00000
    97.6956     3309.00000
    97.7088     3160.00000
    97.7219     3183.00000
    97.7350     3141.00000
    97.7481     3082.00000
    97.7613     3142.00000
    97.7744     2988.00000
    97.7875     3006.00000
    97.8007     3055.00000
    97.8138     2844.00000
    97.8269     2897.00000
    97.8401     3024.00000
    97.8532     2901.00000
    97.8663     3006.00000
    97.8794     3053.00000
    97.8926     3011.00000
    97.9057     3048.00000
    97.9188     3127.00000
    97.9320     3118.00000
    97.9451     3221.00000
    97.9582     3259.00000
    97.9714     3201.00000
    97.9845     3343.00000
    97.9976     3256.00000
    98.0107     3261.00000
    98.0239     3272.00000
    98.0370     3188.00000
    98.0501     3067.00000
    98.0633     3114.00000
    98.0764     2897.00000
    98.0895     2887.00000
    98.1027     2775.00000
    98.1158     2702.00000
    98.1289     2675.00000
    98.1421     2648.00000
    98.1552     2552.00000
    98.1683     2478.00000
    98.1814     2450.00000
    98.1946     2647.00000
    98.2077     2579.00000
    98.2208     2443.00000
    98.2340     2584.00000
    98.2471     2581.00000
    98.2602     2553.00000
    98.2734     2546.00000
    98.2865     2610.00000
    98.2996     2624.00000
    98.3128     2597.00000
    98.3259     2596.00000
    98.3390     2654.00000
    98.3521     2750.00000
    98.3653     2561.00000
    98.3784     2491.00000
    98.3915     2446.00000
    98.4047     2470.00000
    98.4178     2375.00000
    98.4309     2468.00000
    98.4441     2444.00000
    98.4572     2372.00000
    98.4703     2329.00000
    98.4834     2348.00000
    98.4966     2302.00000
    98.5097     2414.00000
    98.5228     2460.00000
    98.5360     2436.00000
    98.5491     2276.00000
    98.5622     2380.00000
    98.5754     2456.00000
    98.5885     2317.00000
    98.6016     2381.00000
    98.6147     2413.00000
    98.6279     2380.00000
    98.6410     2428.00000
    98.6541     2451.00000
    98.6673     2460.00000
    98.6804     2348.00000
    98.6935     2476.00000
    98.7067     2441.00000
    98.7198     2481.00000
    98.7329     2448.00000
    98.7460     2636.00000
    98.7592     2655.00000
    98.7723     2681.00000
    98.7854     2681.00000
    98.7986     2656.00000
    98.8117     2967.00000
    98.8248     2982.00000
    98.8380     3073.00000
    98.8511     3303.00000
    98.8642     3365.00000
    98.8773     3374.00000
    98.8905     3495.00000
    98.9036     3480.00000
    98.9167     3437.00000
    98.9299     3352.00000
    98.9430     3524.00000
    98.9561     3292.00000
    98.9693     3318.00000
    98.9824     3372.00000
    98.9955     3417.00000
    99.0087     3382.00000
    99.0218     3399.00000
    99.0349     3432.00000
    99.0480     3371.00000
    99.0612     3459.00000
    99.0743     3615.00000
    99.0874     3784.00000
    99.1006     3934.00000
    99.1137     4168.00000
    99.1268     4196.00000
    99.1400     4407.00000
    99.1531     4577.00000
    99.1662     4622.00000
    99.1793     4720.00000
    99.1925     4734.00000
    99.2056     4941.00000
    99.2187     4730.00000
    99.2319     4802.00000
    99.2450     4527.00000
    99.2581     4536.00000
    99.2713     4249.00000
    99.2844     4146.00000
    99.2975     3888.00000
    99.3107     3754.00000
    99.3238     3623.00000
    99.3369     3490.00000
    99.3500     3431.00000
    99.3632     3324.00000
    99.3763     3269.00000
    99.3894     3290.00000
    99.4026     3212.00000
    99.4157     3111.00000
    99.4288     3190.00000
    99.4420     3414.00000
    99.4551     3450.00000
    99.4682     3469.00000
    99.4813     3433.00000
    99.4945     3533.00000
    99.5076     3396.00000
    99.5207     3660.00000
    99.5339     3484.00000
    99.5470     3457.00000
    99.5601     3540.00000
    99.5733     3467.00000
    99.5864     3452.00000
    99.5995     3369.00000
    99.6126     3459.00000
    99.6258     3353.00000
    99.6389     3352.00000
    99.6520     3187.00000
    99.6652     3232.00000
    99.6783     3288.00000
    99.6914     3281.00000
    99.7046     3347.00000
    99.7177     3367.00000
    99.7308     3278.00000
    99.7439     3364.00000
    99.7571     3374.00000
    99.7702     3458.00000
    99.7833     3431.00000
    99.7965     3447.00000
    99.8096     3376.00000
    99.8227     3586.00000
    99.8359     3613.00000
    99.8490     3670.00000
    99.8621     3495.00000
    99.8753     3662.00000
    99.8884     3575.00000
    99.9015     3593.00000
    99.9146     3519.00000
    99.9278     3505.00000
    99.9409     3309.00000
    99.9540     3219.00000
    99.9672     3228.00000
    99.9803     3145.00000
    99.9934     3055.00000
