! Initial file:   D:\ZAKARY_OUAIL\MA_THESE\Deuxième_année_de_thèse\DRX\Manips_DRX\1st_NaTaO2F2_XRK900\NaTaO2F2-Lent_60°C.xrdml
! Initial format:  58
! WAVE (A):      1.54060     1.54060     1.00000
! REM : data have been multiplied by     1.0000
! X_data : 2 Theta (deg.)                                                                                                                                                                                                                                                  
! Y_data : Intensity (arb. units)                                                                                                                                                                                                                                          
!     X         Y
!--------------------------------------------------------------------------------
    10.0116     7304.00000
    10.0247     7347.00000
    10.0379     7366.00000
    10.0510     7335.00000
    10.0641     7343.00000
    10.0772     7269.00000
    10.0904     7231.00000
    10.1035     7342.00000
    10.1166     7234.00000
    10.1298     7157.00000
    10.1429     7050.00000
    10.1560     7119.00000
    10.1692     7149.00000
    10.1823     7184.00000
    10.1954     7146.00000
    10.2086     7163.00000
    10.2217     7101.00000
    10.2348     6981.00000
    10.2479     7213.00000
    10.2611     7144.00000
    10.2742     7278.00000
    10.2873     7172.00000
    10.3005     7009.00000
    10.3136     7177.00000
    10.3267     7087.00000
    10.3399     7030.00000
    10.3530     7155.00000
    10.3661     7237.00000
    10.3792     7062.00000
    10.3924     6960.00000
    10.4055     7078.00000
    10.4186     6955.00000
    10.4318     7118.00000
    10.4449     7089.00000
    10.4580     7128.00000
    10.4712     6842.00000
    10.4843     7134.00000
    10.4974     7006.00000
    10.5105     7117.00000
    10.5237     6843.00000
    10.5368     6922.00000
    10.5499     7192.00000
    10.5631     6988.00000
    10.5762     6977.00000
    10.5893     7026.00000
    10.6025     7205.00000
    10.6156     6969.00000
    10.6287     7036.00000
    10.6418     7013.00000
    10.6550     6866.00000
    10.6681     6795.00000
    10.6812     6847.00000
    10.6944     6969.00000
    10.7075     6863.00000
    10.7206     7102.00000
    10.7338     7134.00000
    10.7469     7151.00000
    10.7600     7123.00000
    10.7732     7128.00000
    10.7863     7149.00000
    10.7994     7084.00000
    10.8125     7022.00000
    10.8257     7097.00000
    10.8388     7125.00000
    10.8519     7194.00000
    10.8651     7259.00000
    10.8782     7221.00000
    10.8913     7379.00000
    10.9045     7392.00000
    10.9176     7485.00000
    10.9307     7698.00000
    10.9438     7792.00000
    10.9570     7948.00000
    10.9701     8233.00000
    10.9832     8853.00000
    10.9964     9461.00000
    11.0095    10297.00000
    11.0226    11115.00000
    11.0358    12738.00000
    11.0489    15478.00000
    11.0620    20270.00000
    11.0751    26642.00000
    11.0883    34044.00000
    11.1014    42619.00000
    11.1145    49565.00000
    11.1277    51456.00000
    11.1408    48272.00000
    11.1539    41194.00000
    11.1671    34370.00000
    11.1802    27499.00000
    11.1933    21204.00000
    11.2065    16634.00000
    11.2196    12633.00000
    11.2327    10269.00000
    11.2458     8845.00000
    11.2590     7890.00000
    11.2721     7829.00000
    11.2852     7576.00000
    11.2984     7248.00000
    11.3115     7158.00000
    11.3246     7071.00000
    11.3378     6999.00000
    11.3509     6906.00000
    11.3640     6758.00000
    11.3771     6913.00000
    11.3903     6762.00000
    11.4034     6850.00000
    11.4165     6852.00000
    11.4297     6702.00000
    11.4428     6794.00000
    11.4559     6745.00000
    11.4691     6752.00000
    11.4822     6658.00000
    11.4953     6511.00000
    11.5084     6697.00000
    11.5216     6844.00000
    11.5347     6776.00000
    11.5478     6580.00000
    11.5610     6547.00000
    11.5741     6555.00000
    11.5872     6615.00000
    11.6004     6693.00000
    11.6135     6633.00000
    11.6266     6522.00000
    11.6398     6654.00000
    11.6529     6591.00000
    11.6660     6613.00000
    11.6791     6530.00000
    11.6923     6458.00000
    11.7054     6503.00000
    11.7185     6640.00000
    11.7317     6562.00000
    11.7448     6727.00000
    11.7579     6692.00000
    11.7711     6605.00000
    11.7842     6545.00000
    11.7973     6419.00000
    11.8104     6545.00000
    11.8236     6496.00000
    11.8367     6590.00000
    11.8498     6442.00000
    11.8630     6521.00000
    11.8761     6455.00000
    11.8892     6339.00000
    11.9024     6316.00000
    11.9155     6514.00000
    11.9286     6402.00000
    11.9417     6490.00000
    11.9549     6549.00000
    11.9680     6494.00000
    11.9811     6430.00000
    11.9943     6520.00000
    12.0074     6298.00000
    12.0205     6290.00000
    12.0337     6470.00000
    12.0468     6411.00000
    12.0599     6293.00000
    12.0731     6501.00000
    12.0862     6321.00000
    12.0993     6323.00000
    12.1124     6255.00000
    12.1256     6094.00000
    12.1387     6295.00000
    12.1518     6306.00000
    12.1650     6328.00000
    12.1781     6277.00000
    12.1912     6285.00000
    12.2044     6313.00000
    12.2175     6363.00000
    12.2306     6237.00000
    12.2437     6294.00000
    12.2569     6415.00000
    12.2700     6245.00000
    12.2831     6270.00000
    12.2963     6224.00000
    12.3094     6318.00000
    12.3225     6170.00000
    12.3357     6254.00000
    12.3488     6110.00000
    12.3619     6252.00000
    12.3750     6261.00000
    12.3882     6232.00000
    12.4013     6227.00000
    12.4144     6137.00000
    12.4276     6178.00000
    12.4407     6225.00000
    12.4538     6104.00000
    12.4670     6091.00000
    12.4801     6223.00000
    12.4932     6284.00000
    12.5063     6144.00000
    12.5195     6201.00000
    12.5326     6156.00000
    12.5457     6217.00000
    12.5589     6100.00000
    12.5720     6119.00000
    12.5851     6291.00000
    12.5983     6229.00000
    12.6114     6001.00000
    12.6245     6130.00000
    12.6377     6175.00000
    12.6508     6196.00000
    12.6639     6088.00000
    12.6770     6074.00000
    12.6902     6073.00000
    12.7033     6204.00000
    12.7164     6049.00000
    12.7296     6144.00000
    12.7427     6013.00000
    12.7558     6099.00000
    12.7690     6120.00000
    12.7821     6047.00000
    12.7952     5999.00000
    12.8083     6141.00000
    12.8215     6056.00000
    12.8346     6055.00000
    12.8477     6112.00000
    12.8609     6072.00000
    12.8740     6080.00000
    12.8871     5983.00000
    12.9003     6018.00000
    12.9134     6002.00000
    12.9265     6041.00000
    12.9396     6059.00000
    12.9528     5862.00000
    12.9659     6006.00000
    12.9790     5974.00000
    12.9922     5972.00000
    13.0053     5955.00000
    13.0184     6006.00000
    13.0316     6019.00000
    13.0447     5762.00000
    13.0578     5905.00000
    13.0710     5952.00000
    13.0841     5991.00000
    13.0972     5997.00000
    13.1103     6007.00000
    13.1235     5941.00000
    13.1366     6031.00000
    13.1497     6030.00000
    13.1629     5881.00000
    13.1760     5991.00000
    13.1891     5916.00000
    13.2023     5981.00000
    13.2154     5946.00000
    13.2285     5968.00000
    13.2416     5937.00000
    13.2548     5948.00000
    13.2679     5876.00000
    13.2810     6029.00000
    13.2942     5861.00000
    13.3073     5936.00000
    13.3204     5799.00000
    13.3336     5876.00000
    13.3467     5843.00000
    13.3598     5962.00000
    13.3729     5909.00000
    13.3861     5900.00000
    13.3992     5874.00000
    13.4123     5895.00000
    13.4255     5889.00000
    13.4386     5879.00000
    13.4517     5823.00000
    13.4649     5834.00000
    13.4780     5881.00000
    13.4911     5899.00000
    13.5043     5839.00000
    13.5174     5810.00000
    13.5305     5751.00000
    13.5436     5688.00000
    13.5568     5808.00000
    13.5699     5868.00000
    13.5830     5875.00000
    13.5962     5622.00000
    13.6093     5701.00000
    13.6224     5756.00000
    13.6356     5884.00000
    13.6487     5769.00000
    13.6618     5786.00000
    13.6749     5707.00000
    13.6881     5694.00000
    13.7012     5638.00000
    13.7143     5751.00000
    13.7275     5677.00000
    13.7406     5716.00000
    13.7537     5724.00000
    13.7669     5688.00000
    13.7800     5694.00000
    13.7931     5598.00000
    13.8062     5622.00000
    13.8194     5705.00000
    13.8325     5723.00000
    13.8456     5688.00000
    13.8588     5670.00000
    13.8719     5599.00000
    13.8850     5664.00000
    13.8982     5649.00000
    13.9113     5542.00000
    13.9244     5466.00000
    13.9376     5544.00000
    13.9507     5648.00000
    13.9638     5701.00000
    13.9769     5689.00000
    13.9901     5785.00000
    14.0032     5593.00000
    14.0163     5658.00000
    14.0295     5576.00000
    14.0426     5539.00000
    14.0557     5581.00000
    14.0689     5600.00000
    14.0820     5456.00000
    14.0951     5582.00000
    14.1082     5597.00000
    14.1214     5672.00000
    14.1345     5636.00000
    14.1476     5726.00000
    14.1608     5514.00000
    14.1739     5438.00000
    14.1870     5543.00000
    14.2002     5558.00000
    14.2133     5528.00000
    14.2264     5584.00000
    14.2395     5733.00000
    14.2527     5530.00000
    14.2658     5538.00000
    14.2789     5650.00000
    14.2921     5405.00000
    14.3052     5482.00000
    14.3183     5609.00000
    14.3315     5564.00000
    14.3446     5443.00000
    14.3577     5481.00000
    14.3708     5399.00000
    14.3840     5457.00000
    14.3971     5501.00000
    14.4102     5596.00000
    14.4234     5502.00000
    14.4365     5490.00000
    14.4496     5413.00000
    14.4628     5438.00000
    14.4759     5614.00000
    14.4890     5468.00000
    14.5022     5562.00000
    14.5153     5490.00000
    14.5284     5447.00000
    14.5415     5517.00000
    14.5547     5490.00000
    14.5678     5317.00000
    14.5809     5427.00000
    14.5941     5438.00000
    14.6072     5522.00000
    14.6203     5404.00000
    14.6335     5478.00000
    14.6466     5354.00000
    14.6597     5360.00000
    14.6728     5438.00000
    14.6860     5414.00000
    14.6991     5395.00000
    14.7122     5389.00000
    14.7254     5337.00000
    14.7385     5542.00000
    14.7516     5360.00000
    14.7648     5449.00000
    14.7779     5433.00000
    14.7910     5328.00000
    14.8041     5417.00000
    14.8173     5504.00000
    14.8304     5414.00000
    14.8435     5324.00000
    14.8567     5286.00000
    14.8698     5448.00000
    14.8829     5260.00000
    14.8961     5387.00000
    14.9092     5567.00000
    14.9223     5488.00000
    14.9355     5348.00000
    14.9486     5234.00000
    14.9617     5357.00000
    14.9748     5460.00000
    14.9880     5261.00000
    15.0011     5385.00000
    15.0142     5402.00000
    15.0274     5380.00000
    15.0405     5432.00000
    15.0536     5317.00000
    15.0668     5256.00000
    15.0799     5447.00000
    15.0930     5298.00000
    15.1061     5329.00000
    15.1193     5206.00000
    15.1324     5383.00000
    15.1455     5227.00000
    15.1587     5328.00000
    15.1718     5279.00000
    15.1849     5425.00000
    15.1981     5478.00000
    15.2112     5252.00000
    15.2243     5190.00000
    15.2374     5214.00000
    15.2506     5317.00000
    15.2637     5442.00000
    15.2768     5288.00000
    15.2900     5218.00000
    15.3031     5339.00000
    15.3162     5195.00000
    15.3294     5217.00000
    15.3425     5200.00000
    15.3556     5281.00000
    15.3688     5204.00000
    15.3819     5154.00000
    15.3950     5114.00000
    15.4081     5164.00000
    15.4213     5070.00000
    15.4344     5279.00000
    15.4475     5291.00000
    15.4607     5280.00000
    15.4738     5255.00000
    15.4869     5314.00000
    15.5001     5238.00000
    15.5132     5073.00000
    15.5263     5197.00000
    15.5394     5254.00000
    15.5526     5056.00000
    15.5657     5278.00000
    15.5788     5214.00000
    15.5920     5184.00000
    15.6051     5074.00000
    15.6182     5207.00000
    15.6314     5174.00000
    15.6445     5237.00000
    15.6576     5199.00000
    15.6707     5241.00000
    15.6839     5173.00000
    15.6970     5190.00000
    15.7101     5123.00000
    15.7233     5224.00000
    15.7364     5260.00000
    15.7495     5073.00000
    15.7627     5162.00000
    15.7758     5203.00000
    15.7889     5192.00000
    15.8021     5200.00000
    15.8152     5164.00000
    15.8283     5165.00000
    15.8414     5131.00000
    15.8546     5160.00000
    15.8677     5124.00000
    15.8808     5175.00000
    15.8940     5103.00000
    15.9071     5192.00000
    15.9202     5168.00000
    15.9334     5091.00000
    15.9465     5242.00000
    15.9596     5155.00000
    15.9727     5137.00000
    15.9859     5135.00000
    15.9990     5144.00000
    16.0121     5245.00000
    16.0253     5094.00000
    16.0384     5198.00000
    16.0515     5154.00000
    16.0647     5070.00000
    16.0778     5170.00000
    16.0909     5128.00000
    16.1040     5163.00000
    16.1172     5112.00000
    16.1303     5170.00000
    16.1434     5151.00000
    16.1566     5222.00000
    16.1697     5139.00000
    16.1828     5254.00000
    16.1960     5332.00000
    16.2091     5332.00000
    16.2222     5275.00000
    16.2353     5289.00000
    16.2485     5261.00000
    16.2616     5268.00000
    16.2747     5220.00000
    16.2879     5167.00000
    16.3010     5268.00000
    16.3141     5309.00000
    16.3273     5297.00000
    16.3404     5276.00000
    16.3535     5213.00000
    16.3667     5210.00000
    16.3798     5232.00000
    16.3929     5288.00000
    16.4060     5250.00000
    16.4192     5286.00000
    16.4323     5372.00000
    16.4454     5308.00000
    16.4586     5301.00000
    16.4717     5325.00000
    16.4848     5384.00000
    16.4980     5318.00000
    16.5111     5239.00000
    16.5242     5201.00000
    16.5373     5032.00000
    16.5505     5003.00000
    16.5636     5181.00000
    16.5767     5117.00000
    16.5899     5172.00000
    16.6030     5029.00000
    16.6161     5133.00000
    16.6293     5051.00000
    16.6424     5061.00000
    16.6555     4884.00000
    16.6686     4892.00000
    16.6818     4917.00000
    16.6949     4992.00000
    16.7080     5023.00000
    16.7212     4920.00000
    16.7343     5058.00000
    16.7474     5037.00000
    16.7606     4976.00000
    16.7737     5036.00000
    16.7868     4933.00000
    16.8000     4931.00000
    16.8131     5047.00000
    16.8262     4922.00000
    16.8393     4990.00000
    16.8525     4976.00000
    16.8656     5001.00000
    16.8787     5124.00000
    16.8919     5022.00000
    16.9050     4931.00000
    16.9181     4941.00000
    16.9313     5002.00000
    16.9444     5006.00000
    16.9575     4830.00000
    16.9706     4904.00000
    16.9838     4840.00000
    16.9969     4959.00000
    17.0100     4805.00000
    17.0232     4718.00000
    17.0363     4905.00000
    17.0494     4943.00000
    17.0626     5007.00000
    17.0757     4908.00000
    17.0888     4998.00000
    17.1019     4931.00000
    17.1151     4915.00000
    17.1282     4889.00000
    17.1413     4857.00000
    17.1545     4898.00000
    17.1676     4820.00000
    17.1807     4822.00000
    17.1939     5057.00000
    17.2070     4855.00000
    17.2201     4952.00000
    17.2333     4938.00000
    17.2464     5007.00000
    17.2595     5089.00000
    17.2726     5211.00000
    17.2858     4963.00000
    17.2989     5057.00000
    17.3120     4986.00000
    17.3252     5218.00000
    17.3383     4989.00000
    17.3514     4994.00000
    17.3646     4977.00000
    17.3777     5030.00000
    17.3908     4853.00000
    17.4039     4893.00000
    17.4171     4861.00000
    17.4302     4934.00000
    17.4433     4695.00000
    17.4565     4813.00000
    17.4696     4812.00000
    17.4827     4833.00000
    17.4959     4742.00000
    17.5090     4859.00000
    17.5221     4776.00000
    17.5352     4787.00000
    17.5484     4707.00000
    17.5615     4774.00000
    17.5746     4800.00000
    17.5878     4774.00000
    17.6009     4769.00000
    17.6140     4805.00000
    17.6272     4786.00000
    17.6403     4886.00000
    17.6534     4757.00000
    17.6666     4794.00000
    17.6797     4743.00000
    17.6928     4818.00000
    17.7059     4803.00000
    17.7191     4773.00000
    17.7322     4804.00000
    17.7453     4763.00000
    17.7585     4800.00000
    17.7716     4898.00000
    17.7847     4862.00000
    17.7979     5050.00000
    17.8110     4974.00000
    17.8241     5013.00000
    17.8372     5013.00000
    17.8504     4861.00000
    17.8635     4858.00000
    17.8766     4724.00000
    17.8898     4812.00000
    17.9029     4760.00000
    17.9160     4760.00000
    17.9292     4648.00000
    17.9423     4540.00000
    17.9554     4610.00000
    17.9685     4624.00000
    17.9817     4811.00000
    17.9948     4744.00000
    18.0079     4675.00000
    18.0211     4701.00000
    18.0342     4607.00000
    18.0473     4675.00000
    18.0605     4641.00000
    18.0736     4536.00000
    18.0867     4631.00000
    18.0998     4698.00000
    18.1130     4615.00000
    18.1261     4610.00000
    18.1392     4632.00000
    18.1524     4604.00000
    18.1655     4672.00000
    18.1786     4664.00000
    18.1918     4519.00000
    18.2049     4590.00000
    18.2180     4578.00000
    18.2312     4647.00000
    18.2443     4507.00000
    18.2574     4560.00000
    18.2705     4480.00000
    18.2837     4516.00000
    18.2968     4537.00000
    18.3099     4607.00000
    18.3231     4628.00000
    18.3362     4479.00000
    18.3493     4531.00000
    18.3625     4660.00000
    18.3756     4670.00000
    18.3887     4397.00000
    18.4018     4507.00000
    18.4150     4525.00000
    18.4281     4687.00000
    18.4412     4563.00000
    18.4544     4532.00000
    18.4675     4434.00000
    18.4806     4480.00000
    18.4938     4555.00000
    18.5069     4501.00000
    18.5200     4608.00000
    18.5331     4675.00000
    18.5463     4604.00000
    18.5594     4537.00000
    18.5725     4503.00000
    18.5857     4613.00000
    18.5988     4661.00000
    18.6119     4828.00000
    18.6251     4559.00000
    18.6382     4658.00000
    18.6513     4631.00000
    18.6645     4730.00000
    18.6776     4663.00000
    18.6907     4695.00000
    18.7038     4661.00000
    18.7170     4544.00000
    18.7301     4538.00000
    18.7432     4560.00000
    18.7564     4552.00000
    18.7695     4627.00000
    18.7826     4553.00000
    18.7958     4448.00000
    18.8089     4399.00000
    18.8220     4424.00000
    18.8351     4541.00000
    18.8483     4439.00000
    18.8614     4370.00000
    18.8745     4499.00000
    18.8877     4335.00000
    18.9008     4424.00000
    18.9139     4438.00000
    18.9271     4455.00000
    18.9402     4358.00000
    18.9533     4463.00000
    18.9664     4403.00000
    18.9796     4498.00000
    18.9927     4546.00000
    19.0058     4358.00000
    19.0190     4417.00000
    19.0321     4534.00000
    19.0452     4665.00000
    19.0584     4626.00000
    19.0715     4791.00000
    19.0846     4763.00000
    19.0978     4846.00000
    19.1109     4823.00000
    19.1240     4820.00000
    19.1371     4850.00000
    19.1503     4961.00000
    19.1634     4886.00000
    19.1765     4783.00000
    19.1897     4860.00000
    19.2028     4905.00000
    19.2159     4790.00000
    19.2291     4889.00000
    19.2422     4895.00000
    19.2553     4974.00000
    19.2684     4791.00000
    19.2816     4812.00000
    19.2947     4808.00000
    19.3078     4883.00000
    19.3210     4864.00000
    19.3341     4757.00000
    19.3472     4789.00000
    19.3604     4879.00000
    19.3735     4870.00000
    19.3866     4947.00000
    19.3997     5016.00000
    19.4129     5039.00000
    19.4260     5147.00000
    19.4391     5058.00000
    19.4523     5087.00000
    19.4654     5323.00000
    19.4785     5375.00000
    19.4917     5439.00000
    19.5048     5552.00000
    19.5179     5744.00000
    19.5311     6040.00000
    19.5442     6047.00000
    19.5573     6402.00000
    19.5704     6711.00000
    19.5836     7418.00000
    19.5967     7966.00000
    19.6098     9381.00000
    19.6230    11522.00000
    19.6361    14533.00000
    19.6492    18749.00000
    19.6624    26323.00000
    19.6755    38143.00000
    19.6886    55629.00000
    19.7017    78489.00000
    19.7149   101745.00000
    19.7280   116864.00000
    19.7411   117600.00000
    19.7543   108438.00000
    19.7674    99914.00000
    19.7805    88239.00000
    19.7937    70729.00000
    19.8068    52419.00000
    19.8199    37432.00000
    19.8330    26375.00000
    19.8462    19155.00000
    19.8593    14039.00000
    19.8724    10426.00000
    19.8856     8565.00000
    19.8987     7404.00000
    19.9118     6767.00000
    19.9250     6433.00000
    19.9381     6074.00000
    19.9512     5688.00000
    19.9643     5447.00000
    19.9775     5434.00000
    19.9906     4999.00000
    20.0037     5046.00000
    20.0169     5018.00000
    20.0300     4863.00000
    20.0431     4925.00000
    20.0563     4887.00000
    20.0694     4781.00000
    20.0825     4806.00000
    20.0957     4744.00000
    20.1088     4617.00000
    20.1219     4794.00000
    20.1350     4769.00000
    20.1482     4793.00000
    20.1613     4814.00000
    20.1744     4891.00000
    20.1876     4940.00000
    20.2007     4869.00000
    20.2138     4934.00000
    20.2270     4813.00000
    20.2401     4878.00000
    20.2532     4871.00000
    20.2663     4886.00000
    20.2795     4781.00000
    20.2926     4776.00000
    20.3057     4676.00000
    20.3189     4696.00000
    20.3320     4410.00000
    20.3451     4376.00000
    20.3583     4517.00000
    20.3714     4407.00000
    20.3845     4391.00000
    20.3976     4432.00000
    20.4108     4505.00000
    20.4239     4388.00000
    20.4370     4368.00000
    20.4502     4378.00000
    20.4633     4328.00000
    20.4764     4347.00000
    20.4896     4355.00000
    20.5027     4491.00000
    20.5158     4402.00000
    20.5290     4414.00000
    20.5421     4566.00000
    20.5552     4338.00000
    20.5683     4378.00000
    20.5815     4275.00000
    20.5946     4293.00000
    20.6077     4318.00000
    20.6209     4281.00000
    20.6340     4294.00000
    20.6471     4448.00000
    20.6603     4259.00000
    20.6734     4373.00000
    20.6865     4300.00000
    20.6996     4228.00000
    20.7128     4236.00000
    20.7259     4266.00000
    20.7390     4270.00000
    20.7522     4302.00000
    20.7653     4355.00000
    20.7784     4264.00000
    20.7916     4222.00000
    20.8047     4290.00000
    20.8178     4242.00000
    20.8309     4345.00000
    20.8441     4296.00000
    20.8572     4272.00000
    20.8703     4319.00000
    20.8835     4258.00000
    20.8966     4208.00000
    20.9097     4174.00000
    20.9229     4245.00000
    20.9360     4249.00000
    20.9491     4243.00000
    20.9623     4179.00000
    20.9754     4198.00000
    20.9885     4158.00000
    21.0016     4266.00000
    21.0148     4242.00000
    21.0279     4159.00000
    21.0410     4149.00000
    21.0542     4310.00000
    21.0673     4129.00000
    21.0804     4131.00000
    21.0936     4319.00000
    21.1067     4191.00000
    21.1198     4074.00000
    21.1329     4240.00000
    21.1461     4137.00000
    21.1592     4190.00000
    21.1723     4199.00000
    21.1855     4145.00000
    21.1986     4074.00000
    21.2117     4129.00000
    21.2249     4163.00000
    21.2380     4115.00000
    21.2511     4168.00000
    21.2642     4089.00000
    21.2774     4184.00000
    21.2905     4152.00000
    21.3036     4185.00000
    21.3168     3999.00000
    21.3299     4249.00000
    21.3430     4158.00000
    21.3562     4109.00000
    21.3693     4047.00000
    21.3824     4060.00000
    21.3956     4038.00000
    21.4087     4124.00000
    21.4218     4161.00000
    21.4349     4121.00000
    21.4481     4143.00000
    21.4612     4097.00000
    21.4743     4162.00000
    21.4875     4112.00000
    21.5006     4122.00000
    21.5137     4109.00000
    21.5269     4118.00000
    21.5400     4053.00000
    21.5531     3908.00000
    21.5662     4191.00000
    21.5794     4019.00000
    21.5925     4070.00000
    21.6056     4035.00000
    21.6188     4184.00000
    21.6319     4151.00000
    21.6450     4027.00000
    21.6582     3994.00000
    21.6713     4143.00000
    21.6844     4014.00000
    21.6975     4119.00000
    21.7107     4035.00000
    21.7238     4178.00000
    21.7369     4093.00000
    21.7501     4125.00000
    21.7632     4152.00000
    21.7763     4210.00000
    21.7895     4157.00000
    21.8026     4258.00000
    21.8157     4302.00000
    21.8288     4290.00000
    21.8420     4430.00000
    21.8551     4335.00000
    21.8682     4465.00000
    21.8814     4600.00000
    21.8945     4484.00000
    21.9076     4375.00000
    21.9208     4423.00000
    21.9339     4328.00000
    21.9470     4354.00000
    21.9602     4341.00000
    21.9733     4278.00000
    21.9864     4090.00000
    21.9995     4226.00000
    22.0127     4058.00000
    22.0258     4148.00000
    22.0389     4122.00000
    22.0521     4130.00000
    22.0652     4171.00000
    22.0783     4228.00000
    22.0915     4117.00000
    22.1046     4160.00000
    22.1177     4091.00000
    22.1308     4219.00000
    22.1440     4198.00000
    22.1571     4226.00000
    22.1702     4236.00000
    22.1834     4136.00000
    22.1965     4138.00000
    22.2096     4121.00000
    22.2228     4300.00000
    22.2359     4213.00000
    22.2490     4459.00000
    22.2621     4445.00000
    22.2753     4599.00000
    22.2884     4807.00000
    22.3015     5290.00000
    22.3147     6014.00000
    22.3278     7240.00000
    22.3409     8992.00000
    22.3541    11557.00000
    22.3672    15110.00000
    22.3803    18964.00000
    22.3935    20595.00000
    22.4066    19533.00000
    22.4197    17719.00000
    22.4328    16379.00000
    22.4460    15833.00000
    22.4591    12987.00000
    22.4722    10244.00000
    22.4854     8027.00000
    22.4985     6694.00000
    22.5116     5990.00000
    22.5248     5031.00000
    22.5379     4596.00000
    22.5510     4393.00000
    22.5641     4327.00000
    22.5773     4212.00000
    22.5904     4280.00000
    22.6035     4153.00000
    22.6167     4070.00000
    22.6298     4183.00000
    22.6429     4075.00000
    22.6561     4144.00000
    22.6692     4049.00000
    22.6823     4099.00000
    22.6954     4048.00000
    22.7086     3990.00000
    22.7217     4082.00000
    22.7348     4189.00000
    22.7480     4023.00000
    22.7611     4095.00000
    22.7742     4134.00000
    22.7874     3972.00000
    22.8005     4011.00000
    22.8136     3933.00000
    22.8268     4134.00000
    22.8399     4090.00000
    22.8530     4089.00000
    22.8661     4077.00000
    22.8793     4092.00000
    22.8924     3944.00000
    22.9055     3955.00000
    22.9187     3934.00000
    22.9318     3808.00000
    22.9449     4046.00000
    22.9581     3939.00000
    22.9712     3958.00000
    22.9843     3829.00000
    22.9974     3911.00000
    23.0106     3787.00000
    23.0237     3920.00000
    23.0368     3840.00000
    23.0500     3899.00000
    23.0631     3906.00000
    23.0762     3862.00000
    23.0894     3941.00000
    23.1025     3854.00000
    23.1156     3945.00000
    23.1287     3808.00000
    23.1419     3781.00000
    23.1550     3952.00000
    23.1681     3796.00000
    23.1813     3685.00000
    23.1944     3684.00000
    23.2075     3786.00000
    23.2207     4029.00000
    23.2338     3873.00000
    23.2469     3812.00000
    23.2601     3879.00000
    23.2732     3928.00000
    23.2863     3872.00000
    23.2994     3907.00000
    23.3126     3901.00000
    23.3257     3906.00000
    23.3388     3963.00000
    23.3520     3865.00000
    23.3651     3875.00000
    23.3782     3933.00000
    23.3914     3997.00000
    23.4045     4003.00000
    23.4176     3933.00000
    23.4307     3939.00000
    23.4439     3882.00000
    23.4570     3920.00000
    23.4701     3890.00000
    23.4833     3894.00000
    23.4964     3849.00000
    23.5095     3926.00000
    23.5227     4038.00000
    23.5358     3983.00000
    23.5489     4005.00000
    23.5620     4002.00000
    23.5752     3989.00000
    23.5883     3904.00000
    23.6014     3976.00000
    23.6146     4073.00000
    23.6277     4093.00000
    23.6408     3984.00000
    23.6540     4077.00000
    23.6671     4035.00000
    23.6802     4148.00000
    23.6933     3922.00000
    23.7065     3914.00000
    23.7196     4056.00000
    23.7327     4126.00000
    23.7459     4117.00000
    23.7590     4126.00000
    23.7721     4024.00000
    23.7853     4118.00000
    23.7984     4127.00000
    23.8115     4125.00000
    23.8247     4047.00000
    23.8378     4129.00000
    23.8509     4053.00000
    23.8640     3990.00000
    23.8772     4135.00000
    23.8903     4172.00000
    23.9034     4291.00000
    23.9166     4258.00000
    23.9297     4224.00000
    23.9428     4387.00000
    23.9560     4395.00000
    23.9691     4469.00000
    23.9822     4634.00000
    23.9953     4537.00000
    24.0085     4744.00000
    24.0216     4866.00000
    24.0347     4850.00000
    24.0479     4913.00000
    24.0610     4950.00000
    24.0741     5068.00000
    24.0873     5249.00000
    24.1004     5570.00000
    24.1135     6168.00000
    24.1266     7067.00000
    24.1398     8534.00000
    24.1529    11525.00000
    24.1660    16344.00000
    24.1792    22604.00000
    24.1923    30348.00000
    24.2054    39088.00000
    24.2186    46789.00000
    24.2317    47597.00000
    24.2448    42436.00000
    24.2580    37485.00000
    24.2711    34513.00000
    24.2842    31929.00000
    24.2973    27259.00000
    24.3105    21036.00000
    24.3236    15624.00000
    24.3367    12265.00000
    24.3499    10921.00000
    24.3630    11362.00000
    24.3761    12517.00000
    24.3893    15876.00000
    24.4024    22020.00000
    24.4155    30809.00000
    24.4286    38689.00000
    24.4418    43706.00000
    24.4549    46202.00000
    24.4680    47199.00000
    24.4812    43437.00000
    24.4943    39571.00000
    24.5074    35380.00000
    24.5206    30116.00000
    24.5337    23517.00000
    24.5468    17848.00000
    24.5599    13721.00000
    24.5731    10945.00000
    24.5862     7889.00000
    24.5993     6237.00000
    24.6125     5442.00000
    24.6256     5052.00000
    24.6387     4816.00000
    24.6519     4529.00000
    24.6650     4457.00000
    24.6781     4396.00000
    24.6913     4322.00000
    24.7044     4198.00000
    24.7175     4182.00000
    24.7306     4048.00000
    24.7438     4031.00000
    24.7569     3969.00000
    24.7700     3905.00000
    24.7832     3992.00000
    24.7963     3848.00000
    24.8094     3895.00000
    24.8226     3962.00000
    24.8357     3827.00000
    24.8488     3890.00000
    24.8619     3940.00000
    24.8751     3857.00000
    24.8882     3905.00000
    24.9013     3884.00000
    24.9145     3861.00000
    24.9276     3837.00000
    24.9407     3796.00000
    24.9539     3862.00000
    24.9670     3806.00000
    24.9801     3869.00000
    24.9932     3776.00000
    25.0064     3941.00000
    25.0195     3949.00000
    25.0326     3920.00000
    25.0458     3961.00000
    25.0589     4140.00000
    25.0720     4144.00000
    25.0852     3907.00000
    25.0983     4087.00000
    25.1114     3792.00000
    25.1246     3870.00000
    25.1377     3842.00000
    25.1508     3718.00000
    25.1639     3791.00000
    25.1771     3760.00000
    25.1902     3801.00000
    25.2033     3777.00000
    25.2165     3599.00000
    25.2296     3670.00000
    25.2427     3776.00000
    25.2559     3700.00000
    25.2690     3741.00000
    25.2821     3760.00000
    25.2952     3664.00000
    25.3084     3776.00000
    25.3215     3648.00000
    25.3346     3658.00000
    25.3478     3727.00000
    25.3609     3631.00000
    25.3740     3724.00000
    25.3872     3748.00000
    25.4003     3741.00000
    25.4134     3738.00000
    25.4265     3685.00000
    25.4397     3739.00000
    25.4528     3712.00000
    25.4659     3722.00000
    25.4791     3723.00000
    25.4922     3627.00000
    25.5053     3552.00000
    25.5185     3715.00000
    25.5316     3685.00000
    25.5447     3668.00000
    25.5579     3580.00000
    25.5710     3778.00000
    25.5841     3620.00000
    25.5972     3663.00000
    25.6104     3655.00000
    25.6235     3658.00000
    25.6366     3632.00000
    25.6498     3645.00000
    25.6629     3627.00000
    25.6760     3680.00000
    25.6892     3635.00000
    25.7023     3624.00000
    25.7154     3782.00000
    25.7285     3661.00000
    25.7417     3667.00000
    25.7548     3596.00000
    25.7679     3527.00000
    25.7811     3727.00000
    25.7942     3521.00000
    25.8073     3551.00000
    25.8205     3553.00000
    25.8336     3582.00000
    25.8467     3581.00000
    25.8598     3539.00000
    25.8730     3639.00000
    25.8861     3446.00000
    25.8992     3567.00000
    25.9124     3493.00000
    25.9255     3538.00000
    25.9386     3538.00000
    25.9518     3626.00000
    25.9649     3651.00000
    25.9780     3639.00000
    25.9911     3642.00000
    26.0043     3631.00000
    26.0174     3797.00000
    26.0305     3678.00000
    26.0437     3804.00000
    26.0568     4000.00000
    26.0699     4039.00000
    26.0831     4136.00000
    26.0962     4036.00000
    26.1093     4130.00000
    26.1225     4061.00000
    26.1356     3977.00000
    26.1487     3932.00000
    26.1618     3906.00000
    26.1750     3874.00000
    26.1881     3709.00000
    26.2012     3714.00000
    26.2144     3698.00000
    26.2275     3638.00000
    26.2406     3763.00000
    26.2538     3624.00000
    26.2669     3480.00000
    26.2800     3474.00000
    26.2931     3528.00000
    26.3063     3528.00000
    26.3194     3543.00000
    26.3325     3478.00000
    26.3457     3558.00000
    26.3588     3516.00000
    26.3719     3636.00000
    26.3851     3531.00000
    26.3982     3508.00000
    26.4113     3747.00000
    26.4244     3685.00000
    26.4376     3713.00000
    26.4507     3673.00000
    26.4638     3622.00000
    26.4770     3573.00000
    26.4901     3527.00000
    26.5032     3582.00000
    26.5164     3584.00000
    26.5295     3522.00000
    26.5426     3530.00000
    26.5558     3527.00000
    26.5689     3580.00000
    26.5820     3521.00000
    26.5951     3511.00000
    26.6083     3647.00000
    26.6214     3483.00000
    26.6345     3558.00000
    26.6477     3528.00000
    26.6608     3590.00000
    26.6739     3551.00000
    26.6871     3538.00000
    26.7002     3495.00000
    26.7133     3494.00000
    26.7264     3491.00000
    26.7396     3580.00000
    26.7527     3577.00000
    26.7658     3530.00000
    26.7790     3449.00000
    26.7921     3660.00000
    26.8052     3660.00000
    26.8184     3689.00000
    26.8315     3617.00000
    26.8446     3652.00000
    26.8577     3656.00000
    26.8709     3726.00000
    26.8840     3563.00000
    26.8971     3723.00000
    26.9103     3696.00000
    26.9234     3792.00000
    26.9365     3713.00000
    26.9497     3676.00000
    26.9628     3561.00000
    26.9759     3783.00000
    26.9891     3776.00000
    27.0022     3734.00000
    27.0153     3804.00000
    27.0284     3848.00000
    27.0416     3681.00000
    27.0547     3801.00000
    27.0678     3763.00000
    27.0810     3739.00000
    27.0941     3683.00000
    27.1072     3750.00000
    27.1204     3712.00000
    27.1335     3669.00000
    27.1466     3654.00000
    27.1597     3596.00000
    27.1729     3695.00000
    27.1860     3662.00000
    27.1991     3818.00000
    27.2123     3778.00000
    27.2254     3798.00000
    27.2385     3824.00000
    27.2517     3731.00000
    27.2648     3924.00000
    27.2779     3711.00000
    27.2910     3700.00000
    27.3042     3666.00000
    27.3173     3736.00000
    27.3304     3730.00000
    27.3436     3643.00000
    27.3567     3713.00000
    27.3698     3647.00000
    27.3830     3677.00000
    27.3961     3733.00000
    27.4092     3713.00000
    27.4224     3877.00000
    27.4355     3875.00000
    27.4486     3893.00000
    27.4617     3992.00000
    27.4749     4103.00000
    27.4880     4113.00000
    27.5011     4197.00000
    27.5143     4360.00000
    27.5274     4416.00000
    27.5405     4492.00000
    27.5537     4499.00000
    27.5668     4743.00000
    27.5799     4835.00000
    27.5930     5163.00000
    27.6062     5273.00000
    27.6193     5782.00000
    27.6324     5974.00000
    27.6456     6375.00000
    27.6587     6981.00000
    27.6718     7700.00000
    27.6850     8799.00000
    27.6981    10536.00000
    27.7112    13193.00000
    27.7243    18192.00000
    27.7375    25846.00000
    27.7506    38085.00000
    27.7637    53947.00000
    27.7769    68974.00000
    27.7900    79188.00000
    27.8031    79173.00000
    27.8163    72566.00000
    27.8294    64869.00000
    27.8425    59919.00000
    27.8556    54735.00000
    27.8688    49287.00000
    27.8819    40855.00000
    27.8950    31131.00000
    27.9082    23538.00000
    27.9213    16955.00000
    27.9344    12420.00000
    27.9476     9440.00000
    27.9607     7629.00000
    27.9738     6815.00000
    27.9870     6054.00000
    28.0001     5554.00000
    28.0132     5067.00000
    28.0263     4843.00000
    28.0395     4551.00000
    28.0526     4436.00000
    28.0657     4306.00000
    28.0789     4137.00000
    28.0920     4135.00000
    28.1051     4014.00000
    28.1183     4063.00000
    28.1314     3800.00000
    28.1445     3781.00000
    28.1576     3844.00000
    28.1708     3811.00000
    28.1839     3832.00000
    28.1970     3793.00000
    28.2102     3843.00000
    28.2233     3780.00000
    28.2364     3776.00000
    28.2496     3760.00000
    28.2627     3775.00000
    28.2758     3719.00000
    28.2889     3695.00000
    28.3021     3594.00000
    28.3152     3868.00000
    28.3283     3860.00000
    28.3415     3886.00000
    28.3546     3920.00000
    28.3677     3993.00000
    28.3809     4031.00000
    28.3940     3981.00000
    28.4071     3916.00000
    28.4203     3938.00000
    28.4334     3978.00000
    28.4465     3977.00000
    28.4596     3923.00000
    28.4728     3737.00000
    28.4859     3862.00000
    28.4990     3632.00000
    28.5122     3768.00000
    28.5253     3612.00000
    28.5384     3713.00000
    28.5516     3656.00000
    28.5647     3710.00000
    28.5778     3652.00000
    28.5909     3675.00000
    28.6041     3644.00000
    28.6172     3643.00000
    28.6303     3608.00000
    28.6435     3584.00000
    28.6566     3698.00000
    28.6697     3636.00000
    28.6829     3649.00000
    28.6960     3611.00000
    28.7091     3646.00000
    28.7222     3581.00000
    28.7354     3594.00000
    28.7485     3487.00000
    28.7616     3597.00000
    28.7748     3575.00000
    28.7879     3566.00000
    28.8010     3561.00000
    28.8142     3561.00000
    28.8273     3635.00000
    28.8404     3605.00000
    28.8536     3631.00000
    28.8667     3623.00000
    28.8798     3500.00000
    28.8929     3549.00000
    28.9061     3535.00000
    28.9192     3580.00000
    28.9323     3668.00000
    28.9455     3555.00000
    28.9586     3659.00000
    28.9717     3659.00000
    28.9849     3536.00000
    28.9980     3685.00000
    29.0111     3795.00000
    29.0242     3670.00000
    29.0374     3699.00000
    29.0505     3813.00000
    29.0636     3922.00000
    29.0768     3912.00000
    29.0899     3943.00000
    29.1030     4003.00000
    29.1162     4181.00000
    29.1293     4095.00000
    29.1424     4383.00000
    29.1555     4475.00000
    29.1687     4462.00000
    29.1818     4684.00000
    29.1949     4762.00000
    29.2081     5281.00000
    29.2212     5742.00000
    29.2343     6858.00000
    29.2475     8793.00000
    29.2606    12558.00000
    29.2737    18422.00000
    29.2869    25485.00000
    29.3000    32155.00000
    29.3131    35889.00000
    29.3262    34254.00000
    29.3394    28917.00000
    29.3525    25289.00000
    29.3656    24519.00000
    29.3788    24095.00000
    29.3919    22488.00000
    29.4050    19217.00000
    29.4182    15701.00000
    29.4313    13554.00000
    29.4444    12507.00000
    29.4575    12707.00000
    29.4707    13892.00000
    29.4838    16094.00000
    29.4969    17841.00000
    29.5101    18584.00000
    29.5232    17846.00000
    29.5363    16725.00000
    29.5495    14666.00000
    29.5626    13149.00000
    29.5757    12151.00000
    29.5888    11275.00000
    29.6020    10058.00000
    29.6151     8470.00000
    29.6282     6694.00000
    29.6414     5532.00000
    29.6545     4744.00000
    29.6676     4186.00000
    29.6808     4033.00000
    29.6939     3889.00000
    29.7070     3792.00000
    29.7201     3709.00000
    29.7333     3570.00000
    29.7464     3691.00000
    29.7595     3435.00000
    29.7727     3463.00000
    29.7858     3499.00000
    29.7989     3477.00000
    29.8121     3560.00000
    29.8252     3457.00000
    29.8383     3388.00000
    29.8515     3371.00000
    29.8646     3432.00000
    29.8777     3471.00000
    29.8908     3391.00000
    29.9040     3434.00000
    29.9171     3434.00000
    29.9302     3396.00000
    29.9434     3308.00000
    29.9565     3358.00000
    29.9696     3377.00000
    29.9828     3565.00000
    29.9959     3440.00000
    30.0090     3402.00000
    30.0221     3606.00000
    30.0353     3400.00000
    30.0484     3457.00000
    30.0615     3390.00000
    30.0747     3342.00000
    30.0878     3317.00000
    30.1009     3365.00000
    30.1141     3216.00000
    30.1272     3199.00000
    30.1403     3341.00000
    30.1535     3322.00000
    30.1666     3278.00000
    30.1797     3285.00000
    30.1928     3386.00000
    30.2060     3293.00000
    30.2191     3441.00000
    30.2322     3335.00000
    30.2454     3375.00000
    30.2585     3344.00000
    30.2716     3311.00000
    30.2848     3371.00000
    30.2979     3302.00000
    30.3110     3320.00000
    30.3241     3423.00000
    30.3373     3351.00000
    30.3504     3195.00000
    30.3635     3293.00000
    30.3767     3196.00000
    30.3898     3195.00000
    30.4029     3326.00000
    30.4161     3455.00000
    30.4292     3277.00000
    30.4423     3266.00000
    30.4554     3316.00000
    30.4686     3341.00000
    30.4817     3373.00000
    30.4948     3330.00000
    30.5080     3291.00000
    30.5211     3279.00000
    30.5342     3450.00000
    30.5474     3376.00000
    30.5605     3217.00000
    30.5736     3265.00000
    30.5868     3153.00000
    30.5999     3157.00000
    30.6130     3218.00000
    30.6261     3239.00000
    30.6393     3217.00000
    30.6524     3387.00000
    30.6655     3284.00000
    30.6787     3200.00000
    30.6918     3167.00000
    30.7049     3224.00000
    30.7181     3117.00000
    30.7312     3194.00000
    30.7443     3198.00000
    30.7574     3280.00000
    30.7706     3174.00000
    30.7837     3246.00000
    30.7968     3213.00000
    30.8100     3219.00000
    30.8231     3365.00000
    30.8362     3182.00000
    30.8494     3182.00000
    30.8625     3197.00000
    30.8756     3206.00000
    30.8887     3190.00000
    30.9019     3117.00000
    30.9150     3253.00000
    30.9281     3116.00000
    30.9413     3153.00000
    30.9544     3287.00000
    30.9675     3173.00000
    30.9807     3151.00000
    30.9938     3240.00000
    31.0069     3273.00000
    31.0200     3161.00000
    31.0332     3179.00000
    31.0463     3160.00000
    31.0594     3161.00000
    31.0726     3201.00000
    31.0857     3268.00000
    31.0988     3251.00000
    31.1120     3207.00000
    31.1251     3234.00000
    31.1382     3136.00000
    31.1514     3138.00000
    31.1645     3189.00000
    31.1776     3094.00000
    31.1907     3158.00000
    31.2039     3202.00000
    31.2170     3188.00000
    31.2301     3148.00000
    31.2433     3101.00000
    31.2564     3165.00000
    31.2695     3183.00000
    31.2827     3048.00000
    31.2958     3170.00000
    31.3089     3182.00000
    31.3220     3172.00000
    31.3352     3209.00000
    31.3483     3070.00000
    31.3614     3264.00000
    31.3746     3039.00000
    31.3877     3219.00000
    31.4008     3275.00000
    31.4140     3129.00000
    31.4271     3147.00000
    31.4402     3064.00000
    31.4533     3122.00000
    31.4665     3086.00000
    31.4796     3177.00000
    31.4927     3127.00000
    31.5059     3109.00000
    31.5190     3183.00000
    31.5321     2998.00000
    31.5453     3029.00000
    31.5584     2961.00000
    31.5715     3121.00000
    31.5847     3092.00000
    31.5978     3093.00000
    31.6109     3101.00000
    31.6240     3156.00000
    31.6372     3051.00000
    31.6503     3062.00000
    31.6634     3221.00000
    31.6766     3177.00000
    31.6897     3158.00000
    31.7028     3120.00000
    31.7160     3060.00000
    31.7291     3123.00000
    31.7422     3140.00000
    31.7553     3205.00000
    31.7685     3100.00000
    31.7816     3070.00000
    31.7947     3168.00000
    31.8079     3139.00000
    31.8210     3136.00000
    31.8341     3139.00000
    31.8473     3077.00000
    31.8604     3106.00000
    31.8735     3137.00000
    31.8866     3085.00000
    31.8998     3068.00000
    31.9129     2973.00000
    31.9260     3077.00000
    31.9392     3159.00000
    31.9523     3104.00000
    31.9654     3117.00000
    31.9786     3126.00000
    31.9917     3042.00000
    32.0048     3197.00000
    32.0180     3118.00000
    32.0311     3071.00000
    32.0442     3092.00000
    32.0573     3098.00000
    32.0705     3056.00000
    32.0836     3139.00000
    32.0967     3262.00000
    32.1099     3102.00000
    32.1230     3142.00000
    32.1361     3196.00000
    32.1493     3192.00000
    32.1624     3209.00000
    32.1755     3296.00000
    32.1886     3143.00000
    32.2018     3248.00000
    32.2149     3173.00000
    32.2280     3167.00000
    32.2412     3234.00000
    32.2543     3215.00000
    32.2674     3236.00000
    32.2806     3250.00000
    32.2937     3326.00000
    32.3068     3269.00000
    32.3199     3213.00000
    32.3331     3154.00000
    32.3462     3247.00000
    32.3593     3219.00000
    32.3725     3168.00000
    32.3856     3321.00000
    32.3987     3219.00000
    32.4119     3228.00000
    32.4250     3283.00000
    32.4381     3174.00000
    32.4512     3208.00000
    32.4644     3141.00000
    32.4775     3187.00000
    32.4906     3280.00000
    32.5038     3288.00000
    32.5169     3173.00000
    32.5300     3255.00000
    32.5432     3243.00000
    32.5563     3373.00000
    32.5694     3313.00000
    32.5826     3268.00000
    32.5957     3377.00000
    32.6088     3310.00000
    32.6219     3502.00000
    32.6351     3413.00000
    32.6482     3460.00000
    32.6613     3721.00000
    32.6745     3657.00000
    32.6876     3781.00000
    32.7007     3754.00000
    32.7139     3782.00000
    32.7270     3918.00000
    32.7401     4008.00000
    32.7532     4447.00000
    32.7664     5011.00000
    32.7795     6174.00000
    32.7926     8540.00000
    32.8058    12905.00000
    32.8189    18444.00000
    32.8320    22474.00000
    32.8452    22142.00000
    32.8583    18312.00000
    32.8714    14391.00000
    32.8845    12554.00000
    32.8977    12547.00000
    32.9108    13575.00000
    32.9239    13784.00000
    32.9371    11982.00000
    32.9502     9339.00000
    32.9633     7080.00000
    32.9765     5697.00000
    32.9896     4802.00000
    33.0027     4366.00000
    33.0159     4119.00000
    33.0290     4083.00000
    33.0421     3847.00000
    33.0552     3912.00000
    33.0684     4044.00000
    33.0815     4075.00000
    33.0946     3963.00000
    33.1078     4293.00000
    33.1209     4260.00000
    33.1340     4390.00000
    33.1472     4411.00000
    33.1603     4611.00000
    33.1734     4726.00000
    33.1865     5098.00000
    33.1997     5500.00000
    33.2128     6253.00000
    33.2259     7934.00000
    33.2391    10718.00000
    33.2522    15500.00000
    33.2653    22367.00000
    33.2785    29852.00000
    33.2916    35384.00000
    33.3047    35625.00000
    33.3178    31532.00000
    33.3310    27136.00000
    33.3441    23663.00000
    33.3572    21924.00000
    33.3704    21963.00000
    33.3835    21668.00000
    33.3966    19094.00000
    33.4098    15589.00000
    33.4229    12339.00000
    33.4360     9435.00000
    33.4492     7210.00000
    33.4623     5613.00000
    33.4754     4916.00000
    33.4885     4646.00000
    33.5017     4276.00000
    33.5148     4243.00000
    33.5279     4163.00000
    33.5411     4209.00000
    33.5542     4158.00000
    33.5673     4133.00000
    33.5805     4085.00000
    33.5936     4100.00000
    33.6067     4059.00000
    33.6198     4338.00000
    33.6330     4341.00000
    33.6461     4347.00000
    33.6592     4613.00000
    33.6724     4684.00000
    33.6855     4974.00000
    33.6986     5343.00000
    33.7118     5922.00000
    33.7249     6967.00000
    33.7380     8180.00000
    33.7511    10528.00000
    33.7643    14162.00000
    33.7774    18998.00000
    33.7905    23126.00000
    33.8037    27366.00000
    33.8168    30474.00000
    33.8299    31410.00000
    33.8431    30132.00000
    33.8562    30015.00000
    33.8693    31502.00000
    33.8825    31733.00000
    33.8956    30731.00000
    33.9087    27315.00000
    33.9218    22937.00000
    33.9350    18862.00000
    33.9481    17023.00000
    33.9612    15072.00000
    33.9744    13518.00000
    33.9875    11167.00000
    34.0006     9006.00000
    34.0138     7134.00000
    34.0269     5978.00000
    34.0400     5089.00000
    34.0531     4537.00000
    34.0663     4180.00000
    34.0794     3873.00000
    34.0925     3838.00000
    34.1057     3699.00000
    34.1188     3669.00000
    34.1319     3664.00000
    34.1451     3479.00000
    34.1582     3424.00000
    34.1713     3408.00000
    34.1844     3359.00000
    34.1976     3315.00000
    34.2107     3243.00000
    34.2238     3288.00000
    34.2370     3118.00000
    34.2501     3258.00000
    34.2632     3262.00000
    34.2764     3153.00000
    34.2895     3208.00000
    34.3026     3231.00000
    34.3158     3074.00000
    34.3289     3252.00000
    34.3420     3309.00000
    34.3551     3309.00000
    34.3683     3143.00000
    34.3814     3194.00000
    34.3945     3165.00000
    34.4077     3215.00000
    34.4208     3135.00000
    34.4339     3095.00000
    34.4471     3245.00000
    34.4602     3234.00000
    34.4733     3078.00000
    34.4864     3148.00000
    34.4996     3276.00000
    34.5127     3280.00000
    34.5258     3275.00000
    34.5390     3278.00000
    34.5521     3367.00000
    34.5652     3220.00000
    34.5784     3238.00000
    34.5915     3411.00000
    34.6046     3424.00000
    34.6177     3424.00000
    34.6309     3421.00000
    34.6440     3503.00000
    34.6571     3491.00000
    34.6703     3573.00000
    34.6834     3759.00000
    34.6965     3876.00000
    34.7097     4466.00000
    34.7228     5098.00000
    34.7359     6454.00000
    34.7491     8511.00000
    34.7622    11274.00000
    34.7753    13693.00000
    34.7884    14137.00000
    34.8016    12952.00000
    34.8147    10816.00000
    34.8278     8968.00000
    34.8410     8439.00000
    34.8541     8651.00000
    34.8672     9096.00000
    34.8804     8861.00000
    34.8935     7829.00000
    34.9066     6504.00000
    34.9197     5359.00000
    34.9329     4527.00000
    34.9460     3882.00000
    34.9591     3648.00000
    34.9723     3468.00000
    34.9854     3376.00000
    34.9985     3384.00000
    35.0117     3213.00000
    35.0248     3299.00000
    35.0379     3245.00000
    35.0510     3376.00000
    35.0642     3397.00000
    35.0773     3664.00000
    35.0904     3858.00000
    35.1036     3959.00000
    35.1167     3937.00000
    35.1298     3689.00000
    35.1430     3450.00000
    35.1561     3313.00000
    35.1692     3393.00000
    35.1824     3475.00000
    35.1955     3400.00000
    35.2086     3298.00000
    35.2217     3292.00000
    35.2349     3189.00000
    35.2480     3079.00000
    35.2611     3037.00000
    35.2743     2955.00000
    35.2874     2875.00000
    35.3005     2983.00000
    35.3137     2962.00000
    35.3268     2963.00000
    35.3399     2938.00000
    35.3530     2998.00000
    35.3662     2970.00000
    35.3793     3009.00000
    35.3924     2975.00000
    35.4056     2937.00000
    35.4187     3020.00000
    35.4318     3023.00000
    35.4450     2975.00000
    35.4581     2980.00000
    35.4712     2937.00000
    35.4843     2910.00000
    35.4975     2936.00000
    35.5106     2904.00000
    35.5237     2994.00000
    35.5369     2923.00000
    35.5500     2913.00000
    35.5631     2932.00000
    35.5763     2926.00000
    35.5894     2973.00000
    35.6025     3003.00000
    35.6156     2936.00000
    35.6288     2999.00000
    35.6419     2969.00000
    35.6550     2976.00000
    35.6682     2995.00000
    35.6813     2894.00000
    35.6944     2975.00000
    35.7076     2952.00000
    35.7207     2963.00000
    35.7338     2885.00000
    35.7470     2826.00000
    35.7601     2892.00000
    35.7732     2898.00000
    35.7863     2885.00000
    35.7995     2880.00000
    35.8126     2945.00000
    35.8257     2806.00000
    35.8389     3082.00000
    35.8520     2895.00000
    35.8651     2927.00000
    35.8783     2976.00000
    35.8914     2861.00000
    35.9045     2859.00000
    35.9176     2960.00000
    35.9308     2867.00000
    35.9439     2924.00000
    35.9570     2883.00000
    35.9702     2890.00000
    35.9833     2872.00000
    35.9964     2978.00000
    36.0096     2832.00000
    36.0227     2845.00000
    36.0358     2957.00000
    36.0489     3003.00000
    36.0621     3029.00000
    36.0752     2928.00000
    36.0883     2998.00000
    36.1015     2976.00000
    36.1146     3000.00000
    36.1277     3004.00000
    36.1409     2940.00000
    36.1540     3004.00000
    36.1671     2996.00000
    36.1802     2892.00000
    36.1934     3027.00000
    36.2065     3053.00000
    36.2196     3039.00000
    36.2328     3077.00000
    36.2459     2957.00000
    36.2590     3039.00000
    36.2722     3029.00000
    36.2853     3013.00000
    36.2984     2884.00000
    36.3116     2929.00000
    36.3247     2899.00000
    36.3378     2863.00000
    36.3509     2947.00000
    36.3641     2910.00000
    36.3772     2960.00000
    36.3903     2872.00000
    36.4035     2884.00000
    36.4166     2912.00000
    36.4297     3037.00000
    36.4429     2947.00000
    36.4560     2909.00000
    36.4691     3022.00000
    36.4822     2912.00000
    36.4954     2986.00000
    36.5085     2987.00000
    36.5216     2999.00000
    36.5348     3087.00000
    36.5479     3047.00000
    36.5610     3146.00000
    36.5742     3081.00000
    36.5873     3355.00000
    36.6004     3380.00000
    36.6135     3733.00000
    36.6267     4113.00000
    36.6398     5162.00000
    36.6529     6758.00000
    36.6661     8529.00000
    36.6792     9616.00000
    36.6923     9849.00000
    36.7055     8993.00000
    36.7186     7820.00000
    36.7317     6573.00000
    36.7449     6132.00000
    36.7580     6220.00000
    36.7711     6456.00000
    36.7842     6496.00000
    36.7974     6237.00000
    36.8105     5557.00000
    36.8236     4543.00000
    36.8368     3947.00000
    36.8499     3578.00000
    36.8630     3285.00000
    36.8762     3279.00000
    36.8893     3104.00000
    36.9024     3102.00000
    36.9155     3034.00000
    36.9287     2971.00000
    36.9418     2880.00000
    36.9549     3056.00000
    36.9681     3084.00000
    36.9812     3015.00000
    36.9943     3061.00000
    37.0075     2951.00000
    37.0206     2913.00000
    37.0337     2824.00000
    37.0468     2879.00000
    37.0600     2879.00000
    37.0731     3022.00000
    37.0862     2863.00000
    37.0994     2922.00000
    37.1125     2934.00000
    37.1256     3025.00000
    37.1388     2941.00000
    37.1519     3034.00000
    37.1650     2965.00000
    37.1782     2992.00000
    37.1913     2985.00000
    37.2044     2973.00000
    37.2175     2969.00000
    37.2307     2919.00000
    37.2438     3102.00000
    37.2569     3019.00000
    37.2701     3147.00000
    37.2832     3121.00000
    37.2963     3135.00000
    37.3095     3115.00000
    37.3226     3202.00000
    37.3357     3311.00000
    37.3488     3393.00000
    37.3620     3532.00000
    37.3751     3663.00000
    37.3882     4135.00000
    37.4014     4560.00000
    37.4145     5459.00000
    37.4276     6881.00000
    37.4408     8065.00000
    37.4539     9201.00000
    37.4670     9954.00000
    37.4801    10274.00000
    37.4933     9520.00000
    37.5064     8519.00000
    37.5195     7556.00000
    37.5327     7012.00000
    37.5458     6940.00000
    37.5589     6878.00000
    37.5721     6582.00000
    37.5852     6310.00000
    37.5983     5756.00000
    37.6115     5028.00000
    37.6246     4266.00000
    37.6377     3739.00000
    37.6508     3527.00000
    37.6640     3273.00000
    37.6771     3197.00000
    37.6902     3067.00000
    37.7034     3231.00000
    37.7165     3317.00000
    37.7296     3421.00000
    37.7428     3672.00000
    37.7559     3745.00000
    37.7690     3770.00000
    37.7821     3624.00000
    37.7953     3414.00000
    37.8084     3331.00000
    37.8215     3218.00000
    37.8347     3256.00000
    37.8478     3309.00000
    37.8609     3341.00000
    37.8741     3209.00000
    37.8872     3113.00000
    37.9003     3118.00000
    37.9134     2993.00000
    37.9266     2945.00000
    37.9397     2823.00000
    37.9528     2779.00000
    37.9660     2793.00000
    37.9791     2811.00000
    37.9922     2790.00000
    38.0054     2799.00000
    38.0185     2772.00000
    38.0316     2790.00000
    38.0448     2848.00000
    38.0579     2818.00000
    38.0710     2769.00000
    38.0841     2747.00000
    38.0973     2785.00000
    38.1104     2789.00000
    38.1235     2753.00000
    38.1367     2789.00000
    38.1498     2673.00000
    38.1629     2750.00000
    38.1761     2763.00000
    38.1892     2759.00000
    38.2023     2741.00000
    38.2154     2735.00000
    38.2286     2677.00000
    38.2417     2728.00000
    38.2548     2670.00000
    38.2680     2761.00000
    38.2811     2566.00000
    38.2942     2736.00000
    38.3074     2804.00000
    38.3205     2621.00000
    38.3336     2817.00000
    38.3467     2791.00000
    38.3599     2836.00000
    38.3730     2747.00000
    38.3861     2622.00000
    38.3993     2695.00000
    38.4124     2776.00000
    38.4255     2861.00000
    38.4387     2731.00000
    38.4518     2730.00000
    38.4649     2688.00000
    38.4781     2800.00000
    38.4912     2784.00000
    38.5043     2734.00000
    38.5174     2803.00000
    38.5306     2683.00000
    38.5437     2775.00000
    38.5568     2808.00000
    38.5700     2669.00000
    38.5831     2769.00000
    38.5962     2694.00000
    38.6094     2657.00000
    38.6225     2665.00000
    38.6356     2668.00000
    38.6487     2601.00000
    38.6619     2724.00000
    38.6750     2765.00000
    38.6881     2768.00000
    38.7013     2799.00000
    38.7144     2773.00000
    38.7275     2691.00000
    38.7407     2801.00000
    38.7538     2812.00000
    38.7669     2688.00000
    38.7800     2731.00000
    38.7932     2694.00000
    38.8063     2601.00000
    38.8194     2683.00000
    38.8326     2771.00000
    38.8457     2815.00000
    38.8588     2725.00000
    38.8720     2767.00000
    38.8851     2667.00000
    38.8982     2721.00000
    38.9114     2766.00000
    38.9245     2755.00000
    38.9376     2753.00000
    38.9507     2731.00000
    38.9639     2854.00000
    38.9770     2751.00000
    38.9901     2814.00000
    39.0033     2666.00000
    39.0164     2773.00000
    39.0295     2755.00000
    39.0427     2658.00000
    39.0558     2730.00000
    39.0689     2707.00000
    39.0820     2710.00000
    39.0952     2790.00000
    39.1083     2766.00000
    39.1214     2878.00000
    39.1346     2688.00000
    39.1477     2701.00000
    39.1608     2728.00000
    39.1740     2753.00000
    39.1871     2758.00000
    39.2002     2563.00000
    39.2133     2740.00000
    39.2265     2643.00000
    39.2396     2656.00000
    39.2527     2745.00000
    39.2659     2749.00000
    39.2790     2717.00000
    39.2921     2749.00000
    39.3053     2728.00000
    39.3184     2720.00000
    39.3315     2671.00000
    39.3446     2747.00000
    39.3578     2763.00000
    39.3709     2768.00000
    39.3840     2712.00000
    39.3972     2838.00000
    39.4103     2706.00000
    39.4234     2777.00000
    39.4366     2752.00000
    39.4497     2749.00000
    39.4628     2735.00000
    39.4760     2786.00000
    39.4891     2793.00000
    39.5022     2726.00000
    39.5153     2729.00000
    39.5285     2773.00000
    39.5416     2712.00000
    39.5547     2766.00000
    39.5679     2738.00000
    39.5810     2819.00000
    39.5941     2792.00000
    39.6073     2718.00000
    39.6204     2851.00000
    39.6335     2858.00000
    39.6466     2802.00000
    39.6598     2764.00000
    39.6729     3040.00000
    39.6860     2982.00000
    39.6992     3212.00000
    39.7123     3317.00000
    39.7254     3852.00000
    39.7386     4419.00000
    39.7517     4801.00000
    39.7648     5157.00000
    39.7779     5083.00000
    39.7911     5084.00000
    39.8042     4801.00000
    39.8173     4382.00000
    39.8305     4176.00000
    39.8436     4189.00000
    39.8567     4050.00000
    39.8699     4165.00000
    39.8830     4120.00000
    39.8961     3887.00000
    39.9092     3799.00000
    39.9224     3570.00000
    39.9355     3283.00000
    39.9486     3100.00000
    39.9618     3145.00000
    39.9749     3064.00000
    39.9880     3115.00000
    40.0012     3092.00000
    40.0143     3199.00000
    40.0274     3242.00000
    40.0406     3486.00000
    40.0537     3564.00000
    40.0668     4189.00000
    40.0799     4563.00000
    40.0931     5380.00000
    40.1062     6615.00000
    40.1193     7272.00000
    40.1325     7415.00000
    40.1456     6893.00000
    40.1587     6278.00000
    40.1719     5706.00000
    40.1850     5230.00000
    40.1981     5299.00000
    40.2112     5340.00000
    40.2244     5548.00000
    40.2375     5447.00000
    40.2506     5236.00000
    40.2638     4869.00000
    40.2769     4666.00000
    40.2900     4555.00000
    40.3032     4609.00000
    40.3163     5239.00000
    40.3294     6202.00000
    40.3425     7819.00000
    40.3557     8986.00000
    40.3688     9666.00000
    40.3819     9187.00000
    40.3951     7823.00000
    40.4082     6453.00000
    40.4213     5652.00000
    40.4345     5734.00000
    40.4476     5946.00000
    40.4607     6383.00000
    40.4739     6554.00000
    40.4870     6100.00000
    40.5001     5349.00000
    40.5132     4469.00000
    40.5264     3842.00000
    40.5395     3663.00000
    40.5526     3301.00000
    40.5658     3143.00000
    40.5789     3081.00000
    40.5920     2874.00000
    40.6052     2986.00000
    40.6183     2941.00000
    40.6314     2864.00000
    40.6445     2824.00000
    40.6577     2907.00000
    40.6708     2808.00000
    40.6839     2850.00000
    40.6971     2886.00000
    40.7102     2841.00000
    40.7233     2889.00000
    40.7365     2738.00000
    40.7496     2888.00000
    40.7627     2662.00000
    40.7758     2770.00000
    40.7890     2770.00000
    40.8021     2862.00000
    40.8152     2887.00000
    40.8284     2851.00000
    40.8415     2884.00000
    40.8546     3059.00000
    40.8678     2918.00000
    40.8809     3027.00000
    40.8940     3060.00000
    40.9072     3097.00000
    40.9203     3124.00000
    40.9334     3158.00000
    40.9465     3317.00000
    40.9597     3371.00000
    40.9728     3551.00000
    40.9859     3615.00000
    40.9991     3839.00000
    41.0122     4231.00000
    41.0253     4644.00000
    41.0385     5450.00000
    41.0516     6575.00000
    41.0647     7923.00000
    41.0778     9079.00000
    41.0910    10389.00000
    41.1041    11253.00000
    41.1172    10935.00000
    41.1304     9805.00000
    41.1435     8701.00000
    41.1566     8049.00000
    41.1698     7765.00000
    41.1829     8759.00000
    41.1960    10228.00000
    41.2091    12477.00000
    41.2223    14930.00000
    41.2354    15686.00000
    41.2485    15186.00000
    41.2617    12906.00000
    41.2748    10745.00000
    41.2879     8823.00000
    41.3011     7961.00000
    41.3142     8503.00000
    41.3273     9949.00000
    41.3405    12009.00000
    41.3536    13846.00000
    41.3667    15263.00000
    41.3798    15586.00000
    41.3930    14964.00000
    41.4061    13183.00000
    41.4192    10580.00000
    41.4324     8584.00000
    41.4455     7565.00000
    41.4586     7256.00000
    41.4718     7535.00000
    41.4849     8045.00000
    41.4980     8061.00000
    41.5111     7561.00000
    41.5243     6488.00000
    41.5374     5329.00000
    41.5505     4391.00000
    41.5637     3829.00000
    41.5768     3457.00000
    41.5899     3200.00000
    41.6031     3170.00000
    41.6162     2931.00000
    41.6293     2858.00000
    41.6424     3007.00000
    41.6556     2929.00000
    41.6687     2942.00000
    41.6818     2776.00000
    41.6950     2820.00000
    41.7081     2834.00000
    41.7212     2814.00000
    41.7344     2690.00000
    41.7475     2682.00000
    41.7606     2786.00000
    41.7738     2745.00000
    41.7869     2785.00000
    41.8000     2723.00000
    41.8131     2696.00000
    41.8263     2672.00000
    41.8394     2670.00000
    41.8525     2761.00000
    41.8657     2671.00000
    41.8788     2775.00000
    41.8919     2684.00000
    41.9051     2641.00000
    41.9182     2715.00000
    41.9313     2695.00000
    41.9444     2633.00000
    41.9576     2682.00000
    41.9707     2646.00000
    41.9838     2705.00000
    41.9970     2663.00000
    42.0101     2619.00000
    42.0232     2622.00000
    42.0364     2733.00000
    42.0495     2688.00000
    42.0626     2616.00000
    42.0757     2606.00000
    42.0889     2705.00000
    42.1020     2673.00000
    42.1151     2650.00000
    42.1283     2701.00000
    42.1414     2568.00000
    42.1545     2699.00000
    42.1677     2666.00000
    42.1808     2692.00000
    42.1939     2700.00000
    42.2071     2645.00000
    42.2202     2699.00000
    42.2333     2679.00000
    42.2464     2693.00000
    42.2596     2681.00000
    42.2727     2696.00000
    42.2858     2639.00000
    42.2990     2591.00000
    42.3121     2589.00000
    42.3252     2649.00000
    42.3384     2615.00000
    42.3515     2687.00000
    42.3646     2698.00000
    42.3777     2628.00000
    42.3909     2724.00000
    42.4040     2695.00000
    42.4171     2670.00000
    42.4303     2720.00000
    42.4434     2620.00000
    42.4565     2686.00000
    42.4697     2602.00000
    42.4828     2674.00000
    42.4959     2692.00000
    42.5090     2651.00000
    42.5222     2656.00000
    42.5353     2689.00000
    42.5484     2673.00000
    42.5616     2569.00000
    42.5747     2645.00000
    42.5878     2547.00000
    42.6010     2628.00000
    42.6141     2675.00000
    42.6272     2584.00000
    42.6404     2649.00000
    42.6535     2706.00000
    42.6666     2683.00000
    42.6797     2599.00000
    42.6929     2680.00000
    42.7060     2644.00000
    42.7191     2651.00000
    42.7323     2630.00000
    42.7454     2623.00000
    42.7585     2605.00000
    42.7717     2769.00000
    42.7848     2700.00000
    42.7979     2826.00000
    42.8110     2684.00000
    42.8242     2705.00000
    42.8373     2679.00000
    42.8504     2669.00000
    42.8636     2691.00000
    42.8767     2659.00000
    42.8898     2665.00000
    42.9030     2625.00000
    42.9161     2705.00000
    42.9292     2671.00000
    42.9423     2730.00000
    42.9555     2655.00000
    42.9686     2671.00000
    42.9817     2692.00000
    42.9949     2685.00000
    43.0080     2656.00000
    43.0211     2630.00000
    43.0343     2733.00000
    43.0474     2730.00000
    43.0605     2676.00000
    43.0736     2743.00000
    43.0868     2597.00000
    43.0999     2684.00000
    43.1130     2612.00000
    43.1262     2581.00000
    43.1393     2651.00000
    43.1524     2628.00000
    43.1656     2607.00000
    43.1787     2686.00000
    43.1918     2544.00000
    43.2050     2579.00000
    43.2181     2616.00000
    43.2312     2589.00000
    43.2443     2678.00000
    43.2575     2629.00000
    43.2706     2592.00000
    43.2837     2582.00000
    43.2969     2603.00000
    43.3100     2581.00000
    43.3231     2673.00000
    43.3363     2679.00000
    43.3494     2684.00000
    43.3625     2568.00000
    43.3756     2654.00000
    43.3888     2659.00000
    43.4019     2653.00000
    43.4150     2746.00000
    43.4282     2715.00000
    43.4413     2789.00000
    43.4544     2871.00000
    43.4676     3160.00000
    43.4807     3237.00000
    43.4938     3474.00000
    43.5069     3494.00000
    43.5201     3375.00000
    43.5332     3439.00000
    43.5463     3110.00000
    43.5595     3128.00000
    43.5726     3019.00000
    43.5857     3037.00000
    43.5989     3042.00000
    43.6120     3043.00000
    43.6251     3113.00000
    43.6383     3059.00000
    43.6514     2934.00000
    43.6645     2819.00000
    43.6776     2898.00000
    43.6908     2759.00000
    43.7039     2771.00000
    43.7170     2629.00000
    43.7302     2790.00000
    43.7433     2632.00000
    43.7564     2655.00000
    43.7696     2621.00000
    43.7827     2613.00000
    43.7958     2571.00000
    43.8089     2639.00000
    43.8221     2600.00000
    43.8352     2652.00000
    43.8483     2562.00000
    43.8615     2599.00000
    43.8746     2693.00000
    43.8877     2711.00000
    43.9009     2572.00000
    43.9140     2661.00000
    43.9271     2662.00000
    43.9402     2602.00000
    43.9534     2557.00000
    43.9665     2647.00000
    43.9796     2692.00000
    43.9928     2631.00000
    44.0059     2542.00000
    44.0190     2635.00000
    44.0322     2627.00000
    44.0453     2701.00000
    44.0584     2620.00000
    44.0715     2613.00000
    44.0847     2630.00000
    44.0978     2632.00000
    44.1109     2686.00000
    44.1241     2682.00000
    44.1372     2728.00000
    44.1503     2832.00000
    44.1635     2725.00000
    44.1766     2786.00000
    44.1897     2979.00000
    44.2029     2976.00000
    44.2160     3118.00000
    44.2291     3182.00000
    44.2422     3215.00000
    44.2554     3228.00000
    44.2685     3471.00000
    44.2816     3691.00000
    44.2948     3889.00000
    44.3079     3848.00000
    44.3210     3542.00000
    44.3342     3398.00000
    44.3473     3117.00000
    44.3604     3086.00000
    44.3735     3197.00000
    44.3867     3131.00000
    44.3998     3184.00000
    44.4129     3206.00000
    44.4261     3130.00000
    44.4392     3110.00000
    44.4523     2921.00000
    44.4655     2881.00000
    44.4786     2883.00000
    44.4917     2812.00000
    44.5048     2842.00000
    44.5180     2789.00000
    44.5311     2779.00000
    44.5442     2829.00000
    44.5574     2857.00000
    44.5705     2902.00000
    44.5836     2880.00000
    44.5968     2976.00000
    44.6099     3117.00000
    44.6230     3323.00000
    44.6362     3686.00000
    44.6493     3891.00000
    44.6624     4521.00000
    44.6755     5116.00000
    44.6887     5562.00000
    44.7018     5882.00000
    44.7149     5710.00000
    44.7281     5295.00000
    44.7412     4837.00000
    44.7543     4332.00000
    44.7675     4183.00000
    44.7806     4043.00000
    44.7937     4042.00000
    44.8068     4298.00000
    44.8200     4306.00000
    44.8331     4181.00000
    44.8462     3864.00000
    44.8594     3631.00000
    44.8725     3319.00000
    44.8856     3092.00000
    44.8988     2995.00000
    44.9119     2895.00000
    44.9250     2739.00000
    44.9381     2863.00000
    44.9513     2807.00000
    44.9644     2666.00000
    44.9775     2723.00000
    44.9907     2591.00000
    45.0038     2645.00000
    45.0169     2609.00000
    45.0301     2609.00000
    45.0432     2537.00000
    45.0563     2637.00000
    45.0695     2558.00000
    45.0826     2641.00000
    45.0957     2624.00000
    45.1088     2466.00000
    45.1220     2531.00000
    45.1351     2604.00000
    45.1482     2512.00000
    45.1614     2729.00000
    45.1745     2577.00000
    45.1876     2699.00000
    45.2008     2618.00000
    45.2139     2759.00000
    45.2270     2665.00000
    45.2401     2632.00000
    45.2533     2552.00000
    45.2664     2562.00000
    45.2795     2510.00000
    45.2927     2519.00000
    45.3058     2627.00000
    45.3189     2526.00000
    45.3321     2625.00000
    45.3452     2531.00000
    45.3583     2654.00000
    45.3714     2639.00000
    45.3846     2590.00000
    45.3977     2704.00000
    45.4108     2765.00000
    45.4240     2600.00000
    45.4371     2614.00000
    45.4502     2742.00000
    45.4634     2691.00000
    45.4765     2729.00000
    45.4896     2756.00000
    45.5028     2713.00000
    45.5159     2787.00000
    45.5290     2950.00000
    45.5421     2773.00000
    45.5553     2893.00000
    45.5684     2914.00000
    45.5815     2827.00000
    45.5947     2951.00000
    45.6078     2918.00000
    45.6209     2926.00000
    45.6341     3041.00000
    45.6472     3176.00000
    45.6603     3351.00000
    45.6734     3693.00000
    45.6866     4382.00000
    45.6997     5452.00000
    45.7128     7399.00000
    45.7260     9810.00000
    45.7391    11795.00000
    45.7522    12385.00000
    45.7654    10710.00000
    45.7785     8323.00000
    45.7916     6353.00000
    45.8047     5392.00000
    45.8179     5111.00000
    45.8310     5603.00000
    45.8441     6538.00000
    45.8573     7378.00000
    45.8704     7640.00000
    45.8835     7013.00000
    45.8967     5759.00000
    45.9098     4663.00000
    45.9229     4041.00000
    45.9361     3486.00000
    45.9492     3268.00000
    45.9623     3021.00000
    45.9754     3040.00000
    45.9886     2865.00000
    46.0017     2901.00000
    46.0148     2785.00000
    46.0280     2762.00000
    46.0411     2715.00000
    46.0542     2728.00000
    46.0674     2679.00000
    46.0805     2753.00000
    46.0936     2730.00000
    46.1067     2753.00000
    46.1199     2758.00000
    46.1330     2727.00000
    46.1461     2718.00000
    46.1593     2757.00000
    46.1724     2757.00000
    46.1855     2833.00000
    46.1987     2792.00000
    46.2118     2840.00000
    46.2249     2836.00000
    46.2380     2844.00000
    46.2512     2912.00000
    46.2643     2986.00000
    46.2774     3173.00000
    46.2906     3401.00000
    46.3037     3795.00000
    46.3168     4695.00000
    46.3300     6069.00000
    46.3431     7288.00000
    46.3562     7604.00000
    46.3694     7051.00000
    46.3825     5837.00000
    46.3956     4703.00000
    46.4087     4162.00000
    46.4219     3911.00000
    46.4350     3976.00000
    46.4481     4297.00000
    46.4613     4782.00000
    46.4744     5163.00000
    46.4875     4954.00000
    46.5007     4470.00000
    46.5138     3889.00000
    46.5269     3479.00000
    46.5400     3200.00000
    46.5532     3022.00000
    46.5663     2866.00000
    46.5794     2754.00000
    46.5926     2825.00000
    46.6057     2768.00000
    46.6188     2670.00000
    46.6320     2729.00000
    46.6451     2609.00000
    46.6582     2718.00000
    46.6713     2707.00000
    46.6845     2769.00000
    46.6976     2722.00000
    46.7107     2749.00000
    46.7239     2620.00000
    46.7370     2774.00000
    46.7501     2712.00000
    46.7633     2662.00000
    46.7764     2565.00000
    46.7895     2680.00000
    46.8027     2627.00000
    46.8158     2679.00000
    46.8289     2634.00000
    46.8420     2670.00000
    46.8552     2616.00000
    46.8683     2519.00000
    46.8814     2743.00000
    46.8946     2654.00000
    46.9077     2630.00000
    46.9208     2658.00000
    46.9340     2619.00000
    46.9471     2708.00000
    46.9602     2685.00000
    46.9733     2755.00000
    46.9865     2763.00000
    46.9996     2818.00000
    47.0127     2827.00000
    47.0259     2668.00000
    47.0390     2770.00000
    47.0521     2806.00000
    47.0653     2932.00000
    47.0784     2881.00000
    47.0915     2883.00000
    47.1046     2923.00000
    47.1178     2960.00000
    47.1309     2932.00000
    47.1440     3109.00000
    47.1572     3162.00000
    47.1703     3432.00000
    47.1834     3518.00000
    47.1966     3933.00000
    47.2097     4429.00000
    47.2228     5205.00000
    47.2359     6199.00000
    47.2491     7299.00000
    47.2622     8220.00000
    47.2753     9103.00000
    47.2885     9046.00000
    47.3016     8473.00000
    47.3147     6990.00000
    47.3279     5785.00000
    47.3410     5192.00000
    47.3541     5164.00000
    47.3673     5215.00000
    47.3804     5544.00000
    47.3935     6013.00000
    47.4066     6107.00000
    47.4198     5899.00000
    47.4329     5292.00000
    47.4460     4431.00000
    47.4592     3839.00000
    47.4723     3439.00000
    47.4854     3271.00000
    47.4986     3072.00000
    47.5117     3189.00000
    47.5248     2989.00000
    47.5379     2986.00000
    47.5511     2820.00000
    47.5642     2926.00000
    47.5773     2850.00000
    47.5905     2970.00000
    47.6036     3028.00000
    47.6167     3079.00000
    47.6299     3100.00000
    47.6430     3200.00000
    47.6561     3191.00000
    47.6692     3226.00000
    47.6824     3349.00000
    47.6955     3329.00000
    47.7086     3269.00000
    47.7218     3335.00000
    47.7349     3440.00000
    47.7480     3608.00000
    47.7612     3754.00000
    47.7743     3863.00000
    47.7874     4001.00000
    47.8005     4275.00000
    47.8137     4686.00000
    47.8268     5128.00000
    47.8399     5694.00000
    47.8531     6790.00000
    47.8662     8070.00000
    47.8793    10276.00000
    47.8925    13040.00000
    47.9056    16460.00000
    47.9187    19030.00000
    47.9319    19428.00000
    47.9450    17687.00000
    47.9581    14885.00000
    47.9712    12145.00000
    47.9844    10554.00000
    47.9975     9698.00000
    48.0106     9898.00000
    48.0238    10465.00000
    48.0369    11448.00000
    48.0500    11917.00000
    48.0632    11353.00000
    48.0763    10244.00000
    48.0894     8385.00000
    48.1025     7064.00000
    48.1157     5999.00000
    48.1288     5106.00000
    48.1419     4640.00000
    48.1551     4137.00000
    48.1682     3838.00000
    48.1813     3849.00000
    48.1945     3515.00000
    48.2076     3449.00000
    48.2207     3429.00000
    48.2338     3380.00000
    48.2470     3257.00000
    48.2601     3414.00000
    48.2732     3395.00000
    48.2864     3268.00000
    48.2995     3245.00000
    48.3126     3356.00000
    48.3258     3367.00000
    48.3389     3435.00000
    48.3520     3541.00000
    48.3652     3739.00000
    48.3783     4214.00000
    48.3914     4556.00000
    48.4045     5382.00000
    48.4177     6859.00000
    48.4308     8919.00000
    48.4439    10821.00000
    48.4571    12016.00000
    48.4702    12120.00000
    48.4833    12316.00000
    48.4965    12360.00000
    48.5096    12167.00000
    48.5227    11437.00000
    48.5358    10460.00000
    48.5490     9998.00000
    48.5621     9491.00000
    48.5752     9152.00000
    48.5884     8793.00000
    48.6015     8146.00000
    48.6146     8038.00000
    48.6278     7927.00000
    48.6409     7422.00000
    48.6540     7132.00000
    48.6671     6405.00000
    48.6803     5669.00000
    48.6934     4975.00000
    48.7065     4417.00000
    48.7197     4060.00000
    48.7328     3805.00000
    48.7459     3764.00000
    48.7591     3929.00000
    48.7722     4108.00000
    48.7853     4508.00000
    48.7985     5211.00000
    48.8116     6176.00000
    48.8247     7883.00000
    48.8378     9664.00000
    48.8510    11934.00000
    48.8641    13238.00000
    48.8772    12704.00000
    48.8904    10797.00000
    48.9035     8893.00000
    48.9166     7398.00000
    48.9298     6368.00000
    48.9429     6118.00000
    48.9560     6437.00000
    48.9691     7210.00000
    48.9823     8043.00000
    48.9954     8185.00000
    49.0085     7863.00000
    49.0217     6814.00000
    49.0348     5592.00000
    49.0479     4802.00000
    49.0611     4146.00000
    49.0742     3769.00000
    49.0873     3505.00000
    49.1004     3269.00000
    49.1136     3186.00000
    49.1267     3052.00000
    49.1398     2929.00000
    49.1530     2982.00000
    49.1661     2944.00000
    49.1792     2837.00000
    49.1924     2865.00000
    49.2055     2852.00000
    49.2186     2827.00000
    49.2318     2924.00000
    49.2449     2900.00000
    49.2580     2729.00000
    49.2711     2811.00000
    49.2843     2742.00000
    49.2974     2744.00000
    49.3105     2823.00000
    49.3237     2792.00000
    49.3368     2767.00000
    49.3499     2878.00000
    49.3631     2802.00000
    49.3762     2856.00000
    49.3893     2926.00000
    49.4024     3011.00000
    49.4156     3125.00000
    49.4287     3410.00000
    49.4418     3466.00000
    49.4550     3322.00000
    49.4681     3224.00000
    49.4812     3174.00000
    49.4944     3074.00000
    49.5075     3023.00000
    49.5206     3012.00000
    49.5337     3125.00000
    49.5469     3275.00000
    49.5600     3320.00000
    49.5731     3377.00000
    49.5863     3317.00000
    49.5994     3296.00000
    49.6125     3430.00000
    49.6257     3258.00000
    49.6388     3208.00000
    49.6519     3249.00000
    49.6651     3237.00000
    49.6782     3264.00000
    49.6913     3169.00000
    49.7044     3142.00000
    49.7176     3177.00000
    49.7307     3159.00000
    49.7438     3106.00000
    49.7570     3083.00000
    49.7701     3136.00000
    49.7832     3158.00000
    49.7964     3271.00000
    49.8095     3254.00000
    49.8226     3303.00000
    49.8357     3328.00000
    49.8489     3357.00000
    49.8620     3299.00000
    49.8751     3277.00000
    49.8883     3353.00000
    49.9014     3427.00000
    49.9145     3431.00000
    49.9277     3682.00000
    49.9408     3901.00000
    49.9539     4064.00000
    49.9670     4423.00000
    49.9802     5048.00000
    49.9933     5766.00000
    50.0064     7019.00000
    50.0196     9018.00000
    50.0327    11990.00000
    50.0458    15242.00000
    50.0590    17670.00000
    50.0721    18631.00000
    50.0852    17809.00000
    50.0984    15503.00000
    50.1115    13009.00000
    50.1246    10951.00000
    50.1377     9792.00000
    50.1509     9848.00000
    50.1640    10715.00000
    50.1771    11816.00000
    50.1903    12558.00000
    50.2034    12803.00000
    50.2165    12247.00000
    50.2297    10598.00000
    50.2428     8854.00000
    50.2559     7154.00000
    50.2690     6126.00000
    50.2822     5363.00000
    50.2953     5151.00000
    50.3084     4674.00000
    50.3216     4523.00000
    50.3347     4404.00000
    50.3478     4034.00000
    50.3610     3798.00000
    50.3741     3622.00000
    50.3872     3501.00000
    50.4003     3311.00000
    50.4135     3207.00000
    50.4266     3246.00000
    50.4397     3209.00000
    50.4529     3233.00000
    50.4660     3236.00000
    50.4791     3214.00000
    50.4923     3313.00000
    50.5054     3166.00000
    50.5185     3395.00000
    50.5317     3371.00000
    50.5448     3544.00000
    50.5579     3570.00000
    50.5710     3687.00000
    50.5842     3979.00000
    50.5973     4221.00000
    50.6104     4789.00000
    50.6236     5302.00000
    50.6367     6335.00000
    50.6498     7293.00000
    50.6630     8626.00000
    50.6761     9791.00000
    50.6892    10529.00000
    50.7023    10871.00000
    50.7155    10164.00000
    50.7286     8898.00000
    50.7417     7600.00000
    50.7549     6631.00000
    50.7680     6213.00000
    50.7811     6085.00000
    50.7943     6265.00000
    50.8074     6732.00000
    50.8205     7022.00000
    50.8336     6851.00000
    50.8468     6669.00000
    50.8599     5981.00000
    50.8730     5076.00000
    50.8862     4602.00000
    50.8993     4066.00000
    50.9124     3691.00000
    50.9256     3377.00000
    50.9387     3356.00000
    50.9518     3173.00000
    50.9649     2967.00000
    50.9781     2950.00000
    50.9912     2891.00000
    51.0043     2857.00000
    51.0175     2892.00000
    51.0306     2921.00000
    51.0437     2922.00000
    51.0569     2855.00000
    51.0700     2784.00000
    51.0831     2735.00000
    51.0963     2751.00000
    51.1094     2652.00000
    51.1225     2703.00000
    51.1356     2662.00000
    51.1488     2713.00000
    51.1619     2727.00000
    51.1750     2703.00000
    51.1882     2740.00000
    51.2013     2730.00000
    51.2144     2791.00000
    51.2276     2755.00000
    51.2407     2683.00000
    51.2538     2717.00000
    51.2669     2689.00000
    51.2801     2762.00000
    51.2932     2862.00000
    51.3063     2968.00000
    51.3195     2790.00000
    51.3326     2799.00000
    51.3457     2788.00000
    51.3589     2835.00000
    51.3720     2814.00000
    51.3851     2883.00000
    51.3982     2937.00000
    51.4114     2931.00000
    51.4245     3018.00000
    51.4376     3081.00000
    51.4508     3130.00000
    51.4639     3208.00000
    51.4770     3362.00000
    51.4902     3559.00000
    51.5033     3590.00000
    51.5164     3779.00000
    51.5296     4150.00000
    51.5427     4732.00000
    51.5558     5491.00000
    51.5689     6979.00000
    51.5821     8407.00000
    51.5952     9282.00000
    51.6083     8808.00000
    51.6215     7556.00000
    51.6346     6047.00000
    51.6477     5130.00000
    51.6609     4497.00000
    51.6740     4210.00000
    51.6871     4314.00000
    51.7002     4750.00000
    51.7134     5391.00000
    51.7265     5937.00000
    51.7396     5922.00000
    51.7528     5565.00000
    51.7659     4889.00000
    51.7790     4408.00000
    51.7922     4012.00000
    51.8053     3905.00000
    51.8184     4032.00000
    51.8315     3877.00000
    51.8447     3686.00000
    51.8578     3500.00000
    51.8709     3276.00000
    51.8841     3103.00000
    51.8972     3135.00000
    51.9103     2982.00000
    51.9235     3013.00000
    51.9366     3036.00000
    51.9497     3154.00000
    51.9628     3159.00000
    51.9760     3139.00000
    51.9891     3045.00000
    52.0022     3013.00000
    52.0154     2889.00000
    52.0285     2827.00000
    52.0416     2766.00000
    52.0548     2708.00000
    52.0679     2684.00000
    52.0810     2688.00000
    52.0942     2778.00000
    52.1073     2671.00000
    52.1204     2634.00000
    52.1335     2746.00000
    52.1467     2631.00000
    52.1598     2624.00000
    52.1729     2716.00000
    52.1861     2680.00000
    52.1992     2725.00000
    52.2123     2670.00000
    52.2255     2664.00000
    52.2386     2735.00000
    52.2517     2658.00000
    52.2648     2693.00000
    52.2780     2691.00000
    52.2911     2805.00000
    52.3042     2753.00000
    52.3174     2769.00000
    52.3305     2908.00000
    52.3436     2814.00000
    52.3568     2923.00000
    52.3699     2892.00000
    52.3830     2791.00000
    52.3961     2893.00000
    52.4093     2875.00000
    52.4224     2878.00000
    52.4355     2925.00000
    52.4487     3004.00000
    52.4618     3018.00000
    52.4749     3086.00000
    52.4881     3157.00000
    52.5012     3335.00000
    52.5143     3587.00000
    52.5275     4206.00000
    52.5406     4917.00000
    52.5537     5923.00000
    52.5668     7418.00000
    52.5800     8452.00000
    52.5931     9498.00000
    52.6062    10393.00000
    52.6194    10913.00000
    52.6325    10865.00000
    52.6456     9931.00000
    52.6588     8553.00000
    52.6719     7079.00000
    52.6850     6085.00000
    52.6981     5767.00000
    52.7113     5728.00000
    52.7244     6230.00000
    52.7375     6466.00000
    52.7507     6868.00000
    52.7638     6942.00000
    52.7769     6596.00000
    52.7901     6117.00000
    52.8032     5267.00000
    52.8163     4415.00000
    52.8294     3902.00000
    52.8426     3430.00000
    52.8557     3145.00000
    52.8688     3091.00000
    52.8820     2955.00000
    52.8951     2940.00000
    52.9082     3035.00000
    52.9214     2992.00000
    52.9345     2863.00000
    52.9476     2915.00000
    52.9608     3050.00000
    52.9739     3085.00000
    52.9870     3150.00000
    53.0001     3458.00000
    53.0133     3660.00000
    53.0264     3987.00000
    53.0395     4525.00000
    53.0527     4757.00000
    53.0658     5070.00000
    53.0789     5445.00000
    53.0921     5365.00000
    53.1052     5446.00000
    53.1183     5612.00000
    53.1314     5265.00000
    53.1446     4907.00000
    53.1577     4464.00000
    53.1708     4264.00000
    53.1840     4104.00000
    53.1971     4156.00000
    53.2102     4089.00000
    53.2234     4217.00000
    53.2365     3999.00000
    53.2496     3950.00000
    53.2627     3993.00000
    53.2759     4005.00000
    53.2890     3577.00000
    53.3021     3484.00000
    53.3153     3050.00000
    53.3284     2932.00000
    53.3415     2926.00000
    53.3547     2744.00000
    53.3678     2733.00000
    53.3809     2610.00000
    53.3941     2687.00000
    53.4072     2720.00000
    53.4203     2654.00000
    53.4334     2706.00000
    53.4466     2809.00000
    53.4597     2818.00000
    53.4728     2781.00000
    53.4860     2765.00000
    53.4991     3007.00000
    53.5122     3178.00000
    53.5254     3317.00000
    53.5385     3744.00000
    53.5516     4088.00000
    53.5647     4277.00000
    53.5779     4596.00000
    53.5910     4384.00000
    53.6041     3971.00000
    53.6173     3701.00000
    53.6304     3507.00000
    53.6435     3339.00000
    53.6567     3104.00000
    53.6698     3269.00000
    53.6829     3143.00000
    53.6960     3467.00000
    53.7092     3626.00000
    53.7223     3673.00000
    53.7354     3551.00000
    53.7486     3233.00000
    53.7617     3241.00000
    53.7748     3043.00000
    53.7880     2961.00000
    53.8011     2979.00000
    53.8142     2849.00000
    53.8274     2746.00000
    53.8405     2782.00000
    53.8536     2768.00000
    53.8667     2640.00000
    53.8799     2660.00000
    53.8930     2819.00000
    53.9061     2538.00000
    53.9193     2592.00000
    53.9324     2643.00000
    53.9455     2671.00000
    53.9587     2662.00000
    53.9718     2593.00000
    53.9849     2657.00000
    53.9980     2680.00000
    54.0112     2582.00000
    54.0243     2570.00000
    54.0374     2590.00000
    54.0506     2486.00000
    54.0637     2586.00000
    54.0768     2573.00000
    54.0900     2578.00000
    54.1031     2586.00000
    54.1162     2573.00000
    54.1293     2536.00000
    54.1425     2552.00000
    54.1556     2597.00000
    54.1687     2519.00000
    54.1819     2453.00000
    54.1950     2557.00000
    54.2081     2557.00000
    54.2213     2516.00000
    54.2344     2544.00000
    54.2475     2609.00000
    54.2607     2555.00000
    54.2738     2560.00000
    54.2869     2573.00000
    54.3000     2595.00000
    54.3132     2552.00000
    54.3263     2567.00000
    54.3394     2668.00000
    54.3526     2587.00000
    54.3657     2564.00000
    54.3788     2577.00000
    54.3920     2571.00000
    54.4051     2611.00000
    54.4182     2558.00000
    54.4313     2677.00000
    54.4445     2701.00000
    54.4576     2847.00000
    54.4707     2864.00000
    54.4839     2865.00000
    54.4970     2936.00000
    54.5101     2895.00000
    54.5233     3043.00000
    54.5364     3046.00000
    54.5495     2910.00000
    54.5626     2955.00000
    54.5758     2880.00000
    54.5889     2709.00000
    54.6020     2868.00000
    54.6152     2821.00000
    54.6283     2741.00000
    54.6414     2727.00000
    54.6546     2707.00000
    54.6677     2752.00000
    54.6808     2765.00000
    54.6940     2685.00000
    54.7071     2618.00000
    54.7202     2666.00000
    54.7333     2691.00000
    54.7465     2640.00000
    54.7596     2589.00000
    54.7727     2583.00000
    54.7859     2553.00000
    54.7990     2664.00000
    54.8121     2604.00000
    54.8253     2577.00000
    54.8384     2731.00000
    54.8515     2538.00000
    54.8646     2662.00000
    54.8778     2674.00000
    54.8909     2484.00000
    54.9040     2575.00000
    54.9172     2448.00000
    54.9303     2593.00000
    54.9434     2632.00000
    54.9566     2621.00000
    54.9697     2646.00000
    54.9828     2564.00000
    54.9959     2549.00000
    55.0091     2579.00000
    55.0222     2557.00000
    55.0353     2529.00000
    55.0485     2579.00000
    55.0616     2543.00000
    55.0747     2588.00000
    55.0879     2646.00000
    55.1010     2528.00000
    55.1141     2498.00000
    55.1272     2640.00000
    55.1404     2533.00000
    55.1535     2607.00000
    55.1666     2630.00000
    55.1798     2644.00000
    55.1929     2692.00000
    55.2060     2568.00000
    55.2192     2573.00000
    55.2323     2679.00000
    55.2454     2561.00000
    55.2586     2564.00000
    55.2717     2587.00000
    55.2848     2630.00000
    55.2979     2611.00000
    55.3111     2697.00000
    55.3242     2688.00000
    55.3373     2792.00000
    55.3505     2876.00000
    55.3636     2752.00000
    55.3767     2897.00000
    55.3899     2867.00000
    55.4030     2756.00000
    55.4161     2847.00000
    55.4292     2805.00000
    55.4424     2961.00000
    55.4555     3022.00000
    55.4686     3220.00000
    55.4818     3105.00000
    55.4949     3252.00000
    55.5080     3404.00000
    55.5212     3642.00000
    55.5343     3999.00000
    55.5474     4300.00000
    55.5605     5004.00000
    55.5737     5677.00000
    55.5868     7026.00000
    55.5999     8548.00000
    55.6131    10165.00000
    55.6262    11396.00000
    55.6393    11644.00000
    55.6525    10594.00000
    55.6656     9260.00000
    55.6787     7608.00000
    55.6918     6639.00000
    55.7050     5829.00000
    55.7181     5807.00000
    55.7312     5847.00000
    55.7444     6394.00000
    55.7575     6752.00000
    55.7706     7419.00000
    55.7838     7555.00000
    55.7969     7248.00000
    55.8100     6794.00000
    55.8232     5747.00000
    55.8363     4838.00000
    55.8494     4389.00000
    55.8625     3965.00000
    55.8757     3678.00000
    55.8888     3614.00000
    55.9019     3390.00000
    55.9151     3574.00000
    55.9282     3509.00000
    55.9413     3676.00000
    55.9545     3706.00000
    55.9676     3642.00000
    55.9807     3509.00000
    55.9938     3503.00000
    56.0070     3331.00000
    56.0201     3257.00000
    56.0332     3156.00000
    56.0464     3061.00000
    56.0595     2980.00000
    56.0726     2928.00000
    56.0858     3103.00000
    56.0989     3134.00000
    56.1120     3155.00000
    56.1251     3144.00000
    56.1383     3176.00000
    56.1514     3147.00000
    56.1645     3177.00000
    56.1777     3080.00000
    56.1908     3073.00000
    56.2039     3070.00000
    56.2171     3089.00000
    56.2302     3156.00000
    56.2433     3233.00000
    56.2565     3401.00000
    56.2696     3662.00000
    56.2827     3934.00000
    56.2958     4468.00000
    56.3090     5258.00000
    56.3221     6623.00000
    56.3352     8114.00000
    56.3484     9531.00000
    56.3615    10615.00000
    56.3746    11201.00000
    56.3878    10770.00000
    56.4009    10050.00000
    56.4140     8540.00000
    56.4271     7139.00000
    56.4403     6200.00000
    56.4534     5987.00000
    56.4665     6434.00000
    56.4797     7549.00000
    56.4928     8811.00000
    56.5059     9727.00000
    56.5191    10190.00000
    56.5322     9675.00000
    56.5453     9010.00000
    56.5584     7973.00000
    56.5716     6889.00000
    56.5847     6198.00000
    56.5978     5935.00000
    56.6110     5954.00000
    56.6241     6039.00000
    56.6372     6256.00000
    56.6504     6054.00000
    56.6635     5784.00000
    56.6766     5365.00000
    56.6898     5005.00000
    56.7029     4333.00000
    56.7160     4110.00000
    56.7291     3822.00000
    56.7423     3758.00000
    56.7554     3836.00000
    56.7685     3916.00000
    56.7817     3910.00000
    56.7948     3692.00000
    56.8079     3621.00000
    56.8211     3307.00000
    56.8342     3297.00000
    56.8473     3107.00000
    56.8604     3057.00000
    56.8736     2983.00000
    56.8867     2883.00000
    56.8998     2888.00000
    56.9130     2806.00000
    56.9261     2949.00000
    56.9392     2851.00000
    56.9524     2852.00000
    56.9655     2913.00000
    56.9786     2854.00000
    56.9917     2822.00000
    57.0049     3007.00000
    57.0180     2875.00000
    57.0311     2958.00000
    57.0443     2991.00000
    57.0574     3026.00000
    57.0705     3058.00000
    57.0837     3137.00000
    57.0968     3093.00000
    57.1099     3216.00000
    57.1231     3273.00000
    57.1362     3482.00000
    57.1493     3593.00000
    57.1624     3820.00000
    57.1756     4147.00000
    57.1887     4720.00000
    57.2018     5390.00000
    57.2150     6320.00000
    57.2281     7262.00000
    57.2412     8094.00000
    57.2544     8673.00000
    57.2675     9424.00000
    57.2806     9804.00000
    57.2937     9988.00000
    57.3069     9959.00000
    57.3200     9608.00000
    57.3331     9382.00000
    57.3463     8652.00000
    57.3594     7946.00000
    57.3725     7244.00000
    57.3857     6924.00000
    57.3988     7209.00000
    57.4119     7824.00000
    57.4250     8157.00000
    57.4382     8794.00000
    57.4513     9472.00000
    57.4644     9770.00000
    57.4776     9766.00000
    57.4907     8723.00000
    57.5038     7658.00000
    57.5170     6427.00000
    57.5301     5676.00000
    57.5432     4860.00000
    57.5564     4496.00000
    57.5695     4346.00000
    57.5826     4287.00000
    57.5957     4489.00000
    57.6089     4725.00000
    57.6220     4802.00000
    57.6351     4676.00000
    57.6483     4550.00000
    57.6614     4151.00000
    57.6745     3747.00000
    57.6877     3701.00000
    57.7008     3386.00000
    57.7139     3337.00000
    57.7270     3140.00000
    57.7402     3050.00000
    57.7533     3150.00000
    57.7664     3075.00000
    57.7796     2932.00000
    57.7927     3019.00000
    57.8058     3020.00000
    57.8190     2948.00000
    57.8321     3061.00000
    57.8452     3106.00000
    57.8583     3279.00000
    57.8715     3361.00000
    57.8846     3493.00000
    57.8977     3655.00000
    57.9109     3909.00000
    57.9240     4477.00000
    57.9371     5104.00000
    57.9503     6050.00000
    57.9634     7013.00000
    57.9765     8094.00000
    57.9897     8419.00000
    58.0028     7908.00000
    58.0159     6940.00000
    58.0290     6010.00000
    58.0422     5254.00000
    58.0553     4812.00000
    58.0684     4470.00000
    58.0816     4486.00000
    58.0947     4783.00000
    58.1078     5113.00000
    58.1210     5715.00000
    58.1341     6256.00000
    58.1472     6506.00000
    58.1603     6224.00000
    58.1735     5821.00000
    58.1866     5005.00000
    58.1997     4332.00000
    58.2129     4065.00000
    58.2260     3835.00000
    58.2391     3658.00000
    58.2523     3580.00000
    58.2654     3770.00000
    58.2785     3701.00000
    58.2916     3948.00000
    58.3048     4012.00000
    58.3179     3932.00000
    58.3310     3785.00000
    58.3442     3629.00000
    58.3573     3368.00000
    58.3704     3118.00000
    58.3836     3069.00000
    58.3967     3092.00000
    58.4098     3012.00000
    58.4230     3042.00000
    58.4361     3061.00000
    58.4492     3197.00000
    58.4623     3290.00000
    58.4755     3185.00000
    58.4886     3106.00000
    58.5017     3156.00000
    58.5149     3059.00000
    58.5280     2971.00000
    58.5411     2921.00000
    58.5543     3017.00000
    58.5674     2894.00000
    58.5805     3094.00000
    58.5936     2999.00000
    58.6068     3063.00000
    58.6199     3270.00000
    58.6330     3336.00000
    58.6462     3407.00000
    58.6593     3644.00000
    58.6724     3853.00000
    58.6856     4199.00000
    58.6987     4383.00000
    58.7118     5020.00000
    58.7249     5620.00000
    58.7381     6416.00000
    58.7512     7124.00000
    58.7643     7856.00000
    58.7775     8048.00000
    58.7906     8303.00000
    58.8037     7871.00000
    58.8169     7263.00000
    58.8300     6498.00000
    58.8431     5667.00000
    58.8562     5641.00000
    58.8694     5685.00000
    58.8825     5981.00000
    58.8956     6775.00000
    58.9088     7522.00000
    58.9219     8772.00000
    58.9350    10160.00000
    58.9482    11298.00000
    58.9613    11638.00000
    58.9744    11199.00000
    58.9876     9781.00000
    59.0007     8093.00000
    59.0138     6543.00000
    59.0269     5621.00000
    59.0401     5120.00000
    59.0532     4899.00000
    59.0663     5071.00000
    59.0795     5209.00000
    59.0926     5568.00000
    59.1057     6207.00000
    59.1189     6460.00000
    59.1320     6420.00000
    59.1451     6139.00000
    59.1582     5580.00000
    59.1714     5178.00000
    59.1845     4703.00000
    59.1976     4770.00000
    59.2108     4874.00000
    59.2239     5168.00000
    59.2370     5684.00000
    59.2502     6537.00000
    59.2633     7596.00000
    59.2764     8474.00000
    59.2895     9154.00000
    59.3027     9490.00000
    59.3158     9212.00000
    59.3289     8080.00000
    59.3421     6911.00000
    59.3552     5761.00000
    59.3683     5125.00000
    59.3815     4854.00000
    59.3946     4717.00000
    59.4077     5011.00000
    59.4208     5316.00000
    59.4340     5800.00000
    59.4471     6024.00000
    59.4602     6255.00000
    59.4734     6068.00000
    59.4865     5570.00000
    59.4996     4861.00000
    59.5128     4623.00000
    59.5259     4105.00000
    59.5390     3619.00000
    59.5522     3490.00000
    59.5653     3268.00000
    59.5784     3285.00000
    59.5915     3243.00000
    59.6047     3291.00000
    59.6178     3182.00000
    59.6309     3188.00000
    59.6441     3259.00000
    59.6572     3231.00000
    59.6703     3308.00000
    59.6835     3342.00000
    59.6966     3493.00000
    59.7097     3773.00000
    59.7228     4032.00000
    59.7360     4522.00000
    59.7491     5305.00000
    59.7622     6134.00000
    59.7754     7030.00000
    59.7885     8047.00000
    59.8016     9504.00000
    59.8148    10310.00000
    59.8279    11046.00000
    59.8410    10942.00000
    59.8541    10310.00000
    59.8673     9591.00000
    59.8804     8727.00000
    59.8935     8007.00000
    59.9067     8345.00000
    59.9198     9139.00000
    59.9329    11072.00000
    59.9461    12916.00000
    59.9592    14051.00000
    59.9723    14007.00000
    59.9855    13003.00000
    59.9986    11212.00000
    60.0117     9570.00000
    60.0248     8332.00000
    60.0380     7342.00000
    60.0511     6367.00000
    60.0642     5847.00000
    60.0774     5834.00000
    60.0905     6136.00000
    60.1036     6887.00000
    60.1168     7077.00000
    60.1299     7022.00000
    60.1430     6574.00000
    60.1561     5786.00000
    60.1693     5114.00000
    60.1824     4244.00000
    60.1955     3877.00000
    60.2087     3529.00000
    60.2218     3428.00000
    60.2349     3213.00000
    60.2481     3071.00000
    60.2612     3111.00000
    60.2743     2922.00000
    60.2874     2916.00000
    60.3006     2877.00000
    60.3137     2757.00000
    60.3268     2722.00000
    60.3400     2802.00000
    60.3531     2727.00000
    60.3662     2714.00000
    60.3794     2806.00000
    60.3925     2687.00000
    60.4056     2728.00000
    60.4188     2648.00000
    60.4319     2731.00000
    60.4450     2749.00000
    60.4581     2706.00000
    60.4713     2718.00000
    60.4844     2783.00000
    60.4975     2713.00000
    60.5107     2752.00000
    60.5238     2746.00000
    60.5369     2627.00000
    60.5501     2768.00000
    60.5632     2868.00000
    60.5763     2863.00000
    60.5894     2956.00000
    60.6026     2915.00000
    60.6157     2928.00000
    60.6288     3061.00000
    60.6420     2975.00000
    60.6551     3091.00000
    60.6682     3253.00000
    60.6814     3275.00000
    60.6945     3373.00000
    60.7076     3492.00000
    60.7207     3722.00000
    60.7339     4078.00000
    60.7470     4621.00000
    60.7601     5426.00000
    60.7733     6465.00000
    60.7864     7894.00000
    60.7995     8975.00000
    60.8127     9945.00000
    60.8258     9903.00000
    60.8389     9515.00000
    60.8521     8745.00000
    60.8652     7674.00000
    60.8783     7224.00000
    60.8914     7258.00000
    60.9046     7478.00000
    60.9177     8289.00000
    60.9308     9129.00000
    60.9440    10358.00000
    60.9571    10795.00000
    60.9702    11013.00000
    60.9834    10684.00000
    60.9965     9925.00000
    61.0096     8577.00000
    61.0227     7357.00000
    61.0359     6641.00000
    61.0490     6107.00000
    61.0621     6256.00000
    61.0753     6311.00000
    61.0884     6716.00000
    61.1015     6920.00000
    61.1147     7186.00000
    61.1278     7307.00000
    61.1409     7089.00000
    61.1540     6930.00000
    61.1672     6538.00000
    61.1803     5900.00000
    61.1934     5686.00000
    61.2066     5452.00000
    61.2197     5305.00000
    61.2328     5147.00000
    61.2460     5222.00000
    61.2591     5508.00000
    61.2722     5608.00000
    61.2854     5540.00000
    61.2985     5769.00000
    61.3116     5803.00000
    61.3247     5563.00000
    61.3379     5491.00000
    61.3510     5053.00000
    61.3641     4580.00000
    61.3773     4234.00000
    61.3904     3983.00000
    61.4035     3794.00000
    61.4167     3807.00000
    61.4298     3714.00000
    61.4429     3746.00000
    61.4560     3710.00000
    61.4692     3808.00000
    61.4823     3754.00000
    61.4954     3699.00000
    61.5086     3507.00000
    61.5217     3418.00000
    61.5348     3098.00000
    61.5480     2892.00000
    61.5611     2764.00000
    61.5742     2743.00000
    61.5873     2735.00000
    61.6005     2666.00000
    61.6136     2645.00000
    61.6267     2544.00000
    61.6399     2629.00000
    61.6530     2570.00000
    61.6661     2555.00000
    61.6793     2582.00000
    61.6924     2489.00000
    61.7055     2513.00000
    61.7187     2468.00000
    61.7318     2527.00000
    61.7449     2640.00000
    61.7580     2403.00000
    61.7712     2457.00000
    61.7843     2489.00000
    61.7974     2537.00000
    61.8106     2548.00000
    61.8237     2473.00000
    61.8368     2413.00000
    61.8500     2549.00000
    61.8631     2552.00000
    61.8762     2481.00000
    61.8893     2516.00000
    61.9025     2490.00000
    61.9156     2490.00000
    61.9287     2462.00000
    61.9419     2496.00000
    61.9550     2568.00000
    61.9681     2521.00000
    61.9813     2547.00000
    61.9944     2536.00000
    62.0075     2527.00000
    62.0206     2552.00000
    62.0338     2524.00000
    62.0469     2406.00000
    62.0600     2482.00000
    62.0732     2513.00000
    62.0863     2484.00000
    62.0994     2451.00000
    62.1126     2384.00000
    62.1257     2564.00000
    62.1388     2474.00000
    62.1520     2448.00000
    62.1651     2386.00000
    62.1782     2414.00000
    62.1913     2422.00000
    62.2045     2421.00000
    62.2176     2535.00000
    62.2307     2508.00000
    62.2439     2477.00000
    62.2570     2441.00000
    62.2701     2496.00000
    62.2833     2514.00000
    62.2964     2495.00000
    62.3095     2526.00000
    62.3226     2363.00000
    62.3358     2463.00000
    62.3489     2431.00000
    62.3620     2545.00000
    62.3752     2481.00000
    62.3883     2490.00000
    62.4014     2531.00000
    62.4146     2453.00000
    62.4277     2556.00000
    62.4408     2752.00000
    62.4539     2629.00000
    62.4671     2613.00000
    62.4802     2557.00000
    62.4933     2535.00000
    62.5065     2413.00000
    62.5196     2492.00000
    62.5327     2476.00000
    62.5459     2539.00000
    62.5590     2403.00000
    62.5721     2494.00000
    62.5852     2493.00000
    62.5984     2440.00000
    62.6115     2415.00000
    62.6246     2479.00000
    62.6378     2525.00000
    62.6509     2376.00000
    62.6640     2430.00000
    62.6772     2497.00000
    62.6903     2363.00000
    62.7034     2447.00000
    62.7166     2359.00000
    62.7297     2386.00000
    62.7428     2525.00000
    62.7559     2487.00000
    62.7691     2406.00000
    62.7822     2428.00000
    62.7953     2402.00000
    62.8085     2421.00000
    62.8216     2333.00000
    62.8347     2427.00000
    62.8479     2422.00000
    62.8610     2386.00000
    62.8741     2399.00000
    62.8872     2479.00000
    62.9004     2400.00000
    62.9135     2365.00000
    62.9266     2380.00000
    62.9398     2508.00000
    62.9529     2345.00000
    62.9660     2553.00000
    62.9792     2357.00000
    62.9923     2319.00000
    63.0054     2343.00000
    63.0185     2508.00000
    63.0317     2404.00000
    63.0448     2451.00000
    63.0579     2420.00000
    63.0711     2411.00000
    63.0842     2397.00000
    63.0973     2406.00000
    63.1105     2378.00000
    63.1236     2370.00000
    63.1367     2390.00000
    63.1499     2339.00000
    63.1630     2414.00000
    63.1761     2378.00000
    63.1892     2401.00000
    63.2024     2507.00000
    63.2155     2354.00000
    63.2286     2419.00000
    63.2418     2410.00000
    63.2549     2368.00000
    63.2680     2487.00000
    63.2812     2363.00000
    63.2943     2402.00000
    63.3074     2418.00000
    63.3205     2427.00000
    63.3337     2387.00000
    63.3468     2448.00000
    63.3599     2385.00000
    63.3731     2304.00000
    63.3862     2427.00000
    63.3993     2453.00000
    63.4125     2435.00000
    63.4256     2293.00000
    63.4387     2418.00000
    63.4518     2484.00000
    63.4650     2384.00000
    63.4781     2427.00000
    63.4912     2537.00000
    63.5044     2483.00000
    63.5175     2469.00000
    63.5306     2436.00000
    63.5438     2532.00000
    63.5569     2439.00000
    63.5700     2580.00000
    63.5831     2453.00000
    63.5963     2551.00000
    63.6094     2510.00000
    63.6225     2579.00000
    63.6357     2556.00000
    63.6488     2688.00000
    63.6619     2703.00000
    63.6751     2782.00000
    63.6882     2981.00000
    63.7013     3011.00000
    63.7145     3150.00000
    63.7276     3340.00000
    63.7407     3610.00000
    63.7538     3788.00000
    63.7670     4013.00000
    63.7801     4166.00000
    63.7932     4164.00000
    63.8064     4051.00000
    63.8195     3721.00000
    63.8326     3499.00000
    63.8458     3204.00000
    63.8589     3031.00000
    63.8720     2995.00000
    63.8851     2970.00000
    63.8983     3026.00000
    63.9114     3027.00000
    63.9245     3206.00000
    63.9377     3222.00000
    63.9508     3283.00000
    63.9639     3403.00000
    63.9771     3361.00000
    63.9902     3276.00000
    64.0033     2999.00000
    64.0164     2971.00000
    64.0296     2727.00000
    64.0427     2770.00000
    64.0558     2672.00000
    64.0690     2599.00000
    64.0821     2566.00000
    64.0952     2591.00000
    64.1084     2527.00000
    64.1215     2691.00000
    64.1346     2648.00000
    64.1478     2602.00000
    64.1609     2731.00000
    64.1740     2604.00000
    64.1871     2787.00000
    64.2003     2942.00000
    64.2134     3051.00000
    64.2265     3244.00000
    64.2397     3661.00000
    64.2528     4057.00000
    64.2659     4456.00000
    64.2791     4879.00000
    64.2922     5447.00000
    64.3053     5597.00000
    64.3184     5558.00000
    64.3316     5384.00000
    64.3447     5111.00000
    64.3578     4554.00000
    64.3710     4176.00000
    64.3841     3779.00000
    64.3972     3416.00000
    64.4104     3421.00000
    64.4235     3457.00000
    64.4366     3671.00000
    64.4498     3679.00000
    64.4629     3846.00000
    64.4760     3979.00000
    64.4891     4061.00000
    64.5023     4142.00000
    64.5154     3924.00000
    64.5285     3676.00000
    64.5417     3325.00000
    64.5548     3110.00000
    64.5679     2850.00000
    64.5811     2852.00000
    64.5942     2641.00000
    64.6073     2661.00000
    64.6204     2487.00000
    64.6336     2569.00000
    64.6467     2690.00000
    64.6598     2533.00000
    64.6730     2574.00000
    64.6861     2379.00000
    64.6992     2281.00000
    64.7124     2432.00000
    64.7255     2412.00000
    64.7386     2384.00000
    64.7517     2350.00000
    64.7649     2456.00000
    64.7780     2376.00000
    64.7911     2359.00000
    64.8043     2389.00000
    64.8174     2412.00000
    64.8305     2325.00000
    64.8437     2368.00000
    64.8568     2346.00000
    64.8699     2416.00000
    64.8830     2419.00000
    64.8962     2372.00000
    64.9093     2373.00000
    64.9224     2410.00000
    64.9356     2420.00000
    64.9487     2310.00000
    64.9618     2469.00000
    64.9750     2481.00000
    64.9881     2380.00000
    65.0012     2433.00000
    65.0144     2494.00000
    65.0275     2436.00000
    65.0406     2430.00000
    65.0537     2527.00000
    65.0669     2450.00000
    65.0800     2439.00000
    65.0931     2446.00000
    65.1063     2542.00000
    65.1194     2525.00000
    65.1325     2569.00000
    65.1457     2503.00000
    65.1588     2556.00000
    65.1719     2596.00000
    65.1850     2551.00000
    65.1982     2611.00000
    65.2113     2579.00000
    65.2244     2588.00000
    65.2376     2636.00000
    65.2507     2581.00000
    65.2638     2564.00000
    65.2770     2600.00000
    65.2901     2638.00000
    65.3032     2686.00000
    65.3163     2760.00000
    65.3295     2576.00000
    65.3426     2648.00000
    65.3557     2672.00000
    65.3689     2596.00000
    65.3820     2491.00000
    65.3951     2512.00000
    65.4083     2541.00000
    65.4214     2426.00000
    65.4345     2532.00000
    65.4476     2354.00000
    65.4608     2371.00000
    65.4739     2403.00000
    65.4870     2482.00000
    65.5002     2495.00000
    65.5133     2458.00000
    65.5264     2512.00000
    65.5396     2385.00000
    65.5527     2443.00000
    65.5658     2365.00000
    65.5790     2353.00000
    65.5921     2295.00000
    65.6052     2368.00000
    65.6183     2409.00000
    65.6315     2404.00000
    65.6446     2441.00000
    65.6577     2349.00000
    65.6709     2347.00000
    65.6840     2278.00000
    65.6971     2297.00000
    65.7103     2391.00000
    65.7234     2357.00000
    65.7365     2317.00000
    65.7496     2398.00000
    65.7628     2330.00000
    65.7759     2320.00000
    65.7890     2340.00000
    65.8022     2286.00000
    65.8153     2488.00000
    65.8284     2321.00000
    65.8416     2385.00000
    65.8547     2391.00000
    65.8678     2267.00000
    65.8810     2418.00000
    65.8941     2394.00000
    65.9072     2331.00000
    65.9203     2337.00000
    65.9335     2434.00000
    65.9466     2410.00000
    65.9597     2276.00000
    65.9729     2328.00000
    65.9860     2302.00000
    65.9991     2314.00000
    66.0123     2315.00000
    66.0254     2272.00000
    66.0385     2371.00000
    66.0516     2299.00000
    66.0648     2323.00000
    66.0779     2399.00000
    66.0910     2405.00000
    66.1042     2313.00000
    66.1173     2320.00000
    66.1304     2239.00000
    66.1436     2333.00000
    66.1567     2282.00000
    66.1698     2259.00000
    66.1829     2321.00000
    66.1961     2321.00000
    66.2092     2318.00000
    66.2223     2260.00000
    66.2355     2271.00000
    66.2486     2291.00000
    66.2617     2308.00000
    66.2749     2329.00000
    66.2880     2295.00000
    66.3011     2421.00000
    66.3142     2283.00000
    66.3274     2330.00000
    66.3405     2250.00000
    66.3536     2271.00000
    66.3668     2328.00000
    66.3799     2295.00000
    66.3930     2196.00000
    66.4062     2307.00000
    66.4193     2362.00000
    66.4324     2358.00000
    66.4455     2332.00000
    66.4587     2348.00000
    66.4718     2204.00000
    66.4849     2374.00000
    66.4981     2313.00000
    66.5112     2345.00000
    66.5243     2323.00000
    66.5375     2322.00000
    66.5506     2320.00000
    66.5637     2384.00000
    66.5769     2318.00000
    66.5900     2416.00000
    66.6031     2524.00000
    66.6162     2420.00000
    66.6294     2609.00000
    66.6425     2519.00000
    66.6556     2554.00000
    66.6688     2440.00000
    66.6819     2516.00000
    66.6950     2395.00000
    66.7082     2385.00000
    66.7213     2412.00000
    66.7344     2305.00000
    66.7476     2356.00000
    66.7607     2582.00000
    66.7738     2582.00000
    66.7869     2715.00000
    66.8001     2592.00000
    66.8132     2627.00000
    66.8263     2512.00000
    66.8395     2648.00000
    66.8526     2478.00000
    66.8657     2397.00000
    66.8789     2348.00000
    66.8920     2333.00000
    66.9051     2401.00000
    66.9182     2275.00000
    66.9314     2293.00000
    66.9445     2375.00000
    66.9576     2338.00000
    66.9708     2439.00000
    66.9839     2390.00000
    66.9970     2438.00000
    67.0102     2400.00000
    67.0233     2385.00000
    67.0364     2339.00000
    67.0495     2313.00000
    67.0627     2366.00000
    67.0758     2398.00000
    67.0889     2248.00000
    67.1021     2282.00000
    67.1152     2343.00000
    67.1283     2363.00000
    67.1415     2304.00000
    67.1546     2387.00000
    67.1677     2255.00000
    67.1808     2293.00000
    67.1940     2281.00000
    67.2071     2266.00000
    67.2202     2213.00000
    67.2334     2387.00000
    67.2465     2229.00000
    67.2596     2246.00000
    67.2728     2297.00000
    67.2859     2312.00000
    67.2990     2255.00000
    67.3121     2336.00000
    67.3253     2373.00000
    67.3384     2386.00000
    67.3515     2298.00000
    67.3647     2328.00000
    67.3778     2336.00000
    67.3909     2230.00000
    67.4041     2399.00000
    67.4172     2286.00000
    67.4303     2327.00000
    67.4435     2265.00000
    67.4566     2265.00000
    67.4697     2314.00000
    67.4828     2417.00000
    67.4960     2275.00000
    67.5091     2322.00000
    67.5222     2283.00000
    67.5354     2288.00000
    67.5485     2241.00000
    67.5616     2321.00000
    67.5748     2340.00000
    67.5879     2232.00000
    67.6010     2245.00000
    67.6142     2360.00000
    67.6273     2428.00000
    67.6404     2408.00000
    67.6535     2413.00000
    67.6667     2390.00000
    67.6798     2306.00000
    67.6929     2454.00000
    67.7061     2295.00000
    67.7192     2197.00000
    67.7323     2256.00000
    67.7455     2355.00000
    67.7586     2373.00000
    67.7717     2355.00000
    67.7848     2425.00000
    67.7980     2320.00000
    67.8111     2320.00000
    67.8242     2418.00000
    67.8374     2291.00000
    67.8505     2362.00000
    67.8636     2356.00000
    67.8768     2338.00000
    67.8899     2384.00000
    67.9030     2362.00000
    67.9161     2281.00000
    67.9293     2433.00000
    67.9424     2489.00000
    67.9555     2488.00000
    67.9687     2400.00000
    67.9818     2511.00000
    67.9949     2531.00000
    68.0081     2818.00000
    68.0212     2985.00000
    68.0343     3228.00000
    68.0474     3238.00000
    68.0606     3620.00000
    68.0737     3545.00000
    68.0868     3343.00000
    68.1000     3107.00000
    68.1131     3024.00000
    68.1262     2748.00000
    68.1394     2637.00000
    68.1525     2596.00000
    68.1656     2514.00000
    68.1787     2582.00000
    68.1919     2623.00000
    68.2050     2628.00000
    68.2181     2815.00000
    68.2313     2962.00000
    68.2444     2881.00000
    68.2575     2985.00000
    68.2707     2955.00000
    68.2838     2848.00000
    68.2969     2833.00000
    68.3101     2707.00000
    68.3232     2702.00000
    68.3363     2561.00000
    68.3494     2561.00000
    68.3626     2529.00000
    68.3757     2543.00000
    68.3888     2715.00000
    68.4020     2756.00000
    68.4151     2852.00000
    68.4282     2882.00000
    68.4414     2786.00000
    68.4545     2771.00000
    68.4676     2768.00000
    68.4807     2668.00000
    68.4939     2606.00000
    68.5070     2635.00000
    68.5201     2599.00000
    68.5333     2585.00000
    68.5464     2681.00000
    68.5595     2713.00000
    68.5727     2684.00000
    68.5858     2617.00000
    68.5989     2787.00000
    68.6120     2781.00000
    68.6252     2664.00000
    68.6383     2745.00000
    68.6514     2708.00000
    68.6646     2575.00000
    68.6777     2546.00000
    68.6908     2572.00000
    68.7040     2515.00000
    68.7171     2657.00000
    68.7302     2546.00000
    68.7434     2575.00000
    68.7565     2585.00000
    68.7696     2715.00000
    68.7827     2692.00000
    68.7959     2682.00000
    68.8090     2751.00000
    68.8221     2866.00000
    68.8353     2966.00000
    68.8484     3283.00000
    68.8615     3677.00000
    68.8747     4328.00000
    68.8878     4918.00000
    68.9009     5409.00000
    68.9140     5367.00000
    68.9272     4923.00000
    68.9403     4288.00000
    68.9534     3775.00000
    68.9666     3384.00000
    68.9797     3036.00000
    68.9928     2953.00000
    69.0060     2877.00000
    69.0191     2783.00000
    69.0322     2857.00000
    69.0453     2946.00000
    69.0585     3207.00000
    69.0716     3439.00000
    69.0847     3819.00000
    69.0979     3876.00000
    69.1110     3905.00000
    69.1241     3741.00000
    69.1373     3342.00000
    69.1504     3114.00000
    69.1635     3008.00000
    69.1767     2863.00000
    69.1898     2733.00000
    69.2029     2692.00000
    69.2160     2644.00000
    69.2292     2688.00000
    69.2423     2760.00000
    69.2554     2807.00000
    69.2686     2917.00000
    69.2817     3401.00000
    69.2948     3614.00000
    69.3080     3896.00000
    69.3211     4024.00000
    69.3342     3667.00000
    69.3473     3469.00000
    69.3605     3231.00000
    69.3736     2940.00000
    69.3867     2735.00000
    69.3999     2652.00000
    69.4130     2747.00000
    69.4261     2761.00000
    69.4393     2717.00000
    69.4524     2731.00000
    69.4655     2819.00000
    69.4786     2966.00000
    69.4918     3105.00000
    69.5049     3233.00000
    69.5180     3319.00000
    69.5312     3116.00000
    69.5443     3080.00000
    69.5574     2946.00000
    69.5706     2942.00000
    69.5837     2957.00000
    69.5968     2917.00000
    69.6099     3004.00000
    69.6231     3032.00000
    69.6362     3238.00000
    69.6493     3448.00000
    69.6625     3523.00000
    69.6756     3582.00000
    69.6887     3733.00000
    69.7019     3595.00000
    69.7150     3793.00000
    69.7281     3696.00000
    69.7413     3701.00000
    69.7544     3664.00000
    69.7675     3593.00000
    69.7806     3408.00000
    69.7938     3132.00000
    69.8069     3273.00000
    69.8200     3266.00000
    69.8332     3327.00000
    69.8463     3372.00000
    69.8594     3653.00000
    69.8726     3761.00000
    69.8857     4054.00000
    69.8988     4354.00000
    69.9119     4807.00000
    69.9251     5442.00000
    69.9382     5978.00000
    69.9513     6598.00000
    69.9645     6986.00000
    69.9776     7059.00000
    69.9907     6889.00000
    70.0039     6385.00000
    70.0170     5749.00000
    70.0301     5083.00000
    70.0433     4638.00000
    70.0564     4460.00000
    70.0695     4326.00000
    70.0826     4129.00000
    70.0958     4269.00000
    70.1089     4083.00000
    70.1220     4239.00000
    70.1352     4338.00000
    70.1483     4676.00000
    70.1614     4899.00000
    70.1746     5119.00000
    70.1877     4961.00000
    70.2008     4980.00000
    70.2139     4884.00000
    70.2271     4823.00000
    70.2402     4872.00000
    70.2533     4913.00000
    70.2665     4796.00000
    70.2796     4721.00000
    70.2927     4441.00000
    70.3059     4151.00000
    70.3190     3822.00000
    70.3321     3673.00000
    70.3452     3427.00000
    70.3584     3436.00000
    70.3715     3313.00000
    70.3846     3357.00000
    70.3978     3464.00000
    70.4109     3702.00000
    70.4240     3955.00000
    70.4372     4179.00000
    70.4503     4360.00000
    70.4634     4940.00000
    70.4765     5244.00000
    70.4897     5367.00000
    70.5028     5504.00000
    70.5159     5624.00000
    70.5291     5208.00000
    70.5422     4985.00000
    70.5553     4495.00000
    70.5685     3894.00000
    70.5816     3552.00000
    70.5947     3354.00000
    70.6078     3349.00000
    70.6210     3354.00000
    70.6341     3249.00000
    70.6472     3352.00000
    70.6604     3510.00000
    70.6735     3609.00000
    70.6866     3805.00000
    70.6998     3829.00000
    70.7129     4186.00000
    70.7260     3998.00000
    70.7392     4014.00000
    70.7523     3779.00000
    70.7654     3580.00000
    70.7785     3294.00000
    70.7917     3067.00000
    70.8048     2981.00000
    70.8179     2811.00000
    70.8311     2859.00000
    70.8442     2771.00000
    70.8573     2925.00000
    70.8705     3009.00000
    70.8836     2808.00000
    70.8967     2834.00000
    70.9099     2938.00000
    70.9230     2747.00000
    70.9361     2866.00000
    70.9492     2810.00000
    70.9624     2769.00000
    70.9755     2789.00000
    70.9886     2801.00000
    71.0018     2767.00000
    71.0149     2790.00000
    71.0280     2774.00000
    71.0412     2884.00000
    71.0543     2843.00000
    71.0674     2964.00000
    71.0805     3180.00000
    71.0937     3244.00000
    71.1068     3360.00000
    71.1199     3543.00000
    71.1331     3667.00000
    71.1462     3928.00000
    71.1593     4061.00000
    71.1725     4042.00000
    71.1856     4180.00000
    71.1987     4176.00000
    71.2118     4149.00000
    71.2250     4362.00000
    71.2381     4124.00000
    71.2512     4102.00000
    71.2644     3986.00000
    71.2775     3992.00000
    71.2906     3994.00000
    71.3038     4200.00000
    71.3169     4656.00000
    71.3300     5159.00000
    71.3431     5833.00000
    71.3563     6087.00000
    71.3694     5998.00000
    71.3825     5462.00000
    71.3957     4774.00000
    71.4088     4285.00000
    71.4219     4086.00000
    71.4351     3796.00000
    71.4482     3562.00000
    71.4613     3516.00000
    71.4744     3428.00000
    71.4876     3288.00000
    71.5007     3232.00000
    71.5138     3391.00000
    71.5270     3631.00000
    71.5401     3697.00000
    71.5532     3861.00000
    71.5664     3882.00000
    71.5795     3721.00000
    71.5926     3481.00000
    71.6058     3285.00000
    71.6189     3060.00000
    71.6320     2929.00000
    71.6451     2920.00000
    71.6583     2857.00000
    71.6714     2949.00000
    71.6845     3038.00000
    71.6977     3111.00000
    71.7108     3445.00000
    71.7239     3805.00000
    71.7371     3935.00000
    71.7502     4113.00000
    71.7633     4019.00000
    71.7764     3932.00000
    71.7896     3558.00000
    71.8027     3191.00000
    71.8158     3048.00000
    71.8290     2937.00000
    71.8421     2826.00000
    71.8552     2714.00000
    71.8684     2934.00000
    71.8815     2954.00000
    71.8946     2937.00000
    71.9078     2940.00000
    71.9209     3135.00000
    71.9340     3230.00000
    71.9471     3503.00000
    71.9603     3428.00000
    71.9734     3553.00000
    71.9865     3257.00000
    71.9997     3238.00000
    72.0128     3100.00000
    72.0259     3106.00000
    72.0391     2985.00000
    72.0522     3153.00000
    72.0653     3201.00000
    72.0784     3202.00000
    72.0916     3210.00000
    72.1047     3414.00000
    72.1178     3368.00000
    72.1310     3476.00000
    72.1441     3481.00000
    72.1572     3433.00000
    72.1704     3322.00000
    72.1835     3346.00000
    72.1966     3281.00000
    72.2097     3229.00000
    72.2229     3065.00000
    72.2360     2921.00000
    72.2491     2795.00000
    72.2623     2882.00000
    72.2754     2760.00000
    72.2885     2812.00000
    72.3017     2791.00000
    72.3148     2934.00000
    72.3279     2903.00000
    72.3410     2976.00000
    72.3542     2865.00000
    72.3673     2857.00000
    72.3804     2913.00000
    72.3936     2807.00000
    72.4067     2855.00000
    72.4198     2684.00000
    72.4330     2722.00000
    72.4461     2487.00000
    72.4592     2500.00000
    72.4724     2580.00000
    72.4855     2497.00000
    72.4986     2444.00000
    72.5117     2406.00000
    72.5249     2503.00000
    72.5380     2449.00000
    72.5511     2515.00000
    72.5643     2540.00000
    72.5774     2564.00000
    72.5905     2407.00000
    72.6037     2513.00000
    72.6168     2453.00000
    72.6299     2557.00000
    72.6430     2390.00000
    72.6562     2480.00000
    72.6693     2536.00000
    72.6824     2435.00000
    72.6956     2542.00000
    72.7087     2632.00000
    72.7218     2715.00000
    72.7350     2759.00000
    72.7481     2656.00000
    72.7612     2844.00000
    72.7743     2873.00000
    72.7875     3098.00000
    72.8006     3281.00000
    72.8137     3492.00000
    72.8269     3718.00000
    72.8400     3930.00000
    72.8531     4097.00000
    72.8663     4190.00000
    72.8794     4058.00000
    72.8925     3851.00000
    72.9057     3607.00000
    72.9188     3324.00000
    72.9319     3047.00000
    72.9450     2869.00000
    72.9582     2836.00000
    72.9713     2842.00000
    72.9844     2860.00000
    72.9976     2852.00000
    73.0107     2930.00000
    73.0238     3070.00000
    73.0370     3225.00000
    73.0501     3259.00000
    73.0632     3254.00000
    73.0763     3335.00000
    73.0895     3279.00000
    73.1026     3158.00000
    73.1157     3039.00000
    73.1289     2912.00000
    73.1420     2788.00000
    73.1551     2675.00000
    73.1683     2726.00000
    73.1814     2705.00000
    73.1945     2630.00000
    73.2076     2818.00000
    73.2208     2773.00000
    73.2339     2805.00000
    73.2470     3064.00000
    73.2602     3161.00000
    73.2733     3317.00000
    73.2864     3573.00000
    73.2996     3808.00000
    73.3127     4060.00000
    73.3258     4224.00000
    73.3390     4304.00000
    73.3521     4086.00000
    73.3652     3987.00000
    73.3783     3712.00000
    73.3915     3440.00000
    73.4046     3162.00000
    73.4177     3052.00000
    73.4309     3082.00000
    73.4440     3042.00000
    73.4571     3026.00000
    73.4703     3254.00000
    73.4834     3347.00000
    73.4965     3398.00000
    73.5096     3641.00000
    73.5228     3513.00000
    73.5359     3649.00000
    73.5490     3492.00000
    73.5622     3546.00000
    73.5753     3432.00000
    73.5884     3241.00000
    73.6016     3142.00000
    73.6147     3174.00000
    73.6278     3171.00000
    73.6409     3213.00000
    73.6541     3161.00000
    73.6672     3366.00000
    73.6803     3526.00000
    73.6935     3688.00000
    73.7066     4043.00000
    73.7197     4105.00000
    73.7329     4298.00000
    73.7460     4319.00000
    73.7591     4391.00000
    73.7722     4255.00000
    73.7854     3917.00000
    73.7985     3624.00000
    73.8116     3350.00000
    73.8248     3178.00000
    73.8379     3133.00000
    73.8510     3059.00000
    73.8642     3027.00000
    73.8773     3151.00000
    73.8904     3037.00000
    73.9035     3022.00000
    73.9167     3281.00000
    73.9298     3369.00000
    73.9429     3353.00000
    73.9561     3368.00000
    73.9692     3315.00000
    73.9823     3348.00000
    73.9955     3168.00000
    74.0086     3151.00000
    74.0217     2879.00000
    74.0349     2854.00000
    74.0480     2801.00000
    74.0611     2766.00000
    74.0742     2699.00000
    74.0874     2666.00000
    74.1005     2776.00000
    74.1136     2714.00000
    74.1268     2732.00000
    74.1399     2843.00000
    74.1530     2876.00000
    74.1662     3082.00000
    74.1793     3374.00000
    74.1924     3658.00000
    74.2056     4135.00000
    74.2187     4544.00000
    74.2318     4855.00000
    74.2449     5170.00000
    74.2581     5198.00000
    74.2712     5214.00000
    74.2843     4840.00000
    74.2975     4924.00000
    74.3106     5010.00000
    74.3237     5072.00000
    74.3369     5216.00000
    74.3500     5192.00000
    74.3631     5228.00000
    74.3762     4723.00000
    74.3894     4307.00000
    74.4025     4081.00000
    74.4156     3881.00000
    74.4288     3816.00000
    74.4419     3882.00000
    74.4550     3937.00000
    74.4682     3951.00000
    74.4813     3906.00000
    74.4944     3854.00000
    74.5075     3707.00000
    74.5207     3669.00000
    74.5338     3699.00000
    74.5469     3751.00000
    74.5601     3794.00000
    74.5732     3765.00000
    74.5863     3544.00000
    74.5995     3311.00000
    74.6126     3187.00000
    74.6257     3010.00000
    74.6388     2741.00000
    74.6520     2638.00000
    74.6651     2586.00000
    74.6782     2470.00000
    74.6914     2509.00000
    74.7045     2391.00000
    74.7176     2471.00000
    74.7308     2405.00000
    74.7439     2406.00000
    74.7570     2430.00000
    74.7701     2396.00000
    74.7833     2264.00000
    74.7964     2323.00000
    74.8095     2327.00000
    74.8227     2313.00000
    74.8358     2404.00000
    74.8489     2337.00000
    74.8621     2318.00000
    74.8752     2313.00000
    74.8883     2346.00000
    74.9015     2280.00000
    74.9146     2307.00000
    74.9277     2362.00000
    74.9408     2493.00000
    74.9540     2345.00000
    74.9671     2320.00000
    74.9802     2428.00000
    74.9934     2268.00000
    75.0065     2327.00000
    75.0196     2322.00000
    75.0328     2263.00000
    75.0459     2375.00000
    75.0590     2309.00000
    75.0722     2327.00000
    75.0853     2273.00000
    75.0984     2380.00000
    75.1115     2383.00000
    75.1247     2367.00000
    75.1378     2357.00000
    75.1509     2313.00000
    75.1641     2338.00000
    75.1772     2288.00000
    75.1903     2341.00000
    75.2035     2346.00000
    75.2166     2277.00000
    75.2297     2301.00000
    75.2428     2313.00000
    75.2560     2402.00000
    75.2691     2378.00000
    75.2822     2328.00000
    75.2954     2394.00000
    75.3085     2401.00000
    75.3216     2313.00000
    75.3348     2279.00000
    75.3479     2343.00000
    75.3610     2381.00000
    75.3741     2380.00000
    75.3873     2281.00000
    75.4004     2270.00000
    75.4135     2285.00000
    75.4267     2323.00000
    75.4398     2326.00000
    75.4529     2326.00000
    75.4661     2417.00000
    75.4792     2345.00000
    75.4923     2306.00000
    75.5054     2296.00000
    75.5186     2415.00000
    75.5317     2333.00000
    75.5448     2315.00000
    75.5580     2309.00000
    75.5711     2414.00000
    75.5842     2425.00000
    75.5974     2352.00000
    75.6105     2278.00000
    75.6236     2356.00000
    75.6367     2344.00000
    75.6499     2352.00000
    75.6630     2301.00000
    75.6761     2334.00000
    75.6893     2362.00000
    75.7024     2531.00000
    75.7155     2433.00000
    75.7287     2375.00000
    75.7418     2412.00000
    75.7549     2468.00000
    75.7681     2480.00000
    75.7812     2434.00000
    75.7943     2500.00000
    75.8074     2442.00000
    75.8206     2428.00000
    75.8337     2540.00000
    75.8468     2513.00000
    75.8600     2456.00000
    75.8731     2404.00000
    75.8862     2521.00000
    75.8994     2380.00000
    75.9125     2448.00000
    75.9256     2383.00000
    75.9387     2468.00000
    75.9519     2401.00000
    75.9650     2450.00000
    75.9781     2371.00000
    75.9913     2500.00000
    76.0044     2467.00000
    76.0175     2506.00000
    76.0307     2412.00000
    76.0438     2501.00000
    76.0569     2389.00000
    76.0701     2502.00000
    76.0832     2509.00000
    76.0963     2518.00000
    76.1094     2516.00000
    76.1226     2565.00000
    76.1357     2598.00000
    76.1488     2643.00000
    76.1620     2555.00000
    76.1751     2719.00000
    76.1882     2739.00000
    76.2014     2782.00000
    76.2145     2881.00000
    76.2276     2859.00000
    76.2407     2711.00000
    76.2539     2849.00000
    76.2670     2912.00000
    76.2801     2763.00000
    76.2933     2794.00000
    76.3064     2676.00000
    76.3195     2727.00000
    76.3327     2641.00000
    76.3458     2788.00000
    76.3589     2769.00000
    76.3720     2916.00000
    76.3852     3112.00000
    76.3983     3188.00000
    76.4114     3371.00000
    76.4246     3524.00000
    76.4377     3712.00000
    76.4508     3911.00000
    76.4640     4322.00000
    76.4771     4636.00000
    76.4902     4639.00000
    76.5033     4676.00000
    76.5165     4793.00000
    76.5296     4609.00000
    76.5427     4339.00000
    76.5559     3990.00000
    76.5690     3722.00000
    76.5821     3490.00000
    76.5953     3204.00000
    76.6084     3239.00000
    76.6215     3164.00000
    76.6347     3021.00000
    76.6478     3140.00000
    76.6609     3146.00000
    76.6740     3324.00000
    76.6872     3422.00000
    76.7003     3437.00000
    76.7134     3518.00000
    76.7266     3606.00000
    76.7397     3481.00000
    76.7528     3505.00000
    76.7660     3348.00000
    76.7791     3210.00000
    76.7922     2992.00000
    76.8053     2891.00000
    76.8185     2711.00000
    76.8316     2564.00000
    76.8447     2639.00000
    76.8579     2694.00000
    76.8710     2578.00000
    76.8841     2616.00000
    76.8973     2602.00000
    76.9104     2485.00000
    76.9235     2572.00000
    76.9366     2555.00000
    76.9498     2490.00000
    76.9629     2455.00000
    76.9760     2524.00000
    76.9892     2446.00000
    77.0023     2498.00000
    77.0154     2582.00000
    77.0286     2455.00000
    77.0417     2467.00000
    77.0548     2594.00000
    77.0679     2397.00000
    77.0811     2633.00000
    77.0942     2485.00000
    77.1073     2555.00000
    77.1205     2668.00000
    77.1336     2865.00000
    77.1467     2780.00000
    77.1599     2930.00000
    77.1730     2960.00000
    77.1861     3115.00000
    77.1993     3251.00000
    77.2124     3552.00000
    77.2255     3834.00000
    77.2386     3985.00000
    77.2518     4237.00000
    77.2649     4389.00000
    77.2780     4349.00000
    77.2912     4572.00000
    77.3043     4465.00000
    77.3174     4443.00000
    77.3306     4192.00000
    77.3437     3970.00000
    77.3568     3737.00000
    77.3699     3394.00000
    77.3831     3196.00000
    77.3962     3177.00000
    77.4093     3082.00000
    77.4225     3088.00000
    77.4356     3225.00000
    77.4487     3129.00000
    77.4619     3360.00000
    77.4750     3414.00000
    77.4881     3360.00000
    77.5013     3497.00000
    77.5144     3384.00000
    77.5275     3480.00000
    77.5406     3487.00000
    77.5538     3448.00000
    77.5669     3328.00000
    77.5800     3159.00000
    77.5932     3079.00000
    77.6063     3013.00000
    77.6194     2973.00000
    77.6326     2929.00000
    77.6457     2991.00000
    77.6588     3184.00000
    77.6719     3150.00000
    77.6851     3038.00000
    77.6982     3017.00000
    77.7113     3012.00000
    77.7245     2927.00000
    77.7376     2759.00000
    77.7507     2628.00000
    77.7639     2615.00000
    77.7770     2563.00000
    77.7901     2468.00000
    77.8032     2533.00000
    77.8164     2468.00000
    77.8295     2465.00000
    77.8426     2675.00000
    77.8558     2615.00000
    77.8689     2602.00000
    77.8820     2558.00000
    77.8952     2751.00000
    77.9083     2772.00000
    77.9214     2646.00000
    77.9345     2783.00000
    77.9477     2664.00000
    77.9608     2634.00000
    77.9739     2622.00000
    77.9871     2591.00000
    78.0002     2549.00000
    78.0133     2746.00000
    78.0265     2734.00000
    78.0396     2883.00000
    78.0527     2927.00000
    78.0658     2936.00000
    78.0790     2954.00000
    78.0921     2872.00000
    78.1052     2880.00000
    78.1184     2723.00000
    78.1315     2778.00000
    78.1446     2650.00000
    78.1578     2622.00000
    78.1709     2470.00000
    78.1840     2557.00000
    78.1972     2554.00000
    78.2103     2506.00000
    78.2234     2486.00000
    78.2365     2535.00000
    78.2497     2626.00000
    78.2628     2596.00000
    78.2759     2626.00000
    78.2891     2639.00000
    78.3022     2683.00000
    78.3153     2717.00000
    78.3285     2788.00000
    78.3416     2666.00000
    78.3547     2598.00000
    78.3679     2576.00000
    78.3810     2613.00000
    78.3941     2518.00000
    78.4072     2659.00000
    78.4204     2632.00000
    78.4335     2711.00000
    78.4466     2827.00000
    78.4598     2991.00000
    78.4729     3098.00000
    78.4860     3272.00000
    78.4992     3337.00000
    78.5123     3433.00000
    78.5254     3424.00000
    78.5385     3421.00000
    78.5517     3463.00000
    78.5648     3580.00000
    78.5779     3540.00000
    78.5911     3551.00000
    78.6042     3483.00000
    78.6173     3472.00000
    78.6305     3326.00000
    78.6436     3197.00000
    78.6567     3059.00000
    78.6698     3009.00000
    78.6830     2894.00000
    78.6961     2902.00000
    78.7092     2963.00000
    78.7224     3002.00000
    78.7355     3160.00000
    78.7486     3135.00000
    78.7618     3184.00000
    78.7749     3245.00000
    78.7880     3285.00000
    78.8011     3510.00000
    78.8143     3404.00000
    78.8274     3419.00000
    78.8405     3682.00000
    78.8537     3706.00000
    78.8668     3689.00000
    78.8799     3501.00000
    78.8931     3433.00000
    78.9062     3288.00000
    78.9193     3179.00000
    78.9324     3082.00000
    78.9456     3119.00000
    78.9587     3031.00000
    78.9718     3118.00000
    78.9850     3191.00000
    78.9981     3149.00000
    79.0112     3381.00000
    79.0244     3577.00000
    79.0375     3564.00000
    79.0506     3869.00000
    79.0638     3994.00000
    79.0769     4092.00000
    79.0900     4133.00000
    79.1031     4060.00000
    79.1163     3946.00000
    79.1294     3824.00000
    79.1425     3748.00000
    79.1557     3679.00000
    79.1688     3867.00000
    79.1819     3850.00000
    79.1951     3944.00000
    79.2082     3933.00000
    79.2213     3951.00000
    79.2345     4113.00000
    79.2476     3985.00000
    79.2607     3954.00000
    79.2738     4029.00000
    79.2870     4151.00000
    79.3001     3970.00000
    79.3132     3837.00000
    79.3264     3674.00000
    79.3395     3636.00000
    79.3526     3327.00000
    79.3658     3284.00000
    79.3789     3141.00000
    79.3920     3168.00000
    79.4051     3195.00000
    79.4183     3281.00000
    79.4314     3284.00000
    79.4445     3170.00000
    79.4577     3210.00000
    79.4708     3265.00000
    79.4839     3286.00000
    79.4971     3294.00000
    79.5102     3315.00000
    79.5233     3432.00000
    79.5364     3563.00000
    79.5496     3536.00000
    79.5627     3732.00000
    79.5758     3787.00000
    79.5890     4146.00000
    79.6021     4373.00000
    79.6152     4231.00000
    79.6284     4237.00000
    79.6415     3997.00000
    79.6546     3673.00000
    79.6677     3366.00000
    79.6809     3386.00000
    79.6940     3127.00000
    79.7071     3042.00000
    79.7203     3041.00000
    79.7334     2985.00000
    79.7465     2945.00000
    79.7597     2933.00000
    79.7728     2889.00000
    79.7859     2969.00000
    79.7990     2953.00000
    79.8122     3151.00000
    79.8253     3388.00000
    79.8384     3472.00000
    79.8516     3369.00000
    79.8647     3435.00000
    79.8778     3352.00000
    79.8910     3276.00000
    79.9041     3204.00000
    79.9172     3183.00000
    79.9304     3163.00000
    79.9435     3158.00000
    79.9566     3067.00000
    79.9697     2892.00000
    79.9829     2886.00000
    79.9960     2958.00000
    80.0091     2798.00000
    80.0223     2767.00000
    80.0354     2793.00000
    80.0485     2798.00000
    80.0617     2727.00000
    80.0748     2752.00000
    80.0879     2652.00000
    80.1010     2684.00000
    80.1142     2733.00000
    80.1273     2769.00000
    80.1404     2801.00000
    80.1536     2813.00000
    80.1667     2789.00000
    80.1798     2853.00000
    80.1930     2869.00000
    80.2061     2908.00000
    80.2192     2956.00000
    80.2323     2942.00000
    80.2455     3086.00000
    80.2586     3144.00000
    80.2717     3296.00000
    80.2849     3362.00000
    80.2980     3726.00000
    80.3111     3921.00000
    80.3243     4150.00000
    80.3374     4624.00000
    80.3505     5051.00000
    80.3637     5727.00000
    80.3768     6083.00000
    80.3899     6535.00000
    80.4030     6609.00000
    80.4162     6374.00000
    80.4293     6380.00000
    80.4424     5922.00000
    80.4556     5837.00000
    80.4687     5631.00000
    80.4818     5594.00000
    80.4950     5460.00000
    80.5081     5330.00000
    80.5212     5170.00000
    80.5343     5010.00000
    80.5475     4854.00000
    80.5606     4699.00000
    80.5737     4624.00000
    80.5869     4568.00000
    80.6000     4732.00000
    80.6131     4951.00000
    80.6263     5126.00000
    80.6394     5388.00000
    80.6525     5433.00000
    80.6656     5513.00000
    80.6788     5383.00000
    80.6919     5584.00000
    80.7050     5774.00000
    80.7182     5750.00000
    80.7313     5504.00000
    80.7444     5525.00000
    80.7576     5178.00000
    80.7707     4924.00000
    80.7838     4941.00000
    80.7970     4757.00000
    80.8101     4665.00000
    80.8232     4557.00000
    80.8363     4276.00000
    80.8495     4106.00000
    80.8626     3957.00000
    80.8757     3866.00000
    80.8889     3626.00000
    80.9020     3407.00000
    80.9151     3465.00000
    80.9283     3551.00000
    80.9414     3551.00000
    80.9545     3618.00000
    80.9676     3587.00000
    80.9808     3428.00000
    80.9939     3502.00000
    81.0070     3452.00000
    81.0202     3353.00000
    81.0333     3410.00000
    81.0464     3428.00000
    81.0596     3504.00000
    81.0727     3357.00000
    81.0858     3294.00000
    81.0989     3418.00000
    81.1121     3250.00000
    81.1252     3311.00000
    81.1383     3283.00000
    81.1515     3363.00000
    81.1646     3388.00000
    81.1777     3394.00000
    81.1909     3556.00000
    81.2040     3614.00000
    81.2171     3672.00000
    81.2302     3536.00000
    81.2434     3550.00000
    81.2565     3428.00000
    81.2696     3461.00000
    81.2828     3357.00000
    81.2959     3392.00000
    81.3090     3493.00000
    81.3222     3395.00000
    81.3353     3437.00000
    81.3484     3473.00000
    81.3616     3507.00000
    81.3747     3552.00000
    81.3878     3518.00000
    81.4009     3527.00000
    81.4141     3447.00000
    81.4272     3470.00000
    81.4403     3378.00000
    81.4535     3273.00000
    81.4666     3269.00000
    81.4797     3148.00000
    81.4929     2955.00000
    81.5060     2987.00000
    81.5191     3061.00000
    81.5322     2852.00000
    81.5454     2900.00000
    81.5585     2859.00000
    81.5716     2915.00000
    81.5848     2803.00000
    81.5979     2848.00000
    81.6110     2807.00000
    81.6242     2806.00000
    81.6373     2739.00000
    81.6504     2844.00000
    81.6636     2717.00000
    81.6767     2566.00000
    81.6898     2443.00000
    81.7029     2587.00000
    81.7161     2443.00000
    81.7292     2528.00000
    81.7423     2483.00000
    81.7555     2459.00000
    81.7686     2423.00000
    81.7817     2508.00000
    81.7949     2514.00000
    81.8080     2458.00000
    81.8211     2436.00000
    81.8342     2402.00000
    81.8474     2484.00000
    81.8605     2455.00000
    81.8736     2464.00000
    81.8868     2433.00000
    81.8999     2439.00000
    81.9130     2444.00000
    81.9262     2569.00000
    81.9393     2403.00000
    81.9524     2460.00000
    81.9655     2444.00000
    81.9787     2496.00000
    81.9918     2413.00000
    82.0049     2372.00000
    82.0181     2507.00000
    82.0312     2543.00000
    82.0443     2435.00000
    82.0575     2529.00000
    82.0706     2536.00000
    82.0837     2637.00000
    82.0968     2544.00000
    82.1100     2634.00000
    82.1231     2756.00000
    82.1362     2865.00000
    82.1494     2839.00000
    82.1625     2930.00000
    82.1756     3020.00000
    82.1888     3186.00000
    82.2019     3185.00000
    82.2150     3365.00000
    82.2281     3432.00000
    82.2413     3433.00000
    82.2544     3618.00000
    82.2675     3657.00000
    82.2807     3737.00000
    82.2938     3921.00000
    82.3069     3896.00000
    82.3201     3932.00000
    82.3332     3942.00000
    82.3463     3876.00000
    82.3595     4094.00000
    82.3726     4022.00000
    82.3857     3884.00000
    82.3988     3788.00000
    82.4120     3663.00000
    82.4251     3385.00000
    82.4382     3343.00000
    82.4514     3233.00000
    82.4645     3139.00000
    82.4776     3212.00000
    82.4908     3072.00000
    82.5039     3120.00000
    82.5170     3184.00000
    82.5302     3304.00000
    82.5433     3320.00000
    82.5564     3368.00000
    82.5695     3400.00000
    82.5827     3505.00000
    82.5958     3626.00000
    82.6089     3928.00000
    82.6221     4120.00000
    82.6352     4388.00000
    82.6483     4430.00000
    82.6615     4078.00000
    82.6746     3799.00000
    82.6877     3520.00000
    82.7008     3058.00000
    82.7140     2994.00000
    82.7271     2852.00000
    82.7402     2760.00000
    82.7534     2708.00000
    82.7665     2655.00000
    82.7796     2611.00000
    82.7928     2498.00000
    82.8059     2484.00000
    82.8190     2608.00000
    82.8321     2646.00000
    82.8453     2713.00000
    82.8584     2806.00000
    82.8715     2987.00000
    82.8847     2908.00000
    82.8978     3176.00000
    82.9109     3151.00000
    82.9241     2972.00000
    82.9372     2905.00000
    82.9503     2777.00000
    82.9634     2738.00000
    82.9766     2576.00000
    82.9897     2451.00000
    83.0028     2678.00000
    83.0160     2584.00000
    83.0291     2575.00000
    83.0422     2555.00000
    83.0554     2497.00000
    83.0685     2395.00000
    83.0816     2414.00000
    83.0947     2423.00000
    83.1079     2386.00000
    83.1210     2431.00000
    83.1341     2409.00000
    83.1473     2348.00000
    83.1604     2341.00000
    83.1735     2435.00000
    83.1867     2384.00000
    83.1998     2449.00000
    83.2129     2402.00000
    83.2261     2468.00000
    83.2392     2403.00000
    83.2523     2329.00000
    83.2654     2467.00000
    83.2786     2297.00000
    83.2917     2349.00000
    83.3048     2444.00000
    83.3180     2436.00000
    83.3311     2430.00000
    83.3442     2357.00000
    83.3574     2458.00000
    83.3705     2298.00000
    83.3836     2332.00000
    83.3967     2373.00000
    83.4099     2444.00000
    83.4230     2420.00000
    83.4361     2401.00000
    83.4493     2381.00000
    83.4624     2427.00000
    83.4755     2458.00000
    83.4887     2369.00000
    83.5018     2459.00000
    83.5149     2439.00000
    83.5281     2548.00000
    83.5412     2514.00000
    83.5543     2683.00000
    83.5674     2549.00000
    83.5806     2550.00000
    83.5937     2681.00000
    83.6068     2671.00000
    83.6200     2577.00000
    83.6331     2513.00000
    83.6462     2538.00000
    83.6594     2683.00000
    83.6725     2599.00000
    83.6856     2532.00000
    83.6987     2671.00000
    83.7119     2622.00000
    83.7250     2654.00000
    83.7381     2722.00000
    83.7513     2693.00000
    83.7644     2688.00000
    83.7775     2660.00000
    83.7907     2602.00000
    83.8038     2824.00000
    83.8169     2782.00000
    83.8300     2752.00000
    83.8432     2952.00000
    83.8563     2986.00000
    83.8694     3174.00000
    83.8826     3230.00000
    83.8957     3311.00000
    83.9088     3455.00000
    83.9220     3278.00000
    83.9351     3229.00000
    83.9482     3102.00000
    83.9613     2886.00000
    83.9745     2798.00000
    83.9876     2677.00000
    84.0007     2666.00000
    84.0139     2651.00000
    84.0270     2665.00000
    84.0401     2509.00000
    84.0533     2592.00000
    84.0664     2527.00000
    84.0795     2621.00000
    84.0927     2575.00000
    84.1058     2585.00000
    84.1189     2682.00000
    84.1320     2784.00000
    84.1452     2774.00000
    84.1583     2801.00000
    84.1714     2882.00000
    84.1846     2845.00000
    84.1977     2655.00000
    84.2108     2612.00000
    84.2240     2578.00000
    84.2371     2438.00000
    84.2502     2420.00000
    84.2633     2523.00000
    84.2765     2355.00000
    84.2896     2376.00000
    84.3027     2398.00000
    84.3159     2403.00000
    84.3290     2402.00000
    84.3421     2326.00000
    84.3553     2317.00000
    84.3684     2344.00000
    84.3815     2401.00000
    84.3946     2314.00000
    84.4078     2397.00000
    84.4209     2399.00000
    84.4340     2371.00000
    84.4472     2416.00000
    84.4603     2390.00000
    84.4734     2440.00000
    84.4866     2420.00000
    84.4997     2425.00000
    84.5128     2498.00000
    84.5260     2488.00000
    84.5391     2432.00000
    84.5522     2441.00000
    84.5653     2488.00000
    84.5785     2472.00000
    84.5916     2409.00000
    84.6047     2389.00000
    84.6179     2391.00000
    84.6310     2332.00000
    84.6441     2380.00000
    84.6573     2411.00000
    84.6704     2435.00000
    84.6835     2297.00000
    84.6966     2442.00000
    84.7098     2379.00000
    84.7229     2400.00000
    84.7360     2387.00000
    84.7492     2282.00000
    84.7623     2323.00000
    84.7754     2394.00000
    84.7886     2373.00000
    84.8017     2384.00000
    84.8148     2387.00000
    84.8279     2399.00000
    84.8411     2367.00000
    84.8542     2430.00000
    84.8673     2480.00000
    84.8805     2387.00000
    84.8936     2375.00000
    84.9067     2419.00000
    84.9199     2415.00000
    84.9330     2388.00000
    84.9461     2530.00000
    84.9593     2442.00000
    84.9724     2516.00000
    84.9855     2366.00000
    84.9986     2434.00000
    85.0118     2439.00000
    85.0249     2355.00000
    85.0380     2351.00000
    85.0512     2312.00000
    85.0643     2337.00000
    85.0774     2332.00000
    85.0906     2345.00000
    85.1037     2281.00000
    85.1168     2345.00000
    85.1299     2423.00000
    85.1431     2349.00000
    85.1562     2401.00000
    85.1693     2324.00000
    85.1825     2282.00000
    85.1956     2294.00000
    85.2087     2345.00000
    85.2219     2398.00000
    85.2350     2405.00000
    85.2481     2389.00000
    85.2612     2469.00000
    85.2744     2533.00000
    85.2875     2310.00000
    85.3006     2454.00000
    85.3138     2422.00000
    85.3269     2304.00000
    85.3400     2339.00000
    85.3532     2430.00000
    85.3663     2420.00000
    85.3794     2496.00000
    85.3925     2486.00000
    85.4057     2449.00000
    85.4188     2614.00000
    85.4319     2644.00000
    85.4451     2777.00000
    85.4582     2866.00000
    85.4713     2869.00000
    85.4845     2827.00000
    85.4976     2890.00000
    85.5107     2787.00000
    85.5238     2997.00000
    85.5370     2973.00000
    85.5501     3003.00000
    85.5632     2954.00000
    85.5764     2918.00000
    85.5895     2885.00000
    85.6026     2794.00000
    85.6158     2790.00000
    85.6289     2672.00000
    85.6420     2782.00000
    85.6552     2751.00000
    85.6683     2971.00000
    85.6814     3085.00000
    85.6945     3155.00000
    85.7077     3182.00000
    85.7208     3449.00000
    85.7339     3665.00000
    85.7471     3740.00000
    85.7602     4060.00000
    85.7733     3998.00000
    85.7865     3824.00000
    85.7996     3802.00000
    85.8127     3910.00000
    85.8259     3732.00000
    85.8390     3927.00000
    85.8521     3781.00000
    85.8652     3804.00000
    85.8784     3639.00000
    85.8915     3462.00000
    85.9046     3306.00000
    85.9178     3320.00000
    85.9309     3204.00000
    85.9440     3180.00000
    85.9572     3289.00000
    85.9703     3319.00000
    85.9834     3376.00000
    85.9965     3501.00000
    86.0097     3486.00000
    86.0228     3620.00000
    86.0359     3550.00000
    86.0491     3672.00000
    86.0622     3525.00000
    86.0753     3606.00000
    86.0885     3360.00000
    86.1016     3344.00000
    86.1147     3289.00000
    86.1278     3183.00000
    86.1410     3153.00000
    86.1541     3029.00000
    86.1672     2912.00000
    86.1804     2884.00000
    86.1935     2739.00000
    86.2066     2808.00000
    86.2198     2714.00000
    86.2329     2749.00000
    86.2460     2681.00000
    86.2591     2706.00000
    86.2723     2686.00000
    86.2854     2627.00000
    86.2985     2622.00000
    86.3117     2543.00000
    86.3248     2675.00000
    86.3379     2658.00000
    86.3511     2589.00000
    86.3642     2523.00000
    86.3773     2516.00000
    86.3904     2485.00000
    86.4036     2514.00000
    86.4167     2446.00000
    86.4298     2453.00000
    86.4430     2332.00000
    86.4561     2395.00000
    86.4692     2442.00000
    86.4824     2392.00000
    86.4955     2360.00000
    86.5086     2459.00000
    86.5218     2473.00000
    86.5349     2405.00000
    86.5480     2379.00000
    86.5611     2439.00000
    86.5743     2397.00000
    86.5874     2476.00000
    86.6005     2556.00000
    86.6137     2558.00000
    86.6268     2577.00000
    86.6399     2770.00000
    86.6531     2764.00000
    86.6662     2731.00000
    86.6793     2857.00000
    86.6925     3029.00000
    86.7056     3064.00000
    86.7187     3042.00000
    86.7318     3067.00000
    86.7450     3006.00000
    86.7581     2857.00000
    86.7712     2834.00000
    86.7844     2787.00000
    86.7975     2706.00000
    86.8106     2552.00000
    86.8238     2589.00000
    86.8369     2573.00000
    86.8500     2495.00000
    86.8631     2485.00000
    86.8763     2623.00000
    86.8894     2549.00000
    86.9025     2543.00000
    86.9157     2624.00000
    86.9288     2684.00000
    86.9419     2726.00000
    86.9551     2703.00000
    86.9682     2837.00000
    86.9813     2787.00000
    86.9944     2834.00000
    87.0076     2835.00000
    87.0207     2805.00000
    87.0338     2754.00000
    87.0470     2848.00000
    87.0601     2701.00000
    87.0732     2803.00000
    87.0864     2856.00000
    87.0995     2866.00000
    87.1126     3062.00000
    87.1257     3128.00000
    87.1389     3191.00000
    87.1520     3355.00000
    87.1651     3331.00000
    87.1783     3315.00000
    87.1914     3162.00000
    87.2045     3110.00000
    87.2177     3056.00000
    87.2308     2996.00000
    87.2439     2914.00000
    87.2570     2887.00000
    87.2702     2933.00000
    87.2833     2816.00000
    87.2964     2882.00000
    87.3096     2891.00000
    87.3227     3061.00000
    87.3358     3194.00000
    87.3490     3171.00000
    87.3621     3008.00000
    87.3752     2937.00000
    87.3884     3032.00000
    87.4015     3045.00000
    87.4146     2980.00000
    87.4277     2895.00000
    87.4409     2903.00000
    87.4540     2870.00000
    87.4671     2892.00000
    87.4803     2755.00000
    87.4934     2734.00000
    87.5065     2653.00000
    87.5197     2693.00000
    87.5328     2645.00000
    87.5459     2554.00000
    87.5590     2661.00000
    87.5722     2706.00000
    87.5853     2749.00000
    87.5984     2752.00000
    87.6116     2815.00000
    87.6247     2726.00000
    87.6378     2732.00000
    87.6510     2649.00000
    87.6641     2669.00000
    87.6772     2613.00000
    87.6904     2635.00000
    87.7035     2667.00000
    87.7166     2760.00000
    87.7297     2735.00000
    87.7429     2771.00000
    87.7560     2743.00000
    87.7691     2928.00000
    87.7823     2955.00000
    87.7954     3111.00000
    87.8085     3260.00000
    87.8217     3317.00000
    87.8348     3198.00000
    87.8479     3421.00000
    87.8610     3277.00000
    87.8742     3186.00000
    87.8873     3052.00000
    87.9004     3040.00000
    87.9136     3007.00000
    87.9267     2903.00000
    87.9398     2907.00000
    87.9530     2999.00000
    87.9661     2912.00000
    87.9792     3081.00000
    87.9923     3069.00000
    88.0055     3193.00000
    88.0186     3252.00000
    88.0317     3515.00000
    88.0449     3617.00000
    88.0580     3781.00000
    88.0711     3985.00000
    88.0843     3904.00000
    88.0974     3676.00000
    88.1105     3592.00000
    88.1236     3337.00000
    88.1368     3272.00000
    88.1499     3219.00000
    88.1630     3147.00000
    88.1762     3097.00000
    88.1893     2996.00000
    88.2024     3072.00000
    88.2156     2964.00000
    88.2287     2939.00000
    88.2418     3007.00000
    88.2550     3027.00000
    88.2681     3025.00000
    88.2812     2989.00000
    88.2943     3012.00000
    88.3075     3096.00000
    88.3206     3225.00000
    88.3337     3153.00000
    88.3469     3140.00000
    88.3600     3138.00000
    88.3731     3011.00000
    88.3863     2943.00000
    88.3994     2832.00000
    88.4125     2920.00000
    88.4256     2814.00000
    88.4388     2879.00000
    88.4519     2904.00000
    88.4650     2865.00000
    88.4782     2843.00000
    88.4913     2846.00000
    88.5044     2915.00000
    88.5176     2788.00000
    88.5307     2813.00000
    88.5438     2852.00000
    88.5569     2810.00000
    88.5701     2803.00000
    88.5832     2724.00000
    88.5963     2727.00000
    88.6095     2790.00000
    88.6226     2832.00000
    88.6357     2981.00000
    88.6489     3073.00000
    88.6620     3202.00000
    88.6751     3350.00000
    88.6882     3456.00000
    88.7014     3644.00000
    88.7145     3668.00000
    88.7276     3846.00000
    88.7408     3868.00000
    88.7539     3957.00000
    88.7670     3859.00000
    88.7802     3524.00000
    88.7933     3383.00000
    88.8064     3084.00000
    88.8196     2952.00000
    88.8327     2844.00000
    88.8458     2860.00000
    88.8589     2751.00000
    88.8721     2660.00000
    88.8852     2570.00000
    88.8983     2687.00000
    88.9115     2677.00000
    88.9246     2664.00000
    88.9377     2691.00000
    88.9509     2633.00000
    88.9640     2910.00000
    88.9771     3066.00000
    88.9902     3037.00000
    89.0034     3128.00000
    89.0165     3087.00000
    89.0296     3024.00000
    89.0428     3070.00000
    89.0559     2937.00000
    89.0690     2872.00000
    89.0822     2833.00000
    89.0953     2822.00000
    89.1084     2749.00000
    89.1216     2718.00000
    89.1347     2731.00000
    89.1478     2724.00000
    89.1609     2773.00000
    89.1741     2835.00000
    89.1872     2927.00000
    89.2003     3000.00000
    89.2135     3217.00000
    89.2266     3330.00000
    89.2397     3279.00000
    89.2529     3234.00000
    89.2660     3266.00000
    89.2791     3177.00000
    89.2922     2968.00000
    89.3054     2847.00000
    89.3185     2779.00000
    89.3316     2738.00000
    89.3448     2705.00000
    89.3579     2644.00000
    89.3710     2592.00000
    89.3842     2548.00000
    89.3973     2558.00000
    89.4104     2553.00000
    89.4235     2599.00000
    89.4367     2596.00000
    89.4498     2636.00000
    89.4629     2707.00000
    89.4761     2757.00000
    89.4892     2832.00000
    89.5023     2803.00000
    89.5155     2852.00000
    89.5286     2807.00000
    89.5417     2844.00000
    89.5548     2863.00000
    89.5680     2636.00000
    89.5811     2783.00000
    89.5942     2628.00000
    89.6074     2636.00000
    89.6205     2618.00000
    89.6336     2581.00000
    89.6468     2513.00000
    89.6599     2479.00000
    89.6730     2471.00000
    89.6861     2558.00000
    89.6993     2523.00000
    89.7124     2391.00000
    89.7255     2386.00000
    89.7387     2422.00000
    89.7518     2550.00000
    89.7649     2603.00000
    89.7781     2515.00000
    89.7912     2596.00000
    89.8043     2676.00000
    89.8175     2684.00000
    89.8306     3011.00000
    89.8437     3127.00000
    89.8568     3389.00000
    89.8700     3493.00000
    89.8831     3617.00000
    89.8962     3667.00000
    89.9094     3395.00000
    89.9225     3238.00000
    89.9356     3210.00000
    89.9488     3113.00000
    89.9619     2979.00000
    89.9750     2999.00000
    89.9882     2967.00000
    90.0013     2920.00000
    90.0144     2970.00000
    90.0275     3020.00000
    90.0407     2974.00000
    90.0538     2909.00000
    90.0669     2803.00000
    90.0801     2844.00000
    90.0932     2797.00000
    90.1063     2806.00000
    90.1195     2815.00000
    90.1326     2951.00000
    90.1457     3029.00000
    90.1588     2908.00000
    90.1720     2994.00000
    90.1851     3109.00000
    90.1982     2887.00000
    90.2114     2867.00000
    90.2245     2792.00000
    90.2376     2811.00000
    90.2508     2706.00000
    90.2639     2800.00000
    90.2770     2843.00000
    90.2901     2837.00000
    90.3033     2852.00000
    90.3164     2798.00000
    90.3295     2906.00000
    90.3427     2968.00000
    90.3558     2883.00000
    90.3689     3089.00000
    90.3821     3153.00000
    90.3952     3141.00000
    90.4083     3178.00000
    90.4214     3246.00000
    90.4346     3171.00000
    90.4477     3175.00000
    90.4608     3046.00000
    90.4740     3050.00000
    90.4871     2943.00000
    90.5002     3013.00000
    90.5134     2896.00000
    90.5265     2948.00000
    90.5396     2877.00000
    90.5527     2969.00000
    90.5659     2904.00000
    90.5790     2945.00000
    90.5921     2976.00000
    90.6053     2878.00000
    90.6184     3073.00000
    90.6315     2975.00000
    90.6447     2951.00000
    90.6578     2989.00000
    90.6709     3155.00000
    90.6841     3102.00000
    90.6972     3150.00000
    90.7103     3274.00000
    90.7234     3307.00000
    90.7366     3272.00000
    90.7497     3249.00000
    90.7628     3114.00000
    90.7760     3187.00000
    90.7891     3160.00000
    90.8022     3116.00000
    90.8154     3133.00000
    90.8285     3001.00000
    90.8416     3111.00000
    90.8548     2917.00000
    90.8679     2890.00000
    90.8810     2867.00000
    90.8941     2767.00000
    90.9073     2746.00000
    90.9204     2740.00000
    90.9335     2660.00000
    90.9467     2753.00000
    90.9598     2704.00000
    90.9729     2620.00000
    90.9861     2740.00000
    90.9992     2891.00000
    91.0123     2828.00000
    91.0254     2901.00000
    91.0386     2910.00000
    91.0517     3002.00000
    91.0648     3133.00000
    91.0780     3170.00000
    91.0911     3394.00000
    91.1042     3356.00000
    91.1174     3383.00000
    91.1305     3451.00000
    91.1436     3345.00000
    91.1567     3246.00000
    91.1699     2967.00000
    91.1830     2907.00000
    91.1961     2792.00000
    91.2093     2685.00000
    91.2224     2716.00000
    91.2355     2698.00000
    91.2487     2760.00000
    91.2618     2658.00000
    91.2749     2715.00000
    91.2880     2786.00000
    91.3012     2749.00000
    91.3143     2866.00000
    91.3274     3017.00000
    91.3406     3093.00000
    91.3537     3363.00000
    91.3668     3525.00000
    91.3800     3734.00000
    91.3931     3885.00000
    91.4062     4172.00000
    91.4193     4091.00000
    91.4325     4295.00000
    91.4456     4415.00000
    91.4587     4309.00000
    91.4719     4348.00000
    91.4850     4319.00000
    91.4981     4103.00000
    91.5113     3908.00000
    91.5244     3716.00000
    91.5375     3395.00000
    91.5507     3261.00000
    91.5638     3134.00000
    91.5769     3093.00000
    91.5900     2978.00000
    91.6032     2991.00000
    91.6163     3001.00000
    91.6294     2929.00000
    91.6426     2913.00000
    91.6557     3070.00000
    91.6688     3130.00000
    91.6820     3154.00000
    91.6951     3284.00000
    91.7082     3296.00000
    91.7213     3392.00000
    91.7345     3460.00000
    91.7476     3545.00000
    91.7607     3757.00000
    91.7739     3770.00000
    91.7870     3774.00000
    91.8001     3807.00000
    91.8133     3836.00000
    91.8264     3883.00000
    91.8395     3997.00000
    91.8526     3918.00000
    91.8658     3857.00000
    91.8789     3815.00000
    91.8920     3426.00000
    91.9052     3189.00000
    91.9183     3113.00000
    91.9314     3094.00000
    91.9446     2948.00000
    91.9577     2841.00000
    91.9708     2799.00000
    91.9840     2772.00000
    91.9971     2794.00000
    92.0102     2689.00000
    92.0233     2754.00000
    92.0365     2682.00000
    92.0496     2754.00000
    92.0627     2743.00000
    92.0759     2941.00000
    92.0890     2982.00000
    92.1021     3040.00000
    92.1153     3154.00000
    92.1284     3278.00000
    92.1415     3253.00000
    92.1546     3390.00000
    92.1678     3333.00000
    92.1809     3264.00000
    92.1940     3159.00000
    92.2072     3140.00000
    92.2203     3119.00000
    92.2334     3003.00000
    92.2466     2924.00000
    92.2597     2873.00000
    92.2728     2885.00000
    92.2859     2647.00000
    92.2991     2830.00000
    92.3122     2664.00000
    92.3253     2692.00000
    92.3385     2757.00000
    92.3516     2674.00000
    92.3647     2613.00000
    92.3779     2597.00000
    92.3910     2601.00000
    92.4041     2571.00000
    92.4173     2599.00000
    92.4304     2584.00000
    92.4435     2650.00000
    92.4566     2637.00000
    92.4698     2642.00000
    92.4829     2573.00000
    92.4960     2638.00000
    92.5092     2616.00000
    92.5223     2566.00000
    92.5354     2544.00000
    92.5486     2593.00000
    92.5617     2616.00000
    92.5748     2572.00000
    92.5879     2595.00000
    92.6011     2642.00000
    92.6142     2729.00000
    92.6273     2681.00000
    92.6405     2719.00000
    92.6536     2649.00000
    92.6667     2724.00000
    92.6799     2845.00000
    92.6930     2734.00000
    92.7061     2810.00000
    92.7192     2800.00000
    92.7324     2678.00000
    92.7455     2868.00000
    92.7586     2695.00000
    92.7718     2758.00000
    92.7849     2611.00000
    92.7980     2688.00000
    92.8112     2635.00000
    92.8243     2647.00000
    92.8374     2742.00000
    92.8505     2795.00000
    92.8637     2724.00000
    92.8768     2805.00000
    92.8899     2800.00000
    92.9031     2912.00000
    92.9162     2893.00000
    92.9293     2936.00000
    92.9425     2776.00000
    92.9556     2931.00000
    92.9687     3048.00000
    92.9819     2972.00000
    92.9950     3136.00000
    93.0081     3124.00000
    93.0212     3146.00000
    93.0344     3303.00000
    93.0475     3392.00000
    93.0606     3498.00000
    93.0738     3623.00000
    93.0869     3736.00000
    93.1000     3759.00000
    93.1132     3715.00000
    93.1263     3517.00000
    93.1394     3445.00000
    93.1525     3253.00000
    93.1657     3090.00000
    93.1788     2998.00000
    93.1919     2924.00000
    93.2051     2804.00000
    93.2182     2804.00000
    93.2313     2801.00000
    93.2445     2739.00000
    93.2576     2746.00000
    93.2707     2748.00000
    93.2839     2738.00000
    93.2970     2647.00000
    93.3101     2694.00000
    93.3232     2865.00000
    93.3364     2787.00000
    93.3495     2847.00000
    93.3626     2799.00000
    93.3758     3048.00000
    93.3889     3049.00000
    93.4020     3006.00000
    93.4152     3058.00000
    93.4283     2780.00000
    93.4414     2875.00000
    93.4545     2820.00000
    93.4677     2678.00000
    93.4808     2526.00000
    93.4939     2620.00000
    93.5071     2642.00000
    93.5202     2524.00000
    93.5333     2508.00000
    93.5465     2417.00000
    93.5596     2407.00000
    93.5727     2327.00000
    93.5858     2493.00000
    93.5990     2323.00000
    93.6121     2375.00000
    93.6252     2381.00000
    93.6384     2313.00000
    93.6515     2370.00000
    93.6646     2358.00000
    93.6778     2357.00000
    93.6909     2392.00000
    93.7040     2388.00000
    93.7171     2366.00000
    93.7303     2267.00000
    93.7434     2395.00000
    93.7565     2325.00000
    93.7697     2359.00000
    93.7828     2249.00000
    93.7959     2344.00000
    93.8091     2333.00000
    93.8222     2307.00000
    93.8353     2381.00000
    93.8484     2382.00000
    93.8616     2269.00000
    93.8747     2378.00000
    93.8878     2288.00000
    93.9010     2265.00000
    93.9141     2301.00000
    93.9272     2309.00000
    93.9404     2286.00000
    93.9535     2293.00000
    93.9666     2257.00000
    93.9798     2205.00000
    93.9929     2262.00000
    94.0060     2374.00000
    94.0191     2242.00000
    94.0323     2282.00000
    94.0454     2339.00000
    94.0585     2335.00000
    94.0717     2353.00000
    94.0848     2335.00000
    94.0979     2352.00000
    94.1111     2318.00000
    94.1242     2346.00000
    94.1373     2348.00000
    94.1505     2395.00000
    94.1636     2339.00000
    94.1767     2274.00000
    94.1898     2285.00000
    94.2030     2328.00000
    94.2161     2357.00000
    94.2292     2418.00000
    94.2424     2390.00000
    94.2555     2479.00000
    94.2686     2544.00000
    94.2818     2634.00000
    94.2949     2713.00000
    94.3080     2696.00000
    94.3211     2909.00000
    94.3343     2864.00000
    94.3474     3032.00000
    94.3605     3149.00000
    94.3737     3141.00000
    94.3868     3201.00000
    94.3999     3196.00000
    94.4131     3063.00000
    94.4262     3140.00000
    94.4393     2918.00000
    94.4524     2912.00000
    94.4656     2868.00000
    94.4787     2848.00000
    94.4918     2848.00000
    94.5050     2831.00000
    94.5181     2724.00000
    94.5312     2796.00000
    94.5444     2727.00000
    94.5575     2721.00000
    94.5706     2724.00000
    94.5837     2771.00000
    94.5969     2755.00000
    94.6100     2782.00000
    94.6231     2865.00000
    94.6363     2857.00000
    94.6494     2934.00000
    94.6625     2919.00000
    94.6757     3015.00000
    94.6888     2979.00000
    94.7019     2942.00000
    94.7150     2923.00000
    94.7282     2870.00000
    94.7413     2760.00000
    94.7544     2773.00000
    94.7676     2730.00000
    94.7807     2707.00000
    94.7938     2723.00000
    94.8070     2656.00000
    94.8201     2663.00000
    94.8332     2778.00000
    94.8464     2885.00000
    94.8595     2797.00000
    94.8726     2764.00000
    94.8857     2812.00000
    94.8989     2954.00000
    94.9120     3026.00000
    94.9251     3067.00000
    94.9383     3221.00000
    94.9514     3198.00000
    94.9645     3341.00000
    94.9777     3281.00000
    94.9908     3171.00000
    95.0039     3103.00000
    95.0170     3005.00000
    95.0302     2934.00000
    95.0433     3063.00000
    95.0564     2977.00000
    95.0696     3105.00000
    95.0827     3089.00000
    95.0958     3040.00000
    95.1090     3038.00000
    95.1221     3111.00000
    95.1352     3023.00000
    95.1484     2972.00000
    95.1615     2936.00000
    95.1746     2812.00000
    95.1877     2959.00000
    95.2009     2875.00000
    95.2140     2931.00000
    95.2271     2843.00000
    95.2403     2953.00000
    95.2534     2880.00000
    95.2665     2934.00000
    95.2797     2819.00000
    95.2928     2764.00000
    95.3059     2783.00000
    95.3190     2665.00000
    95.3322     2704.00000
    95.3453     2679.00000
    95.3584     2596.00000
    95.3716     2674.00000
    95.3847     2805.00000
    95.3978     2704.00000
    95.4110     2659.00000
    95.4241     2618.00000
    95.4372     2675.00000
    95.4503     2593.00000
    95.4635     2662.00000
    95.4766     2488.00000
    95.4897     2528.00000
    95.5029     2539.00000
    95.5160     2453.00000
    95.5291     2375.00000
    95.5423     2465.00000
    95.5554     2431.00000
    95.5685     2524.00000
    95.5816     2299.00000
    95.5948     2328.00000
    95.6079     2313.00000
    95.6210     2304.00000
    95.6342     2290.00000
    95.6473     2331.00000
    95.6604     2390.00000
    95.6736     2325.00000
    95.6867     2322.00000
    95.6998     2320.00000
    95.7130     2310.00000
    95.7261     2324.00000
    95.7392     2269.00000
    95.7523     2237.00000
    95.7655     2225.00000
    95.7786     2451.00000
    95.7917     2281.00000
    95.8049     2311.00000
    95.8180     2305.00000
    95.8311     2266.00000
    95.8443     2171.00000
    95.8574     2158.00000
    95.8705     2274.00000
    95.8836     2285.00000
    95.8968     2349.00000
    95.9099     2359.00000
    95.9230     2309.00000
    95.9362     2260.00000
    95.9493     2291.00000
    95.9624     2308.00000
    95.9756     2319.00000
    95.9887     2257.00000
    96.0018     2258.00000
    96.0149     2241.00000
    96.0281     2363.00000
    96.0412     2329.00000
    96.0543     2315.00000
    96.0675     2268.00000
    96.0806     2233.00000
    96.0937     2343.00000
    96.1069     2286.00000
    96.1200     2260.00000
    96.1331     2233.00000
    96.1463     2327.00000
    96.1594     2269.00000
    96.1725     2246.00000
    96.1856     2277.00000
    96.1988     2331.00000
    96.2119     2240.00000
    96.2250     2263.00000
    96.2382     2228.00000
    96.2513     2311.00000
    96.2644     2309.00000
    96.2776     2320.00000
    96.2907     2322.00000
    96.3038     2373.00000
    96.3169     2281.00000
    96.3301     2219.00000
    96.3432     2332.00000
    96.3563     2369.00000
    96.3695     2298.00000
    96.3826     2288.00000
    96.3957     2315.00000
    96.4089     2352.00000
    96.4220     2336.00000
    96.4351     2282.00000
    96.4482     2376.00000
    96.4614     2410.00000
    96.4745     2401.00000
    96.4876     2456.00000
    96.5008     2334.00000
    96.5139     2335.00000
    96.5270     2378.00000
    96.5402     2414.00000
    96.5533     2403.00000
    96.5664     2412.00000
    96.5796     2503.00000
    96.5927     2569.00000
    96.6058     2484.00000
    96.6189     2440.00000
    96.6321     2467.00000
    96.6452     2452.00000
    96.6583     2523.00000
    96.6715     2495.00000
    96.6846     2353.00000
    96.6977     2397.00000
    96.7109     2409.00000
    96.7240     2426.00000
    96.7371     2431.00000
    96.7502     2353.00000
    96.7634     2352.00000
    96.7765     2494.00000
    96.7896     2434.00000
    96.8028     2428.00000
    96.8159     2378.00000
    96.8290     2396.00000
    96.8422     2484.00000
    96.8553     2565.00000
    96.8684     2585.00000
    96.8815     2517.00000
    96.8947     2563.00000
    96.9078     2708.00000
    96.9209     2773.00000
    96.9341     2780.00000
    96.9472     2746.00000
    96.9603     2940.00000
    96.9735     2900.00000
    96.9866     2849.00000
    96.9997     2922.00000
    97.0128     2964.00000
    97.0260     2846.00000
    97.0391     2939.00000
    97.0522     2903.00000
    97.0654     2951.00000
    97.0785     2965.00000
    97.0916     2999.00000
    97.1048     3014.00000
    97.1179     3018.00000
    97.1310     3111.00000
    97.1442     3256.00000
    97.1573     3444.00000
    97.1704     3470.00000
    97.1835     3622.00000
    97.1967     3483.00000
    97.2098     3509.00000
    97.2229     3427.00000
    97.2361     3270.00000
    97.2492     3122.00000
    97.2623     2908.00000
    97.2755     3022.00000
    97.2886     2975.00000
    97.3017     2800.00000
    97.3148     2895.00000
    97.3280     3041.00000
    97.3411     2934.00000
    97.3542     2972.00000
    97.3674     2909.00000
    97.3805     2896.00000
    97.3936     2975.00000
    97.4068     3103.00000
    97.4199     3121.00000
    97.4330     3350.00000
    97.4462     3333.00000
    97.4593     3521.00000
    97.4724     3660.00000
    97.4855     3653.00000
    97.4987     3533.00000
    97.5118     3703.00000
    97.5249     3413.00000
    97.5381     3277.00000
    97.5512     3222.00000
    97.5643     3123.00000
    97.5775     3045.00000
    97.5906     3022.00000
    97.6037     3022.00000
    97.6168     3090.00000
    97.6300     2981.00000
    97.6431     3112.00000
    97.6562     3145.00000
    97.6694     3082.00000
    97.6825     3232.00000
    97.6956     3156.00000
    97.7088     3148.00000
    97.7219     3112.00000
    97.7350     3206.00000
    97.7481     3133.00000
    97.7613     3137.00000
    97.7744     3152.00000
    97.7875     2994.00000
    97.8007     3115.00000
    97.8138     3124.00000
    97.8269     2914.00000
    97.8401     3063.00000
    97.8532     2988.00000
    97.8663     3065.00000
    97.8794     3118.00000
    97.8926     3146.00000
    97.9057     3080.00000
    97.9188     3245.00000
    97.9320     3171.00000
    97.9451     3361.00000
    97.9582     3193.00000
    97.9714     3276.00000
    97.9845     3180.00000
    97.9976     3168.00000
    98.0107     3031.00000
    98.0239     2941.00000
    98.0370     2827.00000
    98.0501     2876.00000
    98.0633     2680.00000
    98.0764     2777.00000
    98.0895     2716.00000
    98.1027     2699.00000
    98.1158     2683.00000
    98.1289     2527.00000
    98.1421     2551.00000
    98.1552     2474.00000
    98.1683     2520.00000
    98.1814     2612.00000
    98.1946     2583.00000
    98.2077     2577.00000
    98.2208     2628.00000
    98.2340     2653.00000
    98.2471     2649.00000
    98.2602     2874.00000
    98.2734     2627.00000
    98.2865     2747.00000
    98.2996     2609.00000
    98.3128     2617.00000
    98.3259     2594.00000
    98.3390     2535.00000
    98.3521     2500.00000
    98.3653     2440.00000
    98.3784     2466.00000
    98.3915     2378.00000
    98.4047     2452.00000
    98.4178     2408.00000
    98.4309     2386.00000
    98.4441     2338.00000
    98.4572     2447.00000
    98.4703     2344.00000
    98.4834     2452.00000
    98.4966     2373.00000
    98.5097     2434.00000
    98.5228     2388.00000
    98.5360     2392.00000
    98.5491     2441.00000
    98.5622     2434.00000
    98.5754     2478.00000
    98.5885     2353.00000
    98.6016     2444.00000
    98.6147     2440.00000
    98.6279     2428.00000
    98.6410     2392.00000
    98.6541     2467.00000
    98.6673     2403.00000
    98.6804     2533.00000
    98.6935     2504.00000
    98.7067     2596.00000
    98.7198     2606.00000
    98.7329     2643.00000
    98.7460     2581.00000
    98.7592     2735.00000
    98.7723     2891.00000
    98.7854     3099.00000
    98.7986     3138.00000
    98.8117     3292.00000
    98.8248     3358.00000
    98.8380     3454.00000
    98.8511     3530.00000
    98.8642     3573.00000
    98.8773     3526.00000
    98.8905     3555.00000
    98.9036     3371.00000
    98.9167     3359.00000
    98.9299     3490.00000
    98.9430     3446.00000
    98.9561     3373.00000
    98.9693     3319.00000
    98.9824     3375.00000
    98.9955     3385.00000
    99.0087     3325.00000
    99.0218     3482.00000
    99.0349     3528.00000
    99.0480     3742.00000
    99.0612     3914.00000
    99.0743     3955.00000
    99.0874     4152.00000
    99.1006     4372.00000
    99.1137     4431.00000
    99.1268     4656.00000
    99.1400     4665.00000
    99.1531     4621.00000
    99.1662     4898.00000
    99.1793     4836.00000
    99.1925     4871.00000
    99.2056     4590.00000
    99.2187     4593.00000
    99.2319     4502.00000
    99.2450     4281.00000
    99.2581     4163.00000
    99.2713     3794.00000
    99.2844     3835.00000
    99.2975     3464.00000
    99.3107     3401.00000
    99.3238     3284.00000
    99.3369     3243.00000
    99.3500     3171.00000
    99.3632     3116.00000
    99.3763     3246.00000
    99.3894     3224.00000
    99.4026     3257.00000
    99.4157     3402.00000
    99.4288     3324.00000
    99.4420     3431.00000
    99.4551     3619.00000
    99.4682     3566.00000
    99.4813     3590.00000
    99.4945     3613.00000
    99.5076     3542.00000
    99.5207     3535.00000
    99.5339     3630.00000
    99.5470     3597.00000
    99.5601     3641.00000
    99.5733     3649.00000
    99.5864     3562.00000
    99.5995     3503.00000
    99.6126     3449.00000
    99.6258     3424.00000
    99.6389     3512.00000
    99.6520     3465.00000
    99.6652     3502.00000
    99.6783     3435.00000
    99.6914     3509.00000
    99.7046     3442.00000
    99.7177     3561.00000
    99.7308     3426.00000
    99.7439     3571.00000
    99.7571     3626.00000
    99.7702     3536.00000
    99.7833     3595.00000
    99.7965     3557.00000
    99.8096     3581.00000
    99.8227     3573.00000
    99.8359     3430.00000
    99.8490     3493.00000
    99.8621     3424.00000
    99.8753     3202.00000
    99.8884     3326.00000
    99.9015     3183.00000
    99.9146     3111.00000
    99.9278     3038.00000
    99.9409     2920.00000
    99.9540     2973.00000
    99.9672     3123.00000
    99.9803     2961.00000
    99.9934     3024.00000
