! Initial file:   D:\ZAKARY_OUAIL\MA_THESE\Deuxième_année_de_thèse\DRX\Manips_DRX\1st_NaTaO2F2_XRK900\NaTaO2F2-Lent_80°C.xrdml
! Initial format:  58
! WAVE (A):      1.54060     1.54060     1.00000
! REM : data have been multiplied by     1.0000
! X_data : 2 Theta (deg.)                                                                                                                                                                                                                                                  
! Y_data : Intensity (arb. units)                                                                                                                                                                                                                                          
!     X         Y
!--------------------------------------------------------------------------------
    10.0116     7130.00000
    10.0247     7101.00000
    10.0379     7258.00000
    10.0510     7198.00000
    10.0641     6955.00000
    10.0772     7171.00000
    10.0904     7130.00000
    10.1035     7158.00000
    10.1166     7179.00000
    10.1298     7185.00000
    10.1429     7212.00000
    10.1560     6865.00000
    10.1692     7139.00000
    10.1823     7087.00000
    10.1954     7105.00000
    10.2086     7076.00000
    10.2217     7148.00000
    10.2348     7176.00000
    10.2479     6986.00000
    10.2611     7027.00000
    10.2742     7014.00000
    10.2873     7043.00000
    10.3005     7125.00000
    10.3136     7063.00000
    10.3267     6858.00000
    10.3399     6859.00000
    10.3530     6831.00000
    10.3661     7010.00000
    10.3792     6906.00000
    10.3924     6966.00000
    10.4055     6929.00000
    10.4186     6952.00000
    10.4318     6866.00000
    10.4449     6900.00000
    10.4580     6842.00000
    10.4712     6906.00000
    10.4843     6943.00000
    10.4974     6948.00000
    10.5105     6880.00000
    10.5237     6847.00000
    10.5368     6780.00000
    10.5499     7008.00000
    10.5631     6805.00000
    10.5762     6818.00000
    10.5893     6759.00000
    10.6025     6977.00000
    10.6156     6882.00000
    10.6287     6752.00000
    10.6418     6816.00000
    10.6550     6796.00000
    10.6681     6909.00000
    10.6812     6925.00000
    10.6944     6813.00000
    10.7075     6932.00000
    10.7206     6797.00000
    10.7338     6818.00000
    10.7469     6946.00000
    10.7600     7165.00000
    10.7732     7157.00000
    10.7863     7039.00000
    10.7994     7145.00000
    10.8125     6999.00000
    10.8257     7042.00000
    10.8388     7139.00000
    10.8519     7332.00000
    10.8651     7103.00000
    10.8782     7210.00000
    10.8913     7119.00000
    10.9045     7398.00000
    10.9176     7552.00000
    10.9307     7509.00000
    10.9438     7742.00000
    10.9570     7967.00000
    10.9701     8322.00000
    10.9832     8778.00000
    10.9964     9425.00000
    11.0095    10228.00000
    11.0226    11462.00000
    11.0358    12838.00000
    11.0489    15823.00000
    11.0620    20591.00000
    11.0751    26854.00000
    11.0883    34209.00000
    11.1014    43361.00000
    11.1145    50454.00000
    11.1277    52223.00000
    11.1408    49349.00000
    11.1539    42157.00000
    11.1671    34449.00000
    11.1802    27332.00000
    11.1933    21133.00000
    11.2065    16264.00000
    11.2196    12620.00000
    11.2327    10302.00000
    11.2458     8767.00000
    11.2590     7946.00000
    11.2721     7819.00000
    11.2852     7443.00000
    11.2984     7217.00000
    11.3115     7033.00000
    11.3246     7068.00000
    11.3378     7043.00000
    11.3509     6946.00000
    11.3640     6788.00000
    11.3771     6895.00000
    11.3903     6694.00000
    11.4034     6825.00000
    11.4165     6618.00000
    11.4297     6736.00000
    11.4428     6717.00000
    11.4559     6608.00000
    11.4691     6628.00000
    11.4822     6682.00000
    11.4953     6485.00000
    11.5084     6425.00000
    11.5216     6592.00000
    11.5347     6509.00000
    11.5478     6582.00000
    11.5610     6577.00000
    11.5741     6564.00000
    11.5872     6477.00000
    11.6004     6571.00000
    11.6135     6563.00000
    11.6266     6556.00000
    11.6398     6488.00000
    11.6529     6430.00000
    11.6660     6512.00000
    11.6791     6388.00000
    11.6923     6532.00000
    11.7054     6492.00000
    11.7185     6579.00000
    11.7317     6510.00000
    11.7448     6339.00000
    11.7579     6262.00000
    11.7711     6506.00000
    11.7842     6538.00000
    11.7973     6526.00000
    11.8104     6368.00000
    11.8236     6330.00000
    11.8367     6260.00000
    11.8498     6362.00000
    11.8630     6451.00000
    11.8761     6476.00000
    11.8892     6350.00000
    11.9024     6414.00000
    11.9155     6327.00000
    11.9286     6526.00000
    11.9417     6297.00000
    11.9549     6295.00000
    11.9680     6282.00000
    11.9811     6254.00000
    11.9943     6356.00000
    12.0074     6255.00000
    12.0205     6210.00000
    12.0337     6244.00000
    12.0468     6163.00000
    12.0599     6148.00000
    12.0731     6315.00000
    12.0862     6405.00000
    12.0993     6238.00000
    12.1124     6140.00000
    12.1256     6258.00000
    12.1387     6260.00000
    12.1518     6305.00000
    12.1650     6326.00000
    12.1781     6115.00000
    12.1912     6120.00000
    12.2044     6190.00000
    12.2175     6202.00000
    12.2306     6066.00000
    12.2437     6216.00000
    12.2569     6238.00000
    12.2700     6131.00000
    12.2831     6267.00000
    12.2963     6160.00000
    12.3094     6168.00000
    12.3225     6182.00000
    12.3357     6326.00000
    12.3488     6131.00000
    12.3619     6176.00000
    12.3750     6189.00000
    12.3882     6258.00000
    12.4013     6216.00000
    12.4144     6122.00000
    12.4276     6137.00000
    12.4407     6145.00000
    12.4538     5985.00000
    12.4670     6113.00000
    12.4801     6100.00000
    12.4932     6044.00000
    12.5063     6080.00000
    12.5195     6165.00000
    12.5326     6181.00000
    12.5457     5990.00000
    12.5589     6049.00000
    12.5720     6110.00000
    12.5851     6010.00000
    12.5983     5974.00000
    12.6114     5919.00000
    12.6245     6064.00000
    12.6377     6041.00000
    12.6508     6004.00000
    12.6639     5843.00000
    12.6770     5900.00000
    12.6902     5953.00000
    12.7033     5877.00000
    12.7164     5920.00000
    12.7296     5921.00000
    12.7427     5926.00000
    12.7558     6013.00000
    12.7690     6098.00000
    12.7821     6135.00000
    12.7952     6000.00000
    12.8083     6144.00000
    12.8215     5913.00000
    12.8346     6019.00000
    12.8477     6046.00000
    12.8609     6039.00000
    12.8740     5914.00000
    12.8871     5948.00000
    12.9003     5999.00000
    12.9134     6046.00000
    12.9265     5859.00000
    12.9396     6007.00000
    12.9528     6004.00000
    12.9659     6020.00000
    12.9790     5949.00000
    12.9922     5748.00000
    13.0053     5832.00000
    13.0184     5841.00000
    13.0316     5856.00000
    13.0447     5790.00000
    13.0578     5912.00000
    13.0710     5837.00000
    13.0841     5866.00000
    13.0972     5868.00000
    13.1103     5936.00000
    13.1235     5906.00000
    13.1366     5961.00000
    13.1497     6007.00000
    13.1629     5929.00000
    13.1760     6102.00000
    13.1891     5822.00000
    13.2023     5774.00000
    13.2154     5767.00000
    13.2285     5722.00000
    13.2416     5947.00000
    13.2548     5705.00000
    13.2679     5900.00000
    13.2810     5783.00000
    13.2942     5880.00000
    13.3073     5810.00000
    13.3204     5833.00000
    13.3336     5789.00000
    13.3467     5766.00000
    13.3598     5844.00000
    13.3729     5704.00000
    13.3861     5844.00000
    13.3992     5726.00000
    13.4123     5729.00000
    13.4255     5711.00000
    13.4386     5724.00000
    13.4517     5651.00000
    13.4649     5699.00000
    13.4780     5828.00000
    13.4911     5818.00000
    13.5043     5822.00000
    13.5174     5731.00000
    13.5305     5692.00000
    13.5436     5675.00000
    13.5568     5713.00000
    13.5699     5668.00000
    13.5830     5680.00000
    13.5962     5673.00000
    13.6093     5653.00000
    13.6224     5579.00000
    13.6356     5643.00000
    13.6487     5708.00000
    13.6618     5669.00000
    13.6749     5672.00000
    13.6881     5584.00000
    13.7012     5616.00000
    13.7143     5703.00000
    13.7275     5567.00000
    13.7406     5601.00000
    13.7537     5684.00000
    13.7669     5604.00000
    13.7800     5606.00000
    13.7931     5539.00000
    13.8062     5469.00000
    13.8194     5594.00000
    13.8325     5605.00000
    13.8456     5424.00000
    13.8588     5623.00000
    13.8719     5501.00000
    13.8850     5685.00000
    13.8982     5484.00000
    13.9113     5660.00000
    13.9244     5498.00000
    13.9376     5607.00000
    13.9507     5573.00000
    13.9638     5596.00000
    13.9769     5570.00000
    13.9901     5568.00000
    14.0032     5587.00000
    14.0163     5620.00000
    14.0295     5661.00000
    14.0426     5489.00000
    14.0557     5449.00000
    14.0689     5466.00000
    14.0820     5621.00000
    14.0951     5501.00000
    14.1082     5543.00000
    14.1214     5444.00000
    14.1345     5468.00000
    14.1476     5530.00000
    14.1608     5425.00000
    14.1739     5459.00000
    14.1870     5524.00000
    14.2002     5511.00000
    14.2133     5495.00000
    14.2264     5471.00000
    14.2395     5491.00000
    14.2527     5498.00000
    14.2658     5471.00000
    14.2789     5446.00000
    14.2921     5513.00000
    14.3052     5444.00000
    14.3183     5359.00000
    14.3315     5501.00000
    14.3446     5375.00000
    14.3577     5428.00000
    14.3708     5455.00000
    14.3840     5511.00000
    14.3971     5529.00000
    14.4102     5265.00000
    14.4234     5452.00000
    14.4365     5420.00000
    14.4496     5472.00000
    14.4628     5484.00000
    14.4759     5442.00000
    14.4890     5390.00000
    14.5022     5433.00000
    14.5153     5289.00000
    14.5284     5313.00000
    14.5415     5384.00000
    14.5547     5337.00000
    14.5678     5304.00000
    14.5809     5480.00000
    14.5941     5248.00000
    14.6072     5300.00000
    14.6203     5338.00000
    14.6335     5471.00000
    14.6466     5296.00000
    14.6597     5301.00000
    14.6728     5557.00000
    14.6860     5350.00000
    14.6991     5190.00000
    14.7122     5269.00000
    14.7254     5289.00000
    14.7385     5377.00000
    14.7516     5323.00000
    14.7648     5344.00000
    14.7779     5351.00000
    14.7910     5380.00000
    14.8041     5367.00000
    14.8173     5360.00000
    14.8304     5226.00000
    14.8435     5202.00000
    14.8567     5362.00000
    14.8698     5380.00000
    14.8829     5364.00000
    14.8961     5225.00000
    14.9092     5244.00000
    14.9223     5284.00000
    14.9355     5252.00000
    14.9486     5198.00000
    14.9617     5298.00000
    14.9748     5441.00000
    14.9880     5376.00000
    15.0011     5266.00000
    15.0142     5339.00000
    15.0274     5240.00000
    15.0405     5244.00000
    15.0536     5201.00000
    15.0668     5418.00000
    15.0799     5257.00000
    15.0930     5266.00000
    15.1061     5231.00000
    15.1193     5238.00000
    15.1324     5153.00000
    15.1455     5229.00000
    15.1587     5238.00000
    15.1718     5226.00000
    15.1849     5183.00000
    15.1981     5238.00000
    15.2112     5267.00000
    15.2243     5280.00000
    15.2374     5234.00000
    15.2506     5225.00000
    15.2637     5207.00000
    15.2768     5214.00000
    15.2900     5088.00000
    15.3031     5150.00000
    15.3162     5153.00000
    15.3294     5152.00000
    15.3425     5146.00000
    15.3556     5187.00000
    15.3688     5186.00000
    15.3819     5130.00000
    15.3950     5245.00000
    15.4081     4986.00000
    15.4213     5148.00000
    15.4344     5031.00000
    15.4475     5191.00000
    15.4607     5148.00000
    15.4738     5163.00000
    15.4869     5114.00000
    15.5001     5229.00000
    15.5132     5231.00000
    15.5263     5227.00000
    15.5394     5247.00000
    15.5526     5253.00000
    15.5657     5163.00000
    15.5788     5034.00000
    15.5920     5142.00000
    15.6051     5099.00000
    15.6182     5106.00000
    15.6314     5103.00000
    15.6445     5193.00000
    15.6576     5222.00000
    15.6707     5099.00000
    15.6839     5116.00000
    15.6970     5083.00000
    15.7101     5153.00000
    15.7233     5049.00000
    15.7364     5157.00000
    15.7495     5241.00000
    15.7627     5121.00000
    15.7758     4959.00000
    15.7889     5127.00000
    15.8021     5048.00000
    15.8152     4937.00000
    15.8283     5154.00000
    15.8414     4943.00000
    15.8546     5053.00000
    15.8677     5008.00000
    15.8808     5098.00000
    15.8940     5065.00000
    15.9071     5162.00000
    15.9202     5163.00000
    15.9334     5093.00000
    15.9465     5066.00000
    15.9596     4995.00000
    15.9727     5016.00000
    15.9859     5224.00000
    15.9990     5036.00000
    16.0121     4998.00000
    16.0253     4993.00000
    16.0384     4980.00000
    16.0515     5092.00000
    16.0647     5110.00000
    16.0778     4992.00000
    16.0909     5004.00000
    16.1040     5009.00000
    16.1172     5039.00000
    16.1303     5017.00000
    16.1434     5010.00000
    16.1566     5135.00000
    16.1697     5046.00000
    16.1828     5136.00000
    16.1960     5113.00000
    16.2091     5273.00000
    16.2222     5265.00000
    16.2353     5202.00000
    16.2485     5354.00000
    16.2616     5153.00000
    16.2747     5123.00000
    16.2879     5015.00000
    16.3010     5218.00000
    16.3141     5118.00000
    16.3273     5142.00000
    16.3404     5184.00000
    16.3535     5133.00000
    16.3667     5166.00000
    16.3798     5296.00000
    16.3929     5195.00000
    16.4060     5373.00000
    16.4192     5182.00000
    16.4323     5118.00000
    16.4454     5378.00000
    16.4586     5304.00000
    16.4717     5118.00000
    16.4848     5251.00000
    16.4980     5245.00000
    16.5111     5137.00000
    16.5242     5215.00000
    16.5373     5048.00000
    16.5505     4943.00000
    16.5636     5153.00000
    16.5767     4943.00000
    16.5899     4962.00000
    16.6030     5007.00000
    16.6161     4933.00000
    16.6293     4999.00000
    16.6424     4894.00000
    16.6555     4813.00000
    16.6686     4994.00000
    16.6818     4904.00000
    16.6949     4898.00000
    16.7080     4953.00000
    16.7212     4923.00000
    16.7343     4952.00000
    16.7474     5068.00000
    16.7606     4866.00000
    16.7737     4826.00000
    16.7868     4815.00000
    16.8000     4910.00000
    16.8131     4680.00000
    16.8262     4781.00000
    16.8393     4911.00000
    16.8525     4947.00000
    16.8656     4857.00000
    16.8787     4878.00000
    16.8919     4827.00000
    16.9050     4882.00000
    16.9181     4975.00000
    16.9313     4765.00000
    16.9444     4815.00000
    16.9575     4904.00000
    16.9706     4917.00000
    16.9838     4704.00000
    16.9969     4806.00000
    17.0100     4771.00000
    17.0232     4789.00000
    17.0363     4831.00000
    17.0494     4880.00000
    17.0626     4844.00000
    17.0757     4826.00000
    17.0888     4665.00000
    17.1019     4902.00000
    17.1151     4769.00000
    17.1282     4826.00000
    17.1413     4804.00000
    17.1545     4849.00000
    17.1676     4820.00000
    17.1807     4919.00000
    17.1939     4916.00000
    17.2070     4995.00000
    17.2201     4878.00000
    17.2333     4855.00000
    17.2464     4997.00000
    17.2595     5049.00000
    17.2726     4997.00000
    17.2858     5019.00000
    17.2989     5117.00000
    17.3120     4981.00000
    17.3252     4928.00000
    17.3383     4999.00000
    17.3514     4972.00000
    17.3646     4888.00000
    17.3777     4859.00000
    17.3908     4925.00000
    17.4039     4729.00000
    17.4171     4684.00000
    17.4302     4790.00000
    17.4433     4696.00000
    17.4565     4788.00000
    17.4696     4743.00000
    17.4827     4887.00000
    17.4959     4671.00000
    17.5090     4664.00000
    17.5221     4569.00000
    17.5352     4726.00000
    17.5484     4727.00000
    17.5615     4663.00000
    17.5746     4797.00000
    17.5878     4602.00000
    17.6009     4710.00000
    17.6140     4677.00000
    17.6272     4744.00000
    17.6403     4724.00000
    17.6534     4816.00000
    17.6666     4696.00000
    17.6797     4732.00000
    17.6928     4767.00000
    17.7059     4716.00000
    17.7191     4642.00000
    17.7322     4689.00000
    17.7453     4874.00000
    17.7585     4785.00000
    17.7716     4989.00000
    17.7847     5054.00000
    17.7979     4899.00000
    17.8110     5147.00000
    17.8241     5088.00000
    17.8372     4899.00000
    17.8504     4703.00000
    17.8635     4669.00000
    17.8766     4679.00000
    17.8898     4785.00000
    17.9029     4777.00000
    17.9160     4603.00000
    17.9292     4632.00000
    17.9423     4707.00000
    17.9554     4699.00000
    17.9685     4608.00000
    17.9817     4564.00000
    17.9948     4571.00000
    18.0079     4521.00000
    18.0211     4551.00000
    18.0342     4572.00000
    18.0473     4581.00000
    18.0605     4515.00000
    18.0736     4504.00000
    18.0867     4550.00000
    18.0998     4456.00000
    18.1130     4604.00000
    18.1261     4497.00000
    18.1392     4660.00000
    18.1524     4760.00000
    18.1655     4568.00000
    18.1786     4455.00000
    18.1918     4509.00000
    18.2049     4606.00000
    18.2180     4487.00000
    18.2312     4598.00000
    18.2443     4562.00000
    18.2574     4561.00000
    18.2705     4617.00000
    18.2837     4526.00000
    18.2968     4640.00000
    18.3099     4578.00000
    18.3231     4543.00000
    18.3362     4498.00000
    18.3493     4560.00000
    18.3625     4594.00000
    18.3756     4603.00000
    18.3887     4452.00000
    18.4018     4465.00000
    18.4150     4521.00000
    18.4281     4539.00000
    18.4412     4521.00000
    18.4544     4468.00000
    18.4675     4455.00000
    18.4806     4424.00000
    18.4938     4469.00000
    18.5069     4404.00000
    18.5200     4515.00000
    18.5331     4402.00000
    18.5463     4501.00000
    18.5594     4597.00000
    18.5725     4569.00000
    18.5857     4722.00000
    18.5988     4597.00000
    18.6119     4572.00000
    18.6251     4745.00000
    18.6382     4591.00000
    18.6513     4615.00000
    18.6645     4622.00000
    18.6776     4626.00000
    18.6907     4737.00000
    18.7038     4561.00000
    18.7170     4534.00000
    18.7301     4406.00000
    18.7432     4371.00000
    18.7564     4415.00000
    18.7695     4466.00000
    18.7826     4425.00000
    18.7958     4342.00000
    18.8089     4352.00000
    18.8220     4570.00000
    18.8351     4252.00000
    18.8483     4294.00000
    18.8614     4426.00000
    18.8745     4510.00000
    18.8877     4403.00000
    18.9008     4357.00000
    18.9139     4366.00000
    18.9271     4445.00000
    18.9402     4389.00000
    18.9533     4390.00000
    18.9664     4482.00000
    18.9796     4351.00000
    18.9927     4441.00000
    19.0058     4412.00000
    19.0190     4399.00000
    19.0321     4542.00000
    19.0452     4630.00000
    19.0584     4674.00000
    19.0715     4747.00000
    19.0846     4806.00000
    19.0978     4600.00000
    19.1109     4801.00000
    19.1240     4763.00000
    19.1371     4774.00000
    19.1503     4743.00000
    19.1634     4689.00000
    19.1765     4793.00000
    19.1897     4933.00000
    19.2028     4818.00000
    19.2159     4804.00000
    19.2291     4974.00000
    19.2422     4740.00000
    19.2553     4789.00000
    19.2684     4807.00000
    19.2816     4774.00000
    19.2947     4779.00000
    19.3078     4966.00000
    19.3210     4811.00000
    19.3341     4765.00000
    19.3472     4785.00000
    19.3604     4810.00000
    19.3735     5010.00000
    19.3866     4860.00000
    19.3997     4962.00000
    19.4129     4990.00000
    19.4260     5116.00000
    19.4391     5157.00000
    19.4523     5146.00000
    19.4654     5342.00000
    19.4785     5300.00000
    19.4917     5568.00000
    19.5048     5778.00000
    19.5179     5783.00000
    19.5311     5982.00000
    19.5442     6090.00000
    19.5573     6688.00000
    19.5704     7047.00000
    19.5836     7567.00000
    19.5967     8842.00000
    19.6098    10431.00000
    19.6230    13087.00000
    19.6361    17054.00000
    19.6492    23177.00000
    19.6624    33226.00000
    19.6755    48593.00000
    19.6886    71292.00000
    19.7017    94620.00000
    19.7149   113933.00000
    19.7280   119613.00000
    19.7411   114882.00000
    19.7543   104184.00000
    19.7674    93147.00000
    19.7805    77619.00000
    19.7937    59170.00000
    19.8068    42356.00000
    19.8199    29834.00000
    19.8330    21528.00000
    19.8462    15499.00000
    19.8593    11303.00000
    19.8724     9128.00000
    19.8856     7711.00000
    19.8987     7027.00000
    19.9118     6491.00000
    19.9250     6106.00000
    19.9381     5717.00000
    19.9512     5382.00000
    19.9643     5214.00000
    19.9775     5130.00000
    19.9906     5063.00000
    20.0037     5040.00000
    20.0169     4886.00000
    20.0300     4893.00000
    20.0431     4854.00000
    20.0563     4854.00000
    20.0694     4661.00000
    20.0825     4562.00000
    20.0957     4590.00000
    20.1088     4697.00000
    20.1219     4690.00000
    20.1350     4671.00000
    20.1482     4550.00000
    20.1613     4771.00000
    20.1744     4850.00000
    20.1876     4940.00000
    20.2007     4675.00000
    20.2138     4834.00000
    20.2270     5001.00000
    20.2401     4905.00000
    20.2532     4677.00000
    20.2663     4807.00000
    20.2795     4824.00000
    20.2926     4697.00000
    20.3057     4609.00000
    20.3189     4533.00000
    20.3320     4572.00000
    20.3451     4462.00000
    20.3583     4531.00000
    20.3714     4428.00000
    20.3845     4405.00000
    20.3976     4480.00000
    20.4108     4372.00000
    20.4239     4396.00000
    20.4370     4327.00000
    20.4502     4310.00000
    20.4633     4387.00000
    20.4764     4358.00000
    20.4896     4292.00000
    20.5027     4240.00000
    20.5158     4337.00000
    20.5290     4333.00000
    20.5421     4418.00000
    20.5552     4180.00000
    20.5683     4311.00000
    20.5815     4358.00000
    20.5946     4437.00000
    20.6077     4203.00000
    20.6209     4370.00000
    20.6340     4196.00000
    20.6471     4391.00000
    20.6603     4223.00000
    20.6734     4124.00000
    20.6865     4154.00000
    20.6996     4154.00000
    20.7128     4135.00000
    20.7259     4292.00000
    20.7390     4196.00000
    20.7522     4335.00000
    20.7653     4178.00000
    20.7784     4034.00000
    20.7916     4213.00000
    20.8047     4162.00000
    20.8178     4194.00000
    20.8309     4258.00000
    20.8441     4242.00000
    20.8572     4122.00000
    20.8703     4153.00000
    20.8835     4265.00000
    20.8966     4149.00000
    20.9097     4206.00000
    20.9229     4193.00000
    20.9360     4164.00000
    20.9491     4251.00000
    20.9623     4243.00000
    20.9754     4143.00000
    20.9885     4133.00000
    21.0016     4209.00000
    21.0148     4157.00000
    21.0279     4130.00000
    21.0410     4169.00000
    21.0542     4087.00000
    21.0673     4145.00000
    21.0804     4050.00000
    21.0936     4161.00000
    21.1067     4150.00000
    21.1198     4102.00000
    21.1329     4248.00000
    21.1461     4078.00000
    21.1592     4019.00000
    21.1723     4142.00000
    21.1855     4162.00000
    21.1986     4082.00000
    21.2117     4053.00000
    21.2249     4079.00000
    21.2380     4173.00000
    21.2511     4144.00000
    21.2642     4097.00000
    21.2774     3909.00000
    21.2905     4129.00000
    21.3036     4044.00000
    21.3168     4099.00000
    21.3299     4059.00000
    21.3430     4177.00000
    21.3562     4181.00000
    21.3693     4189.00000
    21.3824     4195.00000
    21.3956     3981.00000
    21.4087     4078.00000
    21.4218     4126.00000
    21.4349     4090.00000
    21.4481     4102.00000
    21.4612     4103.00000
    21.4743     4098.00000
    21.4875     4086.00000
    21.5006     4036.00000
    21.5137     4103.00000
    21.5269     4045.00000
    21.5400     3952.00000
    21.5531     4093.00000
    21.5662     4046.00000
    21.5794     4048.00000
    21.5925     4073.00000
    21.6056     4063.00000
    21.6188     4163.00000
    21.6319     4177.00000
    21.6450     4191.00000
    21.6582     4047.00000
    21.6713     4037.00000
    21.6844     4160.00000
    21.6975     4093.00000
    21.7107     4173.00000
    21.7238     4110.00000
    21.7369     4157.00000
    21.7501     4069.00000
    21.7632     4082.00000
    21.7763     4089.00000
    21.7895     4092.00000
    21.8026     4174.00000
    21.8157     4045.00000
    21.8288     4250.00000
    21.8420     4330.00000
    21.8551     4289.00000
    21.8682     4317.00000
    21.8814     4271.00000
    21.8945     4445.00000
    21.9076     4337.00000
    21.9208     4273.00000
    21.9339     4279.00000
    21.9470     4238.00000
    21.9602     4177.00000
    21.9733     4156.00000
    21.9864     4101.00000
    21.9995     4077.00000
    22.0127     4133.00000
    22.0258     4195.00000
    22.0389     4177.00000
    22.0521     4108.00000
    22.0652     4161.00000
    22.0783     4117.00000
    22.0915     4033.00000
    22.1046     4128.00000
    22.1177     4164.00000
    22.1308     4143.00000
    22.1440     4116.00000
    22.1571     4141.00000
    22.1702     4075.00000
    22.1834     4196.00000
    22.1965     4219.00000
    22.2096     4111.00000
    22.2228     4258.00000
    22.2359     4196.00000
    22.2490     4403.00000
    22.2621     4458.00000
    22.2753     4672.00000
    22.2884     5028.00000
    22.3015     5561.00000
    22.3147     6451.00000
    22.3278     7722.00000
    22.3409     9988.00000
    22.3541    13044.00000
    22.3672    16582.00000
    22.3803    19672.00000
    22.3935    20167.00000
    22.4066    19135.00000
    22.4197    17689.00000
    22.4328    16392.00000
    22.4460    15245.00000
    22.4591    12302.00000
    22.4722     9728.00000
    22.4854     7650.00000
    22.4985     6534.00000
    22.5116     5543.00000
    22.5248     4846.00000
    22.5379     4514.00000
    22.5510     4447.00000
    22.5641     4243.00000
    22.5773     4200.00000
    22.5904     4172.00000
    22.6035     4152.00000
    22.6167     4059.00000
    22.6298     4125.00000
    22.6429     4030.00000
    22.6561     3943.00000
    22.6692     4129.00000
    22.6823     3974.00000
    22.6954     3969.00000
    22.7086     4087.00000
    22.7217     3962.00000
    22.7348     3932.00000
    22.7480     4060.00000
    22.7611     3931.00000
    22.7742     4026.00000
    22.7874     3963.00000
    22.8005     3959.00000
    22.8136     4096.00000
    22.8268     4030.00000
    22.8399     4060.00000
    22.8530     3953.00000
    22.8661     3960.00000
    22.8793     4022.00000
    22.8924     4125.00000
    22.9055     3895.00000
    22.9187     3812.00000
    22.9318     3905.00000
    22.9449     3962.00000
    22.9581     3837.00000
    22.9712     3872.00000
    22.9843     3953.00000
    22.9974     3986.00000
    23.0106     3803.00000
    23.0237     3823.00000
    23.0368     3946.00000
    23.0500     3764.00000
    23.0631     3831.00000
    23.0762     3688.00000
    23.0894     3877.00000
    23.1025     3848.00000
    23.1156     3794.00000
    23.1287     3834.00000
    23.1419     3852.00000
    23.1550     3783.00000
    23.1681     3799.00000
    23.1813     3933.00000
    23.1944     3720.00000
    23.2075     3803.00000
    23.2207     3742.00000
    23.2338     3833.00000
    23.2469     3861.00000
    23.2601     3786.00000
    23.2732     3789.00000
    23.2863     3782.00000
    23.2994     3913.00000
    23.3126     3850.00000
    23.3257     3803.00000
    23.3388     3936.00000
    23.3520     3821.00000
    23.3651     3739.00000
    23.3782     3949.00000
    23.3914     3952.00000
    23.4045     3925.00000
    23.4176     3819.00000
    23.4307     3832.00000
    23.4439     3997.00000
    23.4570     4000.00000
    23.4701     4060.00000
    23.4833     3899.00000
    23.4964     4006.00000
    23.5095     3842.00000
    23.5227     4085.00000
    23.5358     3995.00000
    23.5489     3993.00000
    23.5620     3935.00000
    23.5752     3962.00000
    23.5883     4149.00000
    23.6014     4010.00000
    23.6146     3966.00000
    23.6277     4019.00000
    23.6408     3964.00000
    23.6540     3969.00000
    23.6671     3962.00000
    23.6802     4069.00000
    23.6933     3923.00000
    23.7065     3954.00000
    23.7196     4128.00000
    23.7327     4063.00000
    23.7459     4071.00000
    23.7590     3989.00000
    23.7721     4068.00000
    23.7853     4056.00000
    23.7984     4026.00000
    23.8115     4045.00000
    23.8247     3987.00000
    23.8378     4076.00000
    23.8509     4163.00000
    23.8640     4080.00000
    23.8772     4010.00000
    23.8903     4136.00000
    23.9034     4239.00000
    23.9166     4246.00000
    23.9297     4175.00000
    23.9428     4328.00000
    23.9560     4545.00000
    23.9691     4535.00000
    23.9822     4628.00000
    23.9953     4645.00000
    24.0085     4727.00000
    24.0216     4799.00000
    24.0347     4654.00000
    24.0479     4822.00000
    24.0610     4920.00000
    24.0741     5312.00000
    24.0873     5338.00000
    24.1004     5634.00000
    24.1135     6237.00000
    24.1266     7368.00000
    24.1398     9064.00000
    24.1529    12358.00000
    24.1660    17850.00000
    24.1792    24343.00000
    24.1923    32537.00000
    24.2054    41862.00000
    24.2186    47710.00000
    24.2317    46592.00000
    24.2448    41392.00000
    24.2580    36079.00000
    24.2711    33906.00000
    24.2842    30620.00000
    24.2973    25754.00000
    24.3105    19578.00000
    24.3236    15321.00000
    24.3367    12083.00000
    24.3499    11412.00000
    24.3630    12297.00000
    24.3761    14568.00000
    24.3893    19938.00000
    24.4024    27842.00000
    24.4155    36716.00000
    24.4286    42770.00000
    24.4418    46110.00000
    24.4549    47787.00000
    24.4680    45721.00000
    24.4812    40921.00000
    24.4943    36985.00000
    24.5074    31974.00000
    24.5206    25871.00000
    24.5337    19837.00000
    24.5468    15262.00000
    24.5599    11788.00000
    24.5731     8927.00000
    24.5862     6819.00000
    24.5993     5695.00000
    24.6125     5208.00000
    24.6256     4825.00000
    24.6387     4651.00000
    24.6519     4490.00000
    24.6650     4269.00000
    24.6781     4290.00000
    24.6913     4229.00000
    24.7044     4163.00000
    24.7175     4031.00000
    24.7306     4012.00000
    24.7438     4095.00000
    24.7569     3931.00000
    24.7700     3999.00000
    24.7832     3841.00000
    24.7963     3888.00000
    24.8094     3876.00000
    24.8226     3961.00000
    24.8357     3755.00000
    24.8488     3915.00000
    24.8619     3909.00000
    24.8751     3878.00000
    24.8882     3910.00000
    24.9013     3786.00000
    24.9145     3860.00000
    24.9276     3827.00000
    24.9407     3859.00000
    24.9539     3813.00000
    24.9670     3940.00000
    24.9801     3758.00000
    24.9932     3803.00000
    25.0064     3923.00000
    25.0195     3993.00000
    25.0326     4030.00000
    25.0458     4163.00000
    25.0589     4073.00000
    25.0720     3922.00000
    25.0852     3958.00000
    25.0983     3989.00000
    25.1114     3855.00000
    25.1246     3704.00000
    25.1377     3840.00000
    25.1508     3847.00000
    25.1639     3695.00000
    25.1771     3755.00000
    25.1902     3657.00000
    25.2033     3599.00000
    25.2165     3674.00000
    25.2296     3638.00000
    25.2427     3665.00000
    25.2559     3703.00000
    25.2690     3755.00000
    25.2821     3814.00000
    25.2952     3657.00000
    25.3084     3716.00000
    25.3215     3747.00000
    25.3346     3666.00000
    25.3478     3693.00000
    25.3609     3669.00000
    25.3740     3674.00000
    25.3872     3591.00000
    25.4003     3678.00000
    25.4134     3616.00000
    25.4265     3652.00000
    25.4397     3787.00000
    25.4528     3723.00000
    25.4659     3689.00000
    25.4791     3617.00000
    25.4922     3651.00000
    25.5053     3685.00000
    25.5185     3601.00000
    25.5316     3623.00000
    25.5447     3577.00000
    25.5579     3713.00000
    25.5710     3689.00000
    25.5841     3614.00000
    25.5972     3538.00000
    25.6104     3732.00000
    25.6235     3658.00000
    25.6366     3667.00000
    25.6498     3560.00000
    25.6629     3569.00000
    25.6760     3604.00000
    25.6892     3589.00000
    25.7023     3554.00000
    25.7154     3693.00000
    25.7285     3651.00000
    25.7417     3570.00000
    25.7548     3396.00000
    25.7679     3582.00000
    25.7811     3630.00000
    25.7942     3572.00000
    25.8073     3665.00000
    25.8205     3537.00000
    25.8336     3536.00000
    25.8467     3573.00000
    25.8598     3528.00000
    25.8730     3561.00000
    25.8861     3476.00000
    25.8992     3514.00000
    25.9124     3649.00000
    25.9255     3538.00000
    25.9386     3569.00000
    25.9518     3638.00000
    25.9649     3642.00000
    25.9780     3645.00000
    25.9911     3674.00000
    26.0043     3704.00000
    26.0174     3583.00000
    26.0305     3794.00000
    26.0437     3936.00000
    26.0568     3999.00000
    26.0699     4061.00000
    26.0831     4179.00000
    26.0962     4044.00000
    26.1093     4057.00000
    26.1225     4040.00000
    26.1356     3980.00000
    26.1487     4006.00000
    26.1618     3917.00000
    26.1750     3816.00000
    26.1881     3797.00000
    26.2012     3680.00000
    26.2144     3673.00000
    26.2275     3675.00000
    26.2406     3590.00000
    26.2538     3544.00000
    26.2669     3424.00000
    26.2800     3546.00000
    26.2931     3508.00000
    26.3063     3562.00000
    26.3194     3540.00000
    26.3325     3604.00000
    26.3457     3537.00000
    26.3588     3563.00000
    26.3719     3575.00000
    26.3851     3584.00000
    26.3982     3691.00000
    26.4113     3538.00000
    26.4244     3645.00000
    26.4376     3651.00000
    26.4507     3599.00000
    26.4638     3597.00000
    26.4770     3616.00000
    26.4901     3507.00000
    26.5032     3583.00000
    26.5164     3672.00000
    26.5295     3380.00000
    26.5426     3457.00000
    26.5558     3483.00000
    26.5689     3541.00000
    26.5820     3595.00000
    26.5951     3563.00000
    26.6083     3550.00000
    26.6214     3544.00000
    26.6345     3446.00000
    26.6477     3635.00000
    26.6608     3424.00000
    26.6739     3386.00000
    26.6871     3492.00000
    26.7002     3390.00000
    26.7133     3507.00000
    26.7264     3407.00000
    26.7396     3521.00000
    26.7527     3594.00000
    26.7658     3475.00000
    26.7790     3628.00000
    26.7921     3589.00000
    26.8052     3508.00000
    26.8184     3672.00000
    26.8315     3612.00000
    26.8446     3679.00000
    26.8577     3678.00000
    26.8709     3706.00000
    26.8840     3623.00000
    26.8971     3615.00000
    26.9103     3779.00000
    26.9234     3784.00000
    26.9365     3695.00000
    26.9497     3728.00000
    26.9628     3713.00000
    26.9759     3631.00000
    26.9891     3580.00000
    27.0022     3683.00000
    27.0153     3679.00000
    27.0284     3634.00000
    27.0416     3689.00000
    27.0547     3660.00000
    27.0678     3761.00000
    27.0810     3622.00000
    27.0941     3678.00000
    27.1072     3636.00000
    27.1204     3621.00000
    27.1335     3574.00000
    27.1466     3668.00000
    27.1597     3716.00000
    27.1729     3719.00000
    27.1860     3706.00000
    27.1991     3659.00000
    27.2123     3699.00000
    27.2254     3792.00000
    27.2385     3649.00000
    27.2517     3693.00000
    27.2648     3745.00000
    27.2779     3590.00000
    27.2910     3815.00000
    27.3042     3772.00000
    27.3173     3745.00000
    27.3304     3712.00000
    27.3436     3721.00000
    27.3567     3804.00000
    27.3698     3763.00000
    27.3830     3790.00000
    27.3961     3724.00000
    27.4092     3907.00000
    27.4224     3849.00000
    27.4355     3768.00000
    27.4486     3986.00000
    27.4617     3975.00000
    27.4749     4042.00000
    27.4880     4111.00000
    27.5011     4198.00000
    27.5143     4351.00000
    27.5274     4462.00000
    27.5405     4509.00000
    27.5537     4798.00000
    27.5668     4857.00000
    27.5799     4894.00000
    27.5930     5338.00000
    27.6062     5502.00000
    27.6193     5842.00000
    27.6324     6290.00000
    27.6456     6788.00000
    27.6587     7470.00000
    27.6718     8396.00000
    27.6850    10199.00000
    27.6981    12685.00000
    27.7112    16779.00000
    27.7243    23636.00000
    27.7375    35110.00000
    27.7506    50375.00000
    27.7637    66270.00000
    27.7769    78328.00000
    27.7900    80992.00000
    27.8031    75392.00000
    27.8163    67342.00000
    27.8294    61207.00000
    27.8425    56408.00000
    27.8556    50516.00000
    27.8688    42661.00000
    27.8819    33512.00000
    27.8950    25028.00000
    27.9082    18326.00000
    27.9213    13280.00000
    27.9344     9901.00000
    27.9476     7859.00000
    27.9607     7001.00000
    27.9738     6067.00000
    27.9870     5651.00000
    28.0001     5225.00000
    28.0132     4899.00000
    28.0263     4664.00000
    28.0395     4589.00000
    28.0526     4336.00000
    28.0657     4243.00000
    28.0789     4163.00000
    28.0920     3962.00000
    28.1051     3922.00000
    28.1183     3907.00000
    28.1314     3926.00000
    28.1445     3857.00000
    28.1576     3774.00000
    28.1708     3780.00000
    28.1839     3786.00000
    28.1970     3813.00000
    28.2102     3708.00000
    28.2233     3756.00000
    28.2364     3687.00000
    28.2496     3621.00000
    28.2627     3683.00000
    28.2758     3815.00000
    28.2889     3735.00000
    28.3021     3693.00000
    28.3152     3732.00000
    28.3283     3847.00000
    28.3415     3916.00000
    28.3546     4016.00000
    28.3677     4067.00000
    28.3809     4084.00000
    28.3940     3916.00000
    28.4071     3815.00000
    28.4203     3805.00000
    28.4334     3903.00000
    28.4465     3944.00000
    28.4596     3737.00000
    28.4728     3746.00000
    28.4859     3778.00000
    28.4990     3630.00000
    28.5122     3826.00000
    28.5253     3592.00000
    28.5384     3642.00000
    28.5516     3673.00000
    28.5647     3597.00000
    28.5778     3515.00000
    28.5909     3649.00000
    28.6041     3606.00000
    28.6172     3525.00000
    28.6303     3575.00000
    28.6435     3701.00000
    28.6566     3578.00000
    28.6697     3573.00000
    28.6829     3607.00000
    28.6960     3635.00000
    28.7091     3544.00000
    28.7222     3503.00000
    28.7354     3539.00000
    28.7485     3567.00000
    28.7616     3532.00000
    28.7748     3541.00000
    28.7879     3628.00000
    28.8010     3544.00000
    28.8142     3670.00000
    28.8273     3610.00000
    28.8404     3642.00000
    28.8536     3423.00000
    28.8667     3492.00000
    28.8798     3519.00000
    28.8929     3514.00000
    28.9061     3596.00000
    28.9192     3531.00000
    28.9323     3469.00000
    28.9455     3570.00000
    28.9586     3699.00000
    28.9717     3667.00000
    28.9849     3583.00000
    28.9980     3672.00000
    29.0111     3773.00000
    29.0242     3707.00000
    29.0374     3785.00000
    29.0505     3850.00000
    29.0636     3887.00000
    29.0768     3845.00000
    29.0899     3988.00000
    29.1030     4050.00000
    29.1162     4095.00000
    29.1293     4163.00000
    29.1424     4345.00000
    29.1555     4410.00000
    29.1687     4623.00000
    29.1818     4764.00000
    29.1949     4990.00000
    29.2081     5480.00000
    29.2212     6248.00000
    29.2343     7960.00000
    29.2475    10695.00000
    29.2606    16109.00000
    29.2737    22753.00000
    29.2869    29304.00000
    29.3000    34236.00000
    29.3131    34805.00000
    29.3262    30575.00000
    29.3394    26542.00000
    29.3525    24761.00000
    29.3656    23723.00000
    29.3788    23000.00000
    29.3919    20387.00000
    29.4050    16853.00000
    29.4182    14486.00000
    29.4313    13042.00000
    29.4444    13082.00000
    29.4575    14395.00000
    29.4707    16359.00000
    29.4838    18682.00000
    29.4969    18967.00000
    29.5101    18485.00000
    29.5232    16764.00000
    29.5363    14914.00000
    29.5495    13578.00000
    29.5626    12480.00000
    29.5757    11482.00000
    29.5888     9971.00000
    29.6020     8483.00000
    29.6151     6815.00000
    29.6282     5695.00000
    29.6414     4763.00000
    29.6545     4320.00000
    29.6676     3932.00000
    29.6808     3813.00000
    29.6939     3785.00000
    29.7070     3728.00000
    29.7201     3727.00000
    29.7333     3610.00000
    29.7464     3471.00000
    29.7595     3466.00000
    29.7727     3589.00000
    29.7858     3333.00000
    29.7989     3483.00000
    29.8121     3450.00000
    29.8252     3484.00000
    29.8383     3450.00000
    29.8515     3478.00000
    29.8646     3440.00000
    29.8777     3313.00000
    29.8908     3305.00000
    29.9040     3508.00000
    29.9171     3422.00000
    29.9302     3358.00000
    29.9434     3470.00000
    29.9565     3413.00000
    29.9696     3402.00000
    29.9828     3531.00000
    29.9959     3405.00000
    30.0090     3436.00000
    30.0221     3434.00000
    30.0353     3521.00000
    30.0484     3458.00000
    30.0615     3358.00000
    30.0747     3265.00000
    30.0878     3313.00000
    30.1009     3268.00000
    30.1141     3278.00000
    30.1272     3409.00000
    30.1403     3435.00000
    30.1535     3345.00000
    30.1666     3390.00000
    30.1797     3310.00000
    30.1928     3449.00000
    30.2060     3356.00000
    30.2191     3375.00000
    30.2322     3322.00000
    30.2454     3339.00000
    30.2585     3329.00000
    30.2716     3269.00000
    30.2848     3378.00000
    30.2979     3204.00000
    30.3110     3292.00000
    30.3241     3260.00000
    30.3373     3341.00000
    30.3504     3293.00000
    30.3635     3227.00000
    30.3767     3310.00000
    30.3898     3326.00000
    30.4029     3304.00000
    30.4161     3286.00000
    30.4292     3405.00000
    30.4423     3398.00000
    30.4554     3311.00000
    30.4686     3193.00000
    30.4817     3344.00000
    30.4948     3369.00000
    30.5080     3237.00000
    30.5211     3282.00000
    30.5342     3251.00000
    30.5474     3263.00000
    30.5605     3387.00000
    30.5736     3261.00000
    30.5868     3320.00000
    30.5999     3258.00000
    30.6130     3217.00000
    30.6261     3145.00000
    30.6393     3154.00000
    30.6524     3228.00000
    30.6655     3204.00000
    30.6787     3318.00000
    30.6918     3205.00000
    30.7049     3196.00000
    30.7181     3139.00000
    30.7312     3193.00000
    30.7443     3218.00000
    30.7574     3232.00000
    30.7706     3175.00000
    30.7837     3169.00000
    30.7968     3132.00000
    30.8100     3194.00000
    30.8231     3091.00000
    30.8362     3174.00000
    30.8494     3176.00000
    30.8625     3152.00000
    30.8756     3257.00000
    30.8887     3203.00000
    30.9019     3226.00000
    30.9150     3222.00000
    30.9281     3197.00000
    30.9413     3211.00000
    30.9544     3142.00000
    30.9675     3172.00000
    30.9807     3204.00000
    30.9938     3179.00000
    31.0069     3175.00000
    31.0200     3245.00000
    31.0332     3109.00000
    31.0463     3183.00000
    31.0594     3224.00000
    31.0726     3273.00000
    31.0857     3130.00000
    31.0988     3336.00000
    31.1120     3204.00000
    31.1251     3158.00000
    31.1382     2988.00000
    31.1514     3197.00000
    31.1645     3202.00000
    31.1776     3255.00000
    31.1907     3156.00000
    31.2039     3078.00000
    31.2170     3209.00000
    31.2301     3104.00000
    31.2433     3011.00000
    31.2564     3009.00000
    31.2695     3198.00000
    31.2827     3198.00000
    31.2958     3188.00000
    31.3089     3249.00000
    31.3220     3106.00000
    31.3352     3190.00000
    31.3483     3215.00000
    31.3614     3101.00000
    31.3746     3045.00000
    31.3877     3199.00000
    31.4008     3104.00000
    31.4140     3079.00000
    31.4271     3156.00000
    31.4402     3198.00000
    31.4533     3037.00000
    31.4665     3132.00000
    31.4796     3169.00000
    31.4927     3230.00000
    31.5059     3147.00000
    31.5190     3053.00000
    31.5321     3160.00000
    31.5453     3139.00000
    31.5584     3171.00000
    31.5715     3119.00000
    31.5847     3042.00000
    31.5978     3098.00000
    31.6109     3078.00000
    31.6240     3060.00000
    31.6372     3199.00000
    31.6503     3097.00000
    31.6634     3143.00000
    31.6766     3174.00000
    31.6897     3091.00000
    31.7028     3187.00000
    31.7160     3203.00000
    31.7291     3031.00000
    31.7422     3194.00000
    31.7553     3192.00000
    31.7685     3079.00000
    31.7816     3172.00000
    31.7947     3169.00000
    31.8079     3130.00000
    31.8210     3220.00000
    31.8341     3159.00000
    31.8473     3160.00000
    31.8604     3227.00000
    31.8735     3102.00000
    31.8866     3187.00000
    31.8998     3042.00000
    31.9129     3164.00000
    31.9260     3144.00000
    31.9392     3172.00000
    31.9523     3114.00000
    31.9654     3107.00000
    31.9786     3155.00000
    31.9917     3169.00000
    32.0048     3168.00000
    32.0180     3039.00000
    32.0311     3046.00000
    32.0442     3105.00000
    32.0573     3149.00000
    32.0705     3133.00000
    32.0836     3136.00000
    32.0967     3131.00000
    32.1099     3227.00000
    32.1230     3241.00000
    32.1361     3145.00000
    32.1493     3216.00000
    32.1624     3114.00000
    32.1755     3128.00000
    32.1886     3211.00000
    32.2018     3243.00000
    32.2149     3121.00000
    32.2280     3130.00000
    32.2412     3198.00000
    32.2543     3254.00000
    32.2674     3278.00000
    32.2806     3212.00000
    32.2937     3266.00000
    32.3068     3215.00000
    32.3199     3281.00000
    32.3331     3237.00000
    32.3462     3196.00000
    32.3593     3269.00000
    32.3725     3223.00000
    32.3856     3253.00000
    32.3987     3106.00000
    32.4119     3070.00000
    32.4250     3108.00000
    32.4381     3179.00000
    32.4512     3101.00000
    32.4644     3174.00000
    32.4775     3124.00000
    32.4906     3136.00000
    32.5038     3212.00000
    32.5169     3221.00000
    32.5300     3248.00000
    32.5432     3225.00000
    32.5563     3329.00000
    32.5694     3341.00000
    32.5826     3402.00000
    32.5957     3341.00000
    32.6088     3443.00000
    32.6219     3429.00000
    32.6351     3566.00000
    32.6482     3601.00000
    32.6613     3706.00000
    32.6745     3634.00000
    32.6876     3825.00000
    32.7007     3837.00000
    32.7139     3952.00000
    32.7270     4233.00000
    32.7401     4692.00000
    32.7532     5430.00000
    32.7664     7168.00000
    32.7795    10570.00000
    32.7926    15914.00000
    32.8058    21385.00000
    32.8189    23098.00000
    32.8320    20292.00000
    32.8452    16395.00000
    32.8583    13438.00000
    32.8714    12265.00000
    32.8845    13408.00000
    32.8977    14350.00000
    32.9108    12874.00000
    32.9239    10380.00000
    32.9371     8006.00000
    32.9502     6383.00000
    32.9633     5432.00000
    32.9765     4664.00000
    32.9896     4241.00000
    33.0027     4057.00000
    33.0159     3890.00000
    33.0290     3874.00000
    33.0421     3859.00000
    33.0552     3921.00000
    33.0684     3909.00000
    33.0815     4029.00000
    33.0946     4146.00000
    33.1078     4161.00000
    33.1209     4266.00000
    33.1340     4364.00000
    33.1472     4526.00000
    33.1603     4542.00000
    33.1734     4805.00000
    33.1865     5061.00000
    33.1997     5725.00000
    33.2128     6732.00000
    33.2259     8865.00000
    33.2391    12574.00000
    33.2522    18163.00000
    33.2653    25355.00000
    33.2785    32823.00000
    33.2916    36136.00000
    33.3047    34370.00000
    33.3178    29008.00000
    33.3310    25306.00000
    33.3441    23103.00000
    33.3572    22010.00000
    33.3704    22174.00000
    33.3835    20720.00000
    33.3966    17464.00000
    33.4098    14013.00000
    33.4229    11174.00000
    33.4360     8320.00000
    33.4492     6418.00000
    33.4623     5354.00000
    33.4754     5052.00000
    33.4885     4500.00000
    33.5017     4281.00000
    33.5148     4186.00000
    33.5279     4138.00000
    33.5411     4183.00000
    33.5542     3989.00000
    33.5673     4171.00000
    33.5805     4079.00000
    33.5936     4246.00000
    33.6067     4333.00000
    33.6198     4439.00000
    33.6330     4590.00000
    33.6461     4580.00000
    33.6592     4737.00000
    33.6724     4961.00000
    33.6855     5563.00000
    33.6986     6179.00000
    33.7118     7387.00000
    33.7249     8875.00000
    33.7380    11699.00000
    33.7511    15787.00000
    33.7643    20487.00000
    33.7774    24901.00000
    33.7905    28576.00000
    33.8037    30679.00000
    33.8168    30429.00000
    33.8299    28716.00000
    33.8431    28574.00000
    33.8562    29902.00000
    33.8693    31387.00000
    33.8825    30783.00000
    33.8956    28076.00000
    33.9087    23088.00000
    33.9218    18756.00000
    33.9350    16142.00000
    33.9481    14352.00000
    33.9612    13175.00000
    33.9744    11354.00000
    33.9875     9714.00000
    34.0006     7748.00000
    34.0138     6357.00000
    34.0269     5407.00000
    34.0400     4524.00000
    34.0531     4106.00000
    34.0663     4015.00000
    34.0794     3782.00000
    34.0925     3748.00000
    34.1057     3627.00000
    34.1188     3533.00000
    34.1319     3484.00000
    34.1451     3413.00000
    34.1582     3460.00000
    34.1713     3275.00000
    34.1844     3359.00000
    34.1976     3329.00000
    34.2107     3248.00000
    34.2238     3284.00000
    34.2370     3141.00000
    34.2501     3224.00000
    34.2632     3321.00000
    34.2764     3216.00000
    34.2895     3157.00000
    34.3026     3234.00000
    34.3158     3162.00000
    34.3289     3147.00000
    34.3420     3223.00000
    34.3551     3160.00000
    34.3683     3177.00000
    34.3814     3181.00000
    34.3945     3152.00000
    34.4077     3213.00000
    34.4208     3176.00000
    34.4339     3259.00000
    34.4471     3179.00000
    34.4602     3053.00000
    34.4733     3255.00000
    34.4864     3233.00000
    34.4996     3193.00000
    34.5127     3277.00000
    34.5258     3308.00000
    34.5390     3370.00000
    34.5521     3312.00000
    34.5652     3299.00000
    34.5784     3358.00000
    34.5915     3445.00000
    34.6046     3441.00000
    34.6177     3557.00000
    34.6309     3463.00000
    34.6440     3414.00000
    34.6571     3626.00000
    34.6703     3708.00000
    34.6834     4217.00000
    34.6965     4720.00000
    34.7097     5722.00000
    34.7228     7352.00000
    34.7359    10138.00000
    34.7491    12658.00000
    34.7622    14344.00000
    34.7753    13747.00000
    34.7884    11810.00000
    34.8016     9962.00000
    34.8147     8675.00000
    34.8278     8657.00000
    34.8410     8997.00000
    34.8541     9178.00000
    34.8672     8496.00000
    34.8804     7182.00000
    34.8935     5668.00000
    34.9066     4931.00000
    34.9197     4104.00000
    34.9329     3778.00000
    34.9460     3486.00000
    34.9591     3344.00000
    34.9723     3329.00000
    34.9854     3278.00000
    34.9985     3273.00000
    35.0117     3234.00000
    35.0248     3221.00000
    35.0379     3337.00000
    35.0510     3473.00000
    35.0642     3732.00000
    35.0773     3830.00000
    35.0904     3904.00000
    35.1036     3753.00000
    35.1167     3560.00000
    35.1298     3376.00000
    35.1430     3415.00000
    35.1561     3539.00000
    35.1692     3478.00000
    35.1824     3450.00000
    35.1955     3303.00000
    35.2086     3391.00000
    35.2217     3089.00000
    35.2349     3097.00000
    35.2480     3053.00000
    35.2611     3066.00000
    35.2743     3014.00000
    35.2874     3050.00000
    35.3005     3019.00000
    35.3137     3071.00000
    35.3268     2928.00000
    35.3399     2986.00000
    35.3530     3085.00000
    35.3662     3003.00000
    35.3793     3036.00000
    35.3924     3059.00000
    35.4056     2954.00000
    35.4187     2874.00000
    35.4318     3002.00000
    35.4450     2989.00000
    35.4581     2997.00000
    35.4712     3037.00000
    35.4843     2984.00000
    35.4975     2861.00000
    35.5106     3007.00000
    35.5237     2940.00000
    35.5369     2942.00000
    35.5500     2891.00000
    35.5631     2811.00000
    35.5763     2952.00000
    35.5894     2857.00000
    35.6025     3114.00000
    35.6156     2978.00000
    35.6288     2993.00000
    35.6419     2952.00000
    35.6550     2956.00000
    35.6682     2918.00000
    35.6813     2920.00000
    35.6944     2888.00000
    35.7076     2940.00000
    35.7207     2950.00000
    35.7338     2912.00000
    35.7470     2875.00000
    35.7601     2919.00000
    35.7732     2955.00000
    35.7863     2828.00000
    35.7995     2885.00000
    35.8126     2908.00000
    35.8257     2898.00000
    35.8389     2869.00000
    35.8520     2916.00000
    35.8651     2895.00000
    35.8783     2839.00000
    35.8914     2899.00000
    35.9045     2926.00000
    35.9176     2942.00000
    35.9308     2875.00000
    35.9439     2876.00000
    35.9570     2839.00000
    35.9702     2974.00000
    35.9833     2908.00000
    35.9964     2920.00000
    36.0096     2967.00000
    36.0227     2879.00000
    36.0358     2934.00000
    36.0489     3075.00000
    36.0621     3118.00000
    36.0752     2972.00000
    36.0883     3078.00000
    36.1015     3055.00000
    36.1146     2963.00000
    36.1277     3018.00000
    36.1409     3046.00000
    36.1540     3071.00000
    36.1671     3066.00000
    36.1802     3104.00000
    36.1934     3115.00000
    36.2065     3033.00000
    36.2196     3006.00000
    36.2328     2964.00000
    36.2459     2974.00000
    36.2590     2906.00000
    36.2722     2864.00000
    36.2853     2951.00000
    36.2984     2993.00000
    36.3116     2943.00000
    36.3247     2823.00000
    36.3378     2936.00000
    36.3509     2888.00000
    36.3641     2899.00000
    36.3772     2960.00000
    36.3903     2933.00000
    36.4035     2858.00000
    36.4166     2905.00000
    36.4297     2978.00000
    36.4429     3012.00000
    36.4560     3001.00000
    36.4691     2982.00000
    36.4822     2966.00000
    36.4954     3123.00000
    36.5085     3026.00000
    36.5216     3033.00000
    36.5348     3167.00000
    36.5479     3161.00000
    36.5610     3072.00000
    36.5742     3245.00000
    36.5873     3299.00000
    36.6004     3421.00000
    36.6135     3665.00000
    36.6267     4245.00000
    36.6398     5402.00000
    36.6529     6948.00000
    36.6661     8545.00000
    36.6792     9525.00000
    36.6923     9683.00000
    36.7055     8914.00000
    36.7186     7522.00000
    36.7317     6428.00000
    36.7449     6201.00000
    36.7580     6242.00000
    36.7711     6583.00000
    36.7842     6410.00000
    36.7974     6272.00000
    36.8105     5501.00000
    36.8236     4703.00000
    36.8368     3937.00000
    36.8499     3440.00000
    36.8630     3176.00000
    36.8762     3129.00000
    36.8893     3142.00000
    36.9024     3006.00000
    36.9155     2959.00000
    36.9287     3092.00000
    36.9418     3022.00000
    36.9549     3069.00000
    36.9681     3162.00000
    36.9812     3041.00000
    36.9943     2924.00000
    37.0075     3005.00000
    37.0206     2916.00000
    37.0337     2958.00000
    37.0468     2919.00000
    37.0600     3038.00000
    37.0731     2940.00000
    37.0862     3001.00000
    37.0994     2908.00000
    37.1125     2886.00000
    37.1256     3011.00000
    37.1388     2982.00000
    37.1519     2969.00000
    37.1650     2967.00000
    37.1782     3016.00000
    37.1913     3092.00000
    37.2044     2976.00000
    37.2175     2972.00000
    37.2307     3137.00000
    37.2438     3002.00000
    37.2569     3175.00000
    37.2701     3091.00000
    37.2832     3159.00000
    37.2963     3108.00000
    37.3095     3269.00000
    37.3226     3216.00000
    37.3357     3516.00000
    37.3488     3605.00000
    37.3620     3804.00000
    37.3751     4307.00000
    37.3882     4873.00000
    37.4014     5954.00000
    37.4145     7490.00000
    37.4276     8756.00000
    37.4408     9643.00000
    37.4539    10022.00000
    37.4670    10134.00000
    37.4801     9079.00000
    37.4933     8151.00000
    37.5064     7382.00000
    37.5195     7054.00000
    37.5327     6990.00000
    37.5458     6706.00000
    37.5589     6536.00000
    37.5721     6000.00000
    37.5852     5397.00000
    37.5983     4636.00000
    37.6115     3937.00000
    37.6246     3787.00000
    37.6377     3436.00000
    37.6508     3197.00000
    37.6640     3142.00000
    37.6771     3141.00000
    37.6902     3201.00000
    37.7034     3372.00000
    37.7165     3601.00000
    37.7296     3887.00000
    37.7428     3804.00000
    37.7559     3753.00000
    37.7690     3640.00000
    37.7821     3420.00000
    37.7953     3250.00000
    37.8084     3307.00000
    37.8215     3320.00000
    37.8347     3291.00000
    37.8478     3245.00000
    37.8609     3165.00000
    37.8741     3106.00000
    37.8872     3156.00000
    37.9003     2931.00000
    37.9134     2922.00000
    37.9266     2780.00000
    37.9397     2845.00000
    37.9528     2787.00000
    37.9660     2770.00000
    37.9791     2796.00000
    37.9922     2660.00000
    38.0054     2837.00000
    38.0185     2768.00000
    38.0316     2790.00000
    38.0448     2715.00000
    38.0579     2732.00000
    38.0710     2848.00000
    38.0841     2752.00000
    38.0973     2835.00000
    38.1104     2747.00000
    38.1235     2699.00000
    38.1367     2700.00000
    38.1498     2724.00000
    38.1629     2810.00000
    38.1761     2801.00000
    38.1892     2790.00000
    38.2023     2853.00000
    38.2154     2834.00000
    38.2286     2764.00000
    38.2417     2842.00000
    38.2548     2707.00000
    38.2680     2852.00000
    38.2811     2795.00000
    38.2942     2804.00000
    38.3074     2767.00000
    38.3205     2773.00000
    38.3336     2728.00000
    38.3467     2735.00000
    38.3599     2747.00000
    38.3730     2706.00000
    38.3861     2702.00000
    38.3993     2704.00000
    38.4124     2759.00000
    38.4255     2715.00000
    38.4387     2709.00000
    38.4518     2671.00000
    38.4649     2846.00000
    38.4781     2674.00000
    38.4912     2611.00000
    38.5043     2785.00000
    38.5174     2675.00000
    38.5306     2724.00000
    38.5437     2759.00000
    38.5568     2763.00000
    38.5700     2732.00000
    38.5831     2756.00000
    38.5962     2820.00000
    38.6094     2806.00000
    38.6225     2760.00000
    38.6356     2758.00000
    38.6487     2743.00000
    38.6619     2722.00000
    38.6750     2769.00000
    38.6881     2844.00000
    38.7013     2776.00000
    38.7144     2814.00000
    38.7275     2732.00000
    38.7407     2667.00000
    38.7538     2752.00000
    38.7669     2734.00000
    38.7800     2644.00000
    38.7932     2710.00000
    38.8063     2767.00000
    38.8194     2767.00000
    38.8326     2634.00000
    38.8457     2689.00000
    38.8588     2637.00000
    38.8720     2721.00000
    38.8851     2775.00000
    38.8982     2672.00000
    38.9114     2675.00000
    38.9245     2776.00000
    38.9376     2695.00000
    38.9507     2745.00000
    38.9639     2826.00000
    38.9770     2836.00000
    38.9901     2695.00000
    39.0033     2920.00000
    39.0164     2702.00000
    39.0295     2828.00000
    39.0427     2769.00000
    39.0558     2737.00000
    39.0689     2736.00000
    39.0820     2676.00000
    39.0952     2748.00000
    39.1083     2759.00000
    39.1214     2808.00000
    39.1346     2804.00000
    39.1477     2716.00000
    39.1608     2779.00000
    39.1740     2768.00000
    39.1871     2770.00000
    39.2002     2723.00000
    39.2133     2762.00000
    39.2265     2692.00000
    39.2396     2658.00000
    39.2527     2732.00000
    39.2659     2761.00000
    39.2790     2792.00000
    39.2921     2705.00000
    39.3053     2705.00000
    39.3184     2758.00000
    39.3315     2705.00000
    39.3446     2738.00000
    39.3578     2662.00000
    39.3709     2677.00000
    39.3840     2818.00000
    39.3972     2639.00000
    39.4103     2641.00000
    39.4234     2701.00000
    39.4366     2732.00000
    39.4497     2736.00000
    39.4628     2661.00000
    39.4760     2746.00000
    39.4891     2795.00000
    39.5022     2743.00000
    39.5153     2819.00000
    39.5285     2658.00000
    39.5416     2701.00000
    39.5547     2789.00000
    39.5679     2831.00000
    39.5810     2837.00000
    39.5941     2751.00000
    39.6073     2831.00000
    39.6204     2890.00000
    39.6335     2888.00000
    39.6466     2908.00000
    39.6598     2892.00000
    39.6729     2915.00000
    39.6860     3175.00000
    39.6992     3594.00000
    39.7123     3941.00000
    39.7254     4403.00000
    39.7386     4848.00000
    39.7517     5114.00000
    39.7648     5028.00000
    39.7779     5007.00000
    39.7911     4744.00000
    39.8042     4407.00000
    39.8173     4121.00000
    39.8305     4036.00000
    39.8436     4106.00000
    39.8567     4263.00000
    39.8699     4158.00000
    39.8830     3995.00000
    39.8961     3806.00000
    39.9092     3529.00000
    39.9224     3267.00000
    39.9355     3348.00000
    39.9486     3151.00000
    39.9618     3156.00000
    39.9749     3170.00000
    39.9880     3151.00000
    40.0012     3271.00000
    40.0143     3349.00000
    40.0274     3465.00000
    40.0406     3817.00000
    40.0537     4456.00000
    40.0668     5146.00000
    40.0799     6152.00000
    40.0931     7032.00000
    40.1062     7634.00000
    40.1193     7108.00000
    40.1325     6611.00000
    40.1456     5940.00000
    40.1587     5438.00000
    40.1719     5307.00000
    40.1850     5414.00000
    40.1981     5423.00000
    40.2112     5528.00000
    40.2244     5250.00000
    40.2375     4958.00000
    40.2506     4517.00000
    40.2638     4257.00000
    40.2769     4125.00000
    40.2900     4131.00000
    40.3032     4641.00000
    40.3163     5473.00000
    40.3294     7007.00000
    40.3425     8407.00000
    40.3557     9590.00000
    40.3688     9829.00000
    40.3819     8549.00000
    40.3951     7117.00000
    40.4082     6244.00000
    40.4213     5658.00000
    40.4345     5799.00000
    40.4476     6060.00000
    40.4607     6558.00000
    40.4739     6288.00000
    40.4870     5775.00000
    40.5001     4990.00000
    40.5132     4312.00000
    40.5264     3771.00000
    40.5395     3581.00000
    40.5526     3222.00000
    40.5658     3250.00000
    40.5789     3115.00000
    40.5920     3118.00000
    40.6052     2889.00000
    40.6183     2930.00000
    40.6314     2848.00000
    40.6445     2895.00000
    40.6577     2912.00000
    40.6708     2818.00000
    40.6839     2825.00000
    40.6971     2839.00000
    40.7102     2852.00000
    40.7233     2869.00000
    40.7365     2945.00000
    40.7496     2878.00000
    40.7627     2809.00000
    40.7758     2909.00000
    40.7890     2826.00000
    40.8021     2853.00000
    40.8152     3004.00000
    40.8284     2960.00000
    40.8415     2956.00000
    40.8546     3000.00000
    40.8678     3004.00000
    40.8809     3204.00000
    40.8940     3095.00000
    40.9072     3158.00000
    40.9203     3182.00000
    40.9334     3247.00000
    40.9465     3500.00000
    40.9597     3629.00000
    40.9728     3776.00000
    40.9859     3989.00000
    40.9991     4418.00000
    41.0122     5233.00000
    41.0253     6249.00000
    41.0385     7441.00000
    41.0516     8935.00000
    41.0647    10350.00000
    41.0778    11153.00000
    41.0910    11013.00000
    41.1041    10237.00000
    41.1172     9035.00000
    41.1304     8006.00000
    41.1435     7719.00000
    41.1566     8233.00000
    41.1698     9661.00000
    41.1829    11515.00000
    41.1960    13932.00000
    41.2091    15396.00000
    41.2223    15174.00000
    41.2354    13920.00000
    41.2485    11628.00000
    41.2617     9684.00000
    41.2748     8301.00000
    41.2879     8266.00000
    41.3011     9257.00000
    41.3142    11338.00000
    41.3273    13388.00000
    41.3405    14997.00000
    41.3536    15940.00000
    41.3667    15501.00000
    41.3798    13625.00000
    41.3930    11091.00000
    41.4061     9086.00000
    41.4192     7889.00000
    41.4324     7182.00000
    41.4455     7567.00000
    41.4586     7853.00000
    41.4718     7999.00000
    41.4849     7829.00000
    41.4980     6684.00000
    41.5111     5525.00000
    41.5243     4541.00000
    41.5374     3909.00000
    41.5505     3535.00000
    41.5637     3142.00000
    41.5768     3185.00000
    41.5899     3012.00000
    41.6031     2967.00000
    41.6162     2887.00000
    41.6293     2978.00000
    41.6424     2939.00000
    41.6556     2821.00000
    41.6687     2838.00000
    41.6818     2764.00000
    41.6950     2729.00000
    41.7081     2812.00000
    41.7212     2752.00000
    41.7344     2842.00000
    41.7475     2690.00000
    41.7606     2810.00000
    41.7738     2727.00000
    41.7869     2648.00000
    41.8000     2675.00000
    41.8131     2651.00000
    41.8263     2746.00000
    41.8394     2694.00000
    41.8525     2770.00000
    41.8657     2696.00000
    41.8788     2710.00000
    41.8919     2753.00000
    41.9051     2729.00000
    41.9182     2804.00000
    41.9313     2746.00000
    41.9444     2698.00000
    41.9576     2680.00000
    41.9707     2777.00000
    41.9838     2605.00000
    41.9970     2775.00000
    42.0101     2649.00000
    42.0232     2680.00000
    42.0364     2567.00000
    42.0495     2625.00000
    42.0626     2684.00000
    42.0757     2718.00000
    42.0889     2694.00000
    42.1020     2618.00000
    42.1151     2634.00000
    42.1283     2714.00000
    42.1414     2756.00000
    42.1545     2613.00000
    42.1677     2594.00000
    42.1808     2655.00000
    42.1939     2638.00000
    42.2071     2671.00000
    42.2202     2630.00000
    42.2333     2659.00000
    42.2464     2693.00000
    42.2596     2542.00000
    42.2727     2661.00000
    42.2858     2628.00000
    42.2990     2716.00000
    42.3121     2549.00000
    42.3252     2573.00000
    42.3384     2650.00000
    42.3515     2635.00000
    42.3646     2647.00000
    42.3777     2715.00000
    42.3909     2609.00000
    42.4040     2643.00000
    42.4171     2684.00000
    42.4303     2634.00000
    42.4434     2632.00000
    42.4565     2623.00000
    42.4697     2665.00000
    42.4828     2705.00000
    42.4959     2705.00000
    42.5090     2773.00000
    42.5222     2526.00000
    42.5353     2688.00000
    42.5484     2718.00000
    42.5616     2613.00000
    42.5747     2536.00000
    42.5878     2583.00000
    42.6010     2720.00000
    42.6141     2620.00000
    42.6272     2591.00000
    42.6404     2620.00000
    42.6535     2664.00000
    42.6666     2633.00000
    42.6797     2624.00000
    42.6929     2597.00000
    42.7060     2652.00000
    42.7191     2713.00000
    42.7323     2628.00000
    42.7454     2571.00000
    42.7585     2732.00000
    42.7717     2731.00000
    42.7848     2762.00000
    42.7979     2695.00000
    42.8110     2721.00000
    42.8242     2736.00000
    42.8373     2679.00000
    42.8504     2715.00000
    42.8636     2717.00000
    42.8767     2601.00000
    42.8898     2749.00000
    42.9030     2627.00000
    42.9161     2646.00000
    42.9292     2623.00000
    42.9423     2588.00000
    42.9555     2694.00000
    42.9686     2682.00000
    42.9817     2681.00000
    42.9949     2704.00000
    43.0080     2739.00000
    43.0211     2734.00000
    43.0343     2638.00000
    43.0474     2672.00000
    43.0605     2795.00000
    43.0736     2655.00000
    43.0868     2687.00000
    43.0999     2643.00000
    43.1130     2592.00000
    43.1262     2730.00000
    43.1393     2577.00000
    43.1524     2577.00000
    43.1656     2591.00000
    43.1787     2649.00000
    43.1918     2696.00000
    43.2050     2684.00000
    43.2181     2719.00000
    43.2312     2626.00000
    43.2443     2605.00000
    43.2575     2674.00000
    43.2706     2690.00000
    43.2837     2680.00000
    43.2969     2693.00000
    43.3100     2591.00000
    43.3231     2568.00000
    43.3363     2640.00000
    43.3494     2638.00000
    43.3625     2720.00000
    43.3756     2593.00000
    43.3888     2614.00000
    43.4019     2714.00000
    43.4150     2758.00000
    43.4282     2838.00000
    43.4413     2947.00000
    43.4544     3154.00000
    43.4676     3401.00000
    43.4807     3449.00000
    43.4938     3427.00000
    43.5069     3564.00000
    43.5201     3343.00000
    43.5332     3153.00000
    43.5463     3155.00000
    43.5595     3043.00000
    43.5726     3002.00000
    43.5857     3152.00000
    43.5989     3054.00000
    43.6120     3042.00000
    43.6251     3077.00000
    43.6383     2855.00000
    43.6514     2826.00000
    43.6645     2796.00000
    43.6776     2648.00000
    43.6908     2608.00000
    43.7039     2729.00000
    43.7170     2668.00000
    43.7302     2660.00000
    43.7433     2647.00000
    43.7564     2709.00000
    43.7696     2613.00000
    43.7827     2600.00000
    43.7958     2611.00000
    43.8089     2671.00000
    43.8221     2574.00000
    43.8352     2595.00000
    43.8483     2652.00000
    43.8615     2655.00000
    43.8746     2698.00000
    43.8877     2680.00000
    43.9009     2660.00000
    43.9140     2580.00000
    43.9271     2571.00000
    43.9402     2601.00000
    43.9534     2580.00000
    43.9665     2609.00000
    43.9796     2637.00000
    43.9928     2544.00000
    44.0059     2665.00000
    44.0190     2650.00000
    44.0322     2658.00000
    44.0453     2658.00000
    44.0584     2689.00000
    44.0715     2605.00000
    44.0847     2616.00000
    44.0978     2745.00000
    44.1109     2594.00000
    44.1241     2711.00000
    44.1372     2750.00000
    44.1503     2788.00000
    44.1635     2896.00000
    44.1766     2949.00000
    44.1897     2985.00000
    44.2029     3072.00000
    44.2160     3122.00000
    44.2291     3235.00000
    44.2422     3468.00000
    44.2554     3743.00000
    44.2685     3900.00000
    44.2816     3833.00000
    44.2948     3653.00000
    44.3079     3432.00000
    44.3210     3405.00000
    44.3342     3213.00000
    44.3473     3087.00000
    44.3604     3163.00000
    44.3735     3143.00000
    44.3867     3240.00000
    44.3998     3259.00000
    44.4129     3040.00000
    44.4261     3054.00000
    44.4392     2952.00000
    44.4523     2847.00000
    44.4655     2923.00000
    44.4786     2738.00000
    44.4917     2805.00000
    44.5048     2740.00000
    44.5180     2777.00000
    44.5311     2801.00000
    44.5442     2928.00000
    44.5574     2921.00000
    44.5705     3130.00000
    44.5836     3120.00000
    44.5968     3297.00000
    44.6099     3548.00000
    44.6230     3941.00000
    44.6362     4483.00000
    44.6493     4996.00000
    44.6624     5586.00000
    44.6755     5929.00000
    44.6887     5763.00000
    44.7018     5245.00000
    44.7149     4669.00000
    44.7281     4258.00000
    44.7412     4131.00000
    44.7543     4042.00000
    44.7675     4132.00000
    44.7806     4339.00000
    44.7937     4351.00000
    44.8068     4129.00000
    44.8200     3894.00000
    44.8331     3609.00000
    44.8462     3334.00000
    44.8594     3122.00000
    44.8725     3005.00000
    44.8856     2914.00000
    44.8988     2754.00000
    44.9119     2725.00000
    44.9250     2680.00000
    44.9381     2774.00000
    44.9513     2725.00000
    44.9644     2585.00000
    44.9775     2601.00000
    44.9907     2718.00000
    45.0038     2647.00000
    45.0169     2606.00000
    45.0301     2528.00000
    45.0432     2695.00000
    45.0563     2679.00000
    45.0695     2622.00000
    45.0826     2669.00000
    45.0957     2564.00000
    45.1088     2599.00000
    45.1220     2672.00000
    45.1351     2572.00000
    45.1482     2752.00000
    45.1614     2581.00000
    45.1745     2648.00000
    45.1876     2542.00000
    45.2008     2527.00000
    45.2139     2649.00000
    45.2270     2567.00000
    45.2401     2561.00000
    45.2533     2591.00000
    45.2664     2638.00000
    45.2795     2507.00000
    45.2927     2483.00000
    45.3058     2600.00000
    45.3189     2546.00000
    45.3321     2651.00000
    45.3452     2671.00000
    45.3583     2640.00000
    45.3714     2663.00000
    45.3846     2673.00000
    45.3977     2665.00000
    45.4108     2667.00000
    45.4240     2660.00000
    45.4371     2719.00000
    45.4502     2705.00000
    45.4634     2795.00000
    45.4765     2659.00000
    45.4896     2849.00000
    45.5028     2729.00000
    45.5159     2709.00000
    45.5290     2850.00000
    45.5421     2812.00000
    45.5553     2897.00000
    45.5684     2822.00000
    45.5815     2942.00000
    45.5947     3035.00000
    45.6078     3009.00000
    45.6209     3022.00000
    45.6341     3203.00000
    45.6472     3362.00000
    45.6603     3783.00000
    45.6734     4297.00000
    45.6866     5597.00000
    45.6997     7534.00000
    45.7128    10330.00000
    45.7260    12334.00000
    45.7391    12085.00000
    45.7522    10580.00000
    45.7654     8127.00000
    45.7785     6284.00000
    45.7916     5334.00000
    45.8047     4989.00000
    45.8179     5668.00000
    45.8310     6487.00000
    45.8441     7453.00000
    45.8573     7503.00000
    45.8704     6954.00000
    45.8835     5644.00000
    45.8967     4601.00000
    45.9098     3830.00000
    45.9229     3376.00000
    45.9361     3099.00000
    45.9492     3013.00000
    45.9623     2833.00000
    45.9754     2871.00000
    45.9886     2756.00000
    46.0017     2739.00000
    46.0148     2776.00000
    46.0280     2703.00000
    46.0411     2762.00000
    46.0542     2767.00000
    46.0674     2688.00000
    46.0805     2629.00000
    46.0936     2792.00000
    46.1067     2798.00000
    46.1199     2798.00000
    46.1330     2780.00000
    46.1461     2656.00000
    46.1593     2730.00000
    46.1724     2816.00000
    46.1855     2806.00000
    46.1987     2787.00000
    46.2118     2749.00000
    46.2249     2844.00000
    46.2380     2859.00000
    46.2512     2916.00000
    46.2643     2996.00000
    46.2774     3131.00000
    46.2906     3491.00000
    46.3037     4079.00000
    46.3168     5096.00000
    46.3300     6274.00000
    46.3431     7290.00000
    46.3562     7495.00000
    46.3694     6700.00000
    46.3825     5501.00000
    46.3956     4562.00000
    46.4087     4097.00000
    46.4219     3932.00000
    46.4350     3896.00000
    46.4481     4491.00000
    46.4613     5000.00000
    46.4744     5136.00000
    46.4875     4848.00000
    46.5007     4416.00000
    46.5138     3763.00000
    46.5269     3290.00000
    46.5400     2926.00000
    46.5532     2984.00000
    46.5663     2854.00000
    46.5794     2806.00000
    46.5926     2893.00000
    46.6057     2809.00000
    46.6188     2708.00000
    46.6320     2658.00000
    46.6451     2765.00000
    46.6582     2696.00000
    46.6713     2701.00000
    46.6845     2652.00000
    46.6976     2722.00000
    46.7107     2747.00000
    46.7239     2669.00000
    46.7370     2652.00000
    46.7501     2719.00000
    46.7633     2758.00000
    46.7764     2691.00000
    46.7895     2743.00000
    46.8027     2743.00000
    46.8158     2675.00000
    46.8289     2723.00000
    46.8420     2529.00000
    46.8552     2686.00000
    46.8683     2704.00000
    46.8814     2667.00000
    46.8946     2689.00000
    46.9077     2668.00000
    46.9208     2703.00000
    46.9340     2764.00000
    46.9471     2748.00000
    46.9602     2710.00000
    46.9733     2750.00000
    46.9865     2732.00000
    46.9996     2761.00000
    47.0127     2719.00000
    47.0259     2758.00000
    47.0390     2768.00000
    47.0521     2865.00000
    47.0653     2977.00000
    47.0784     2849.00000
    47.0915     3003.00000
    47.1046     2981.00000
    47.1178     3118.00000
    47.1309     3226.00000
    47.1440     3373.00000
    47.1572     3545.00000
    47.1703     3892.00000
    47.1834     4292.00000
    47.1966     5217.00000
    47.2097     6071.00000
    47.2228     7105.00000
    47.2359     8001.00000
    47.2491     8834.00000
    47.2622     8923.00000
    47.2753     8478.00000
    47.2885     7124.00000
    47.3016     5796.00000
    47.3147     5238.00000
    47.3279     5154.00000
    47.3410     5106.00000
    47.3541     5610.00000
    47.3673     5840.00000
    47.3804     5965.00000
    47.3935     5793.00000
    47.4066     5101.00000
    47.4198     4462.00000
    47.4329     3817.00000
    47.4460     3492.00000
    47.4592     3348.00000
    47.4723     3036.00000
    47.4854     3106.00000
    47.4986     3014.00000
    47.5117     2951.00000
    47.5248     2958.00000
    47.5379     2948.00000
    47.5511     3088.00000
    47.5642     3016.00000
    47.5773     3032.00000
    47.5905     3061.00000
    47.6036     3147.00000
    47.6167     3251.00000
    47.6299     3299.00000
    47.6430     3305.00000
    47.6561     3297.00000
    47.6692     3381.00000
    47.6824     3391.00000
    47.6955     3385.00000
    47.7086     3481.00000
    47.7218     3603.00000
    47.7349     3708.00000
    47.7480     3723.00000
    47.7612     3952.00000
    47.7743     4276.00000
    47.7874     4587.00000
    47.8005     4857.00000
    47.8137     5514.00000
    47.8268     6415.00000
    47.8399     7679.00000
    47.8531    10006.00000
    47.8662    12567.00000
    47.8793    15963.00000
    47.8925    18721.00000
    47.9056    20101.00000
    47.9187    18404.00000
    47.9319    15972.00000
    47.9450    13047.00000
    47.9581    10755.00000
    47.9712     9984.00000
    47.9844     9906.00000
    47.9975    10288.00000
    48.0106    11292.00000
    48.0238    11968.00000
    48.0369    11861.00000
    48.0500    10703.00000
    48.0632     9093.00000
    48.0763     7299.00000
    48.0894     6114.00000
    48.1025     5383.00000
    48.1157     4711.00000
    48.1288     4136.00000
    48.1419     3979.00000
    48.1551     3775.00000
    48.1682     3704.00000
    48.1813     3495.00000
    48.1945     3276.00000
    48.2076     3433.00000
    48.2207     3258.00000
    48.2338     3301.00000
    48.2470     3269.00000
    48.2601     3334.00000
    48.2732     3244.00000
    48.2864     3322.00000
    48.2995     3359.00000
    48.3126     3418.00000
    48.3258     3415.00000
    48.3389     3583.00000
    48.3520     3781.00000
    48.3652     4195.00000
    48.3783     4810.00000
    48.3914     5769.00000
    48.4045     7402.00000
    48.4177     9334.00000
    48.4308    11360.00000
    48.4439    12400.00000
    48.4571    12347.00000
    48.4702    12231.00000
    48.4833    12610.00000
    48.4965    12493.00000
    48.5096    11642.00000
    48.5227    10727.00000
    48.5358    10323.00000
    48.5490     9812.00000
    48.5621     9493.00000
    48.5752     8790.00000
    48.5884     8242.00000
    48.6015     8072.00000
    48.6146     8076.00000
    48.6278     7665.00000
    48.6409     6950.00000
    48.6540     6380.00000
    48.6671     5662.00000
    48.6803     4903.00000
    48.6934     4399.00000
    48.7065     3968.00000
    48.7197     3789.00000
    48.7328     3849.00000
    48.7459     4011.00000
    48.7591     4277.00000
    48.7722     4629.00000
    48.7853     5564.00000
    48.7985     6575.00000
    48.8116     8366.00000
    48.8247    10803.00000
    48.8378    12710.00000
    48.8510    13272.00000
    48.8641    12264.00000
    48.8772    10137.00000
    48.8904     8191.00000
    48.9035     6874.00000
    48.9166     6312.00000
    48.9298     6219.00000
    48.9429     6573.00000
    48.9560     7355.00000
    48.9691     8167.00000
    48.9823     8337.00000
    48.9954     7593.00000
    49.0085     6364.00000
    49.0217     5313.00000
    49.0348     4598.00000
    49.0479     4001.00000
    49.0611     3577.00000
    49.0742     3454.00000
    49.0873     3261.00000
    49.1004     3148.00000
    49.1136     3028.00000
    49.1267     3008.00000
    49.1398     2967.00000
    49.1530     2953.00000
    49.1661     2879.00000
    49.1792     2934.00000
    49.1924     2846.00000
    49.2055     2817.00000
    49.2186     2791.00000
    49.2318     2786.00000
    49.2449     2794.00000
    49.2580     2782.00000
    49.2711     2825.00000
    49.2843     2831.00000
    49.2974     2825.00000
    49.3105     2791.00000
    49.3237     2812.00000
    49.3368     2876.00000
    49.3499     2870.00000
    49.3631     2923.00000
    49.3762     2882.00000
    49.3893     3030.00000
    49.4024     3046.00000
    49.4156     3276.00000
    49.4287     3411.00000
    49.4418     3511.00000
    49.4550     3420.00000
    49.4681     3363.00000
    49.4812     3122.00000
    49.4944     3146.00000
    49.5075     3143.00000
    49.5206     3202.00000
    49.5337     3244.00000
    49.5469     3296.00000
    49.5600     3474.00000
    49.5731     3291.00000
    49.5863     3469.00000
    49.5994     3200.00000
    49.6125     3144.00000
    49.6257     3245.00000
    49.6388     3189.00000
    49.6519     3309.00000
    49.6651     3310.00000
    49.6782     3260.00000
    49.6913     3259.00000
    49.7044     3137.00000
    49.7176     3238.00000
    49.7307     3139.00000
    49.7438     3087.00000
    49.7570     3141.00000
    49.7701     3157.00000
    49.7832     3209.00000
    49.7964     3329.00000
    49.8095     3219.00000
    49.8226     3422.00000
    49.8357     3354.00000
    49.8489     3324.00000
    49.8620     3246.00000
    49.8751     3476.00000
    49.8883     3520.00000
    49.9014     3605.00000
    49.9145     3636.00000
    49.9277     3920.00000
    49.9408     4078.00000
    49.9539     4436.00000
    49.9670     5108.00000
    49.9802     6121.00000
    49.9933     7514.00000
    50.0064     9738.00000
    50.0196    12858.00000
    50.0327    16200.00000
    50.0458    18691.00000
    50.0590    19029.00000
    50.0721    17361.00000
    50.0852    15056.00000
    50.0984    12270.00000
    50.1115    10604.00000
    50.1246     9854.00000
    50.1377    10055.00000
    50.1509    10953.00000
    50.1640    12035.00000
    50.1771    12964.00000
    50.1903    12879.00000
    50.2034    11714.00000
    50.2165    10161.00000
    50.2297     8455.00000
    50.2428     6861.00000
    50.2559     5859.00000
    50.2690     5378.00000
    50.2822     5069.00000
    50.2953     4663.00000
    50.3084     4502.00000
    50.3216     4342.00000
    50.3347     3974.00000
    50.3478     3757.00000
    50.3610     3506.00000
    50.3741     3357.00000
    50.3872     3284.00000
    50.4003     3279.00000
    50.4135     3267.00000
    50.4266     3232.00000
    50.4397     3202.00000
    50.4529     3231.00000
    50.4660     3317.00000
    50.4791     3326.00000
    50.4923     3447.00000
    50.5054     3510.00000
    50.5185     3456.00000
    50.5317     3700.00000
    50.5448     3796.00000
    50.5579     4024.00000
    50.5710     4488.00000
    50.5842     4971.00000
    50.5973     5554.00000
    50.6104     6684.00000
    50.6236     7777.00000
    50.6367     9190.00000
    50.6498    10528.00000
    50.6630    11051.00000
    50.6761    10728.00000
    50.6892     9901.00000
    50.7023     8476.00000
    50.7155     7148.00000
    50.7286     6352.00000
    50.7417     6170.00000
    50.7549     6251.00000
    50.7680     6532.00000
    50.7811     6849.00000
    50.7943     7037.00000
    50.8074     7119.00000
    50.8205     6651.00000
    50.8336     5707.00000
    50.8468     4903.00000
    50.8599     4356.00000
    50.8730     3846.00000
    50.8862     3651.00000
    50.8993     3364.00000
    50.9124     3131.00000
    50.9256     3007.00000
    50.9387     3002.00000
    50.9518     3008.00000
    50.9649     2927.00000
    50.9781     2874.00000
    50.9912     2886.00000
    51.0043     2807.00000
    51.0175     2765.00000
    51.0306     2667.00000
    51.0437     2709.00000
    51.0569     2662.00000
    51.0700     2766.00000
    51.0831     2751.00000
    51.0963     2712.00000
    51.1094     2710.00000
    51.1225     2648.00000
    51.1356     2739.00000
    51.1488     2805.00000
    51.1619     2701.00000
    51.1750     2724.00000
    51.1882     2687.00000
    51.2013     2817.00000
    51.2144     2772.00000
    51.2276     2790.00000
    51.2407     2788.00000
    51.2538     2899.00000
    51.2669     2746.00000
    51.2801     2761.00000
    51.2932     2822.00000
    51.3063     2766.00000
    51.3195     2914.00000
    51.3326     2917.00000
    51.3457     2978.00000
    51.3589     2878.00000
    51.3720     2979.00000
    51.3851     2907.00000
    51.3982     3020.00000
    51.4114     3040.00000
    51.4245     3156.00000
    51.4376     3185.00000
    51.4508     3349.00000
    51.4639     3472.00000
    51.4770     3742.00000
    51.4902     4059.00000
    51.5033     4502.00000
    51.5164     5129.00000
    51.5296     6518.00000
    51.5427     8012.00000
    51.5558     9225.00000
    51.5689     9092.00000
    51.5821     8191.00000
    51.5952     6780.00000
    51.6083     5485.00000
    51.6215     4586.00000
    51.6346     4184.00000
    51.6477     4451.00000
    51.6609     4695.00000
    51.6740     4965.00000
    51.6871     5781.00000
    51.7002     6040.00000
    51.7134     5726.00000
    51.7265     5220.00000
    51.7396     4464.00000
    51.7528     4120.00000
    51.7659     3872.00000
    51.7790     3844.00000
    51.7922     3808.00000
    51.8053     3891.00000
    51.8184     3543.00000
    51.8315     3362.00000
    51.8447     3166.00000
    51.8578     3020.00000
    51.8709     2965.00000
    51.8841     2907.00000
    51.8972     2960.00000
    51.9103     3187.00000
    51.9235     3097.00000
    51.9366     3128.00000
    51.9497     3193.00000
    51.9628     3142.00000
    51.9760     2951.00000
    51.9891     2852.00000
    52.0022     2819.00000
    52.0154     2728.00000
    52.0285     2726.00000
    52.0416     2698.00000
    52.0548     2765.00000
    52.0679     2690.00000
    52.0810     2651.00000
    52.0942     2670.00000
    52.1073     2803.00000
    52.1204     2781.00000
    52.1335     2711.00000
    52.1467     2745.00000
    52.1598     2694.00000
    52.1729     2638.00000
    52.1861     2638.00000
    52.1992     2632.00000
    52.2123     2707.00000
    52.2255     2696.00000
    52.2386     2640.00000
    52.2517     2721.00000
    52.2648     2686.00000
    52.2780     2805.00000
    52.2911     2840.00000
    52.3042     2835.00000
    52.3174     2835.00000
    52.3305     2777.00000
    52.3436     2846.00000
    52.3568     2797.00000
    52.3699     2865.00000
    52.3830     3003.00000
    52.3961     3003.00000
    52.4093     3058.00000
    52.4224     3026.00000
    52.4355     3154.00000
    52.4487     3085.00000
    52.4618     3218.00000
    52.4749     3211.00000
    52.4881     3381.00000
    52.5012     3691.00000
    52.5143     4181.00000
    52.5275     4862.00000
    52.5406     5991.00000
    52.5537     7200.00000
    52.5668     8725.00000
    52.5800     9879.00000
    52.5931    10591.00000
    52.6062    10790.00000
    52.6194    10864.00000
    52.6325     9675.00000
    52.6456     8411.00000
    52.6588     6992.00000
    52.6719     6103.00000
    52.6850     5782.00000
    52.6981     6015.00000
    52.7113     6360.00000
    52.7244     6592.00000
    52.7375     6891.00000
    52.7507     6878.00000
    52.7638     6739.00000
    52.7769     5822.00000
    52.7901     5310.00000
    52.8032     4458.00000
    52.8163     3895.00000
    52.8294     3443.00000
    52.8426     3285.00000
    52.8557     3088.00000
    52.8688     2973.00000
    52.8820     2993.00000
    52.8951     2990.00000
    52.9082     2877.00000
    52.9214     3025.00000
    52.9345     3013.00000
    52.9476     3128.00000
    52.9608     3190.00000
    52.9739     3444.00000
    52.9870     3820.00000
    53.0001     4115.00000
    53.0133     4494.00000
    53.0264     4814.00000
    53.0395     5171.00000
    53.0527     5521.00000
    53.0658     5565.00000
    53.0789     5587.00000
    53.0921     5549.00000
    53.1052     5478.00000
    53.1183     5085.00000
    53.1314     4628.00000
    53.1446     4404.00000
    53.1577     4278.00000
    53.1708     4050.00000
    53.1840     4127.00000
    53.1971     4192.00000
    53.2102     4219.00000
    53.2234     4223.00000
    53.2365     4028.00000
    53.2496     4014.00000
    53.2627     3717.00000
    53.2759     3434.00000
    53.2890     3231.00000
    53.3021     2949.00000
    53.3153     2890.00000
    53.3284     2828.00000
    53.3415     2912.00000
    53.3547     2790.00000
    53.3678     2774.00000
    53.3809     2747.00000
    53.3941     2767.00000
    53.4072     2746.00000
    53.4203     2699.00000
    53.4334     2745.00000
    53.4466     2743.00000
    53.4597     2770.00000
    53.4728     2727.00000
    53.4860     2925.00000
    53.4991     2935.00000
    53.5122     3199.00000
    53.5254     3499.00000
    53.5385     3840.00000
    53.5516     4059.00000
    53.5647     4535.00000
    53.5779     4499.00000
    53.5910     4177.00000
    53.6041     3875.00000
    53.6173     3621.00000
    53.6304     3495.00000
    53.6435     3065.00000
    53.6567     3199.00000
    53.6698     3273.00000
    53.6829     3405.00000
    53.6960     3401.00000
    53.7092     3568.00000
    53.7223     3681.00000
    53.7354     3592.00000
    53.7486     3351.00000
    53.7617     3137.00000
    53.7748     3105.00000
    53.7880     2996.00000
    53.8011     2883.00000
    53.8142     2851.00000
    53.8274     2670.00000
    53.8405     2679.00000
    53.8536     2717.00000
    53.8667     2655.00000
    53.8799     2705.00000
    53.8930     2694.00000
    53.9061     2656.00000
    53.9193     2610.00000
    53.9324     2727.00000
    53.9455     2662.00000
    53.9587     2699.00000
    53.9718     2703.00000
    53.9849     2585.00000
    53.9980     2700.00000
    54.0112     2574.00000
    54.0243     2685.00000
    54.0374     2606.00000
    54.0506     2567.00000
    54.0637     2605.00000
    54.0768     2544.00000
    54.0900     2595.00000
    54.1031     2701.00000
    54.1162     2595.00000
    54.1293     2575.00000
    54.1425     2516.00000
    54.1556     2622.00000
    54.1687     2570.00000
    54.1819     2494.00000
    54.1950     2549.00000
    54.2081     2679.00000
    54.2213     2556.00000
    54.2344     2586.00000
    54.2475     2538.00000
    54.2607     2507.00000
    54.2738     2523.00000
    54.2869     2653.00000
    54.3000     2696.00000
    54.3132     2595.00000
    54.3263     2634.00000
    54.3394     2552.00000
    54.3526     2670.00000
    54.3657     2634.00000
    54.3788     2632.00000
    54.3920     2596.00000
    54.4051     2742.00000
    54.4182     2656.00000
    54.4313     2844.00000
    54.4445     2968.00000
    54.4576     2895.00000
    54.4707     2899.00000
    54.4839     2958.00000
    54.4970     2984.00000
    54.5101     3068.00000
    54.5233     2954.00000
    54.5364     2970.00000
    54.5495     2912.00000
    54.5626     2792.00000
    54.5758     2757.00000
    54.5889     2744.00000
    54.6020     2754.00000
    54.6152     2764.00000
    54.6283     2622.00000
    54.6414     2727.00000
    54.6546     2791.00000
    54.6677     2703.00000
    54.6808     2703.00000
    54.6940     2661.00000
    54.7071     2757.00000
    54.7202     2620.00000
    54.7333     2637.00000
    54.7465     2591.00000
    54.7596     2717.00000
    54.7727     2636.00000
    54.7859     2599.00000
    54.7990     2591.00000
    54.8121     2616.00000
    54.8253     2588.00000
    54.8384     2566.00000
    54.8515     2595.00000
    54.8646     2614.00000
    54.8778     2665.00000
    54.8909     2582.00000
    54.9040     2567.00000
    54.9172     2515.00000
    54.9303     2642.00000
    54.9434     2599.00000
    54.9566     2517.00000
    54.9697     2607.00000
    54.9828     2622.00000
    54.9959     2621.00000
    55.0091     2554.00000
    55.0222     2565.00000
    55.0353     2572.00000
    55.0485     2516.00000
    55.0616     2611.00000
    55.0747     2710.00000
    55.0879     2653.00000
    55.1010     2586.00000
    55.1141     2626.00000
    55.1272     2621.00000
    55.1404     2571.00000
    55.1535     2534.00000
    55.1666     2664.00000
    55.1798     2627.00000
    55.1929     2622.00000
    55.2060     2553.00000
    55.2192     2657.00000
    55.2323     2693.00000
    55.2454     2707.00000
    55.2586     2711.00000
    55.2717     2725.00000
    55.2848     2738.00000
    55.2979     2854.00000
    55.3111     2766.00000
    55.3242     2808.00000
    55.3373     2932.00000
    55.3505     2811.00000
    55.3636     2899.00000
    55.3767     2877.00000
    55.3899     2960.00000
    55.4030     2952.00000
    55.4161     3117.00000
    55.4292     3046.00000
    55.4424     3135.00000
    55.4555     3263.00000
    55.4686     3277.00000
    55.4818     3636.00000
    55.4949     3886.00000
    55.5080     4297.00000
    55.5212     4643.00000
    55.5343     5397.00000
    55.5474     6424.00000
    55.5605     7970.00000
    55.5737     9814.00000
    55.5868    11379.00000
    55.5999    11817.00000
    55.6131    11318.00000
    55.6262     9845.00000
    55.6393     8374.00000
    55.6525     6912.00000
    55.6656     6114.00000
    55.6787     5519.00000
    55.6918     5659.00000
    55.7050     5988.00000
    55.7181     6698.00000
    55.7312     7231.00000
    55.7444     7685.00000
    55.7575     7542.00000
    55.7706     6917.00000
    55.7838     6012.00000
    55.7969     5145.00000
    55.8100     4520.00000
    55.8232     4037.00000
    55.8363     3787.00000
    55.8494     3624.00000
    55.8625     3531.00000
    55.8757     3438.00000
    55.8888     3528.00000
    55.9019     3556.00000
    55.9151     3648.00000
    55.9282     3579.00000
    55.9413     3548.00000
    55.9545     3493.00000
    55.9676     3483.00000
    55.9807     3222.00000
    55.9938     3109.00000
    56.0070     2996.00000
    56.0201     2977.00000
    56.0332     3035.00000
    56.0464     3130.00000
    56.0595     3196.00000
    56.0726     3177.00000
    56.0858     3183.00000
    56.0989     3168.00000
    56.1120     3244.00000
    56.1251     3167.00000
    56.1383     3048.00000
    56.1514     3099.00000
    56.1645     2897.00000
    56.1777     3024.00000
    56.1908     3064.00000
    56.2039     3093.00000
    56.2171     3124.00000
    56.2302     3333.00000
    56.2433     3370.00000
    56.2565     3477.00000
    56.2696     3949.00000
    56.2827     4330.00000
    56.2958     5080.00000
    56.3090     6503.00000
    56.3221     7637.00000
    56.3352     9229.00000
    56.3484    10456.00000
    56.3615    11292.00000
    56.3746    11056.00000
    56.3878    10319.00000
    56.4009     9099.00000
    56.4140     8057.00000
    56.4271     7115.00000
    56.4403     6969.00000
    56.4534     7563.00000
    56.4665     8313.00000
    56.4797     9062.00000
    56.4928     9583.00000
    56.5059     9387.00000
    56.5191     9160.00000
    56.5322     8496.00000
    56.5453     7939.00000
    56.5584     7388.00000
    56.5716     7007.00000
    56.5847     6703.00000
    56.5978     6618.00000
    56.6110     6438.00000
    56.6241     6175.00000
    56.6372     5629.00000
    56.6504     5170.00000
    56.6635     4705.00000
    56.6766     4363.00000
    56.6898     3904.00000
    56.7029     3979.00000
    56.7160     3875.00000
    56.7291     4103.00000
    56.7423     3969.00000
    56.7554     3901.00000
    56.7685     3806.00000
    56.7817     3495.00000
    56.7948     3375.00000
    56.8079     3119.00000
    56.8211     3070.00000
    56.8342     3092.00000
    56.8473     3086.00000
    56.8604     2921.00000
    56.8736     2936.00000
    56.8867     2863.00000
    56.8998     2783.00000
    56.9130     2909.00000
    56.9261     2846.00000
    56.9392     2893.00000
    56.9524     2984.00000
    56.9655     3025.00000
    56.9786     2885.00000
    56.9917     2963.00000
    57.0049     3053.00000
    57.0180     2957.00000
    57.0311     2969.00000
    57.0443     3103.00000
    57.0574     3132.00000
    57.0705     3154.00000
    57.0837     3280.00000
    57.0968     3448.00000
    57.1099     3481.00000
    57.1231     3702.00000
    57.1362     3991.00000
    57.1493     4413.00000
    57.1624     4969.00000
    57.1756     5691.00000
    57.1887     6603.00000
    57.2018     7504.00000
    57.2150     8197.00000
    57.2281     8837.00000
    57.2412     9620.00000
    57.2544     9906.00000
    57.2675    10066.00000
    57.2806     9916.00000
    57.2937     9844.00000
    57.3069     9363.00000
    57.3200     8428.00000
    57.3331     7776.00000
    57.3463     7207.00000
    57.3594     6956.00000
    57.3725     7182.00000
    57.3857     7595.00000
    57.3988     8299.00000
    57.4119     8746.00000
    57.4250     9457.00000
    57.4382     9805.00000
    57.4513     9499.00000
    57.4644     8717.00000
    57.4776     7527.00000
    57.4907     6315.00000
    57.5038     5384.00000
    57.5170     4747.00000
    57.5301     4501.00000
    57.5432     4296.00000
    57.5564     4277.00000
    57.5695     4625.00000
    57.5826     4822.00000
    57.5957     4872.00000
    57.6089     4700.00000
    57.6220     4535.00000
    57.6351     4173.00000
    57.6483     3893.00000
    57.6614     3585.00000
    57.6745     3458.00000
    57.6877     3220.00000
    57.7008     3212.00000
    57.7139     3162.00000
    57.7270     3139.00000
    57.7402     3062.00000
    57.7533     2979.00000
    57.7664     2953.00000
    57.7796     3092.00000
    57.7927     3044.00000
    57.8058     3086.00000
    57.8190     3136.00000
    57.8321     3174.00000
    57.8452     3289.00000
    57.8583     3309.00000
    57.8715     3635.00000
    57.8846     3793.00000
    57.8977     4147.00000
    57.9109     4728.00000
    57.9240     5377.00000
    57.9371     6455.00000
    57.9503     7476.00000
    57.9634     8406.00000
    57.9765     8296.00000
    57.9897     7787.00000
    58.0028     6700.00000
    58.0159     5748.00000
    58.0290     5150.00000
    58.0422     4643.00000
    58.0553     4467.00000
    58.0684     4622.00000
    58.0816     4969.00000
    58.0947     5522.00000
    58.1078     6071.00000
    58.1210     6615.00000
    58.1341     6801.00000
    58.1472     6221.00000
    58.1603     5445.00000
    58.1735     5016.00000
    58.1866     4245.00000
    58.1997     3928.00000
    58.2129     3772.00000
    58.2260     3571.00000
    58.2391     3699.00000
    58.2523     3810.00000
    58.2654     3939.00000
    58.2785     4099.00000
    58.2916     4012.00000
    58.3048     3790.00000
    58.3179     3533.00000
    58.3310     3337.00000
    58.3442     3181.00000
    58.3573     3196.00000
    58.3704     3076.00000
    58.3836     3026.00000
    58.3967     3167.00000
    58.4098     3141.00000
    58.4230     3057.00000
    58.4361     3068.00000
    58.4492     3131.00000
    58.4623     3122.00000
    58.4755     3103.00000
    58.4886     3069.00000
    58.5017     2932.00000
    58.5149     2890.00000
    58.5280     3100.00000
    58.5411     3024.00000
    58.5543     3165.00000
    58.5674     3197.00000
    58.5805     3180.00000
    58.5936     3330.00000
    58.6068     3416.00000
    58.6199     3574.00000
    58.6330     3671.00000
    58.6462     3917.00000
    58.6593     4377.00000
    58.6724     4883.00000
    58.6856     5485.00000
    58.6987     6193.00000
    58.7118     6970.00000
    58.7249     7639.00000
    58.7381     8223.00000
    58.7512     8103.00000
    58.7643     8013.00000
    58.7775     7353.00000
    58.7906     6690.00000
    58.8037     6020.00000
    58.8169     5614.00000
    58.8300     5598.00000
    58.8431     5761.00000
    58.8562     6255.00000
    58.8694     7083.00000
    58.8825     8180.00000
    58.8956     9396.00000
    58.9088    10494.00000
    58.9219    11409.00000
    58.9350    11421.00000
    58.9482    10272.00000
    58.9613     8746.00000
    58.9744     7275.00000
    58.9876     6074.00000
    59.0007     5224.00000
    59.0138     4913.00000
    59.0269     4753.00000
    59.0401     4939.00000
    59.0532     5388.00000
    59.0663     5934.00000
    59.0795     6179.00000
    59.0926     6366.00000
    59.1057     6376.00000
    59.1189     5855.00000
    59.1320     5332.00000
    59.1451     4956.00000
    59.1582     4710.00000
    59.1714     4906.00000
    59.1845     5263.00000
    59.1976     5785.00000
    59.2108     6635.00000
    59.2239     7777.00000
    59.2370     8691.00000
    59.2502     9232.00000
    59.2633     9741.00000
    59.2764     9198.00000
    59.2895     8079.00000
    59.3027     6887.00000
    59.3158     5889.00000
    59.3289     5062.00000
    59.3421     4778.00000
    59.3552     4871.00000
    59.3683     4960.00000
    59.3815     5224.00000
    59.3946     5686.00000
    59.4077     6182.00000
    59.4208     6261.00000
    59.4340     6045.00000
    59.4471     5701.00000
    59.4602     4993.00000
    59.4734     4474.00000
    59.4865     3933.00000
    59.4996     3580.00000
    59.5128     3382.00000
    59.5259     3320.00000
    59.5390     3284.00000
    59.5522     3300.00000
    59.5653     3027.00000
    59.5784     3177.00000
    59.5915     3098.00000
    59.6047     3100.00000
    59.6178     3244.00000
    59.6309     3165.00000
    59.6441     3252.00000
    59.6572     3433.00000
    59.6703     3433.00000
    59.6835     3720.00000
    59.6966     3946.00000
    59.7097     4455.00000
    59.7228     4982.00000
    59.7360     5674.00000
    59.7491     6671.00000
    59.7622     7657.00000
    59.7754     8623.00000
    59.7885     9732.00000
    59.8016    10579.00000
    59.8148    10741.00000
    59.8279    10432.00000
    59.8410     9796.00000
    59.8541     9073.00000
    59.8673     7944.00000
    59.8804     7674.00000
    59.8935     7724.00000
    59.9067     8791.00000
    59.9198    10942.00000
    59.9329    12852.00000
    59.9461    14125.00000
    59.9592    14216.00000
    59.9723    13349.00000
    59.9855    11640.00000
    59.9986     9844.00000
    60.0117     8282.00000
    60.0248     7121.00000
    60.0380     6042.00000
    60.0511     5538.00000
    60.0642     5675.00000
    60.0774     5991.00000
    60.0905     6671.00000
    60.1036     6933.00000
    60.1168     7199.00000
    60.1299     6650.00000
    60.1430     5791.00000
    60.1561     5019.00000
    60.1693     4448.00000
    60.1824     3876.00000
    60.1955     3435.00000
    60.2087     3323.00000
    60.2218     3186.00000
    60.2349     3171.00000
    60.2481     2932.00000
    60.2612     3014.00000
    60.2743     2934.00000
    60.2874     2940.00000
    60.3006     2963.00000
    60.3137     2816.00000
    60.3268     2796.00000
    60.3400     2788.00000
    60.3531     2882.00000
    60.3662     2744.00000
    60.3794     2787.00000
    60.3925     2806.00000
    60.4056     2728.00000
    60.4188     2785.00000
    60.4319     2752.00000
    60.4450     2808.00000
    60.4581     2811.00000
    60.4713     2766.00000
    60.4844     2737.00000
    60.4975     2886.00000
    60.5107     2790.00000
    60.5238     2813.00000
    60.5369     2948.00000
    60.5501     2773.00000
    60.5632     2817.00000
    60.5763     2849.00000
    60.5894     2989.00000
    60.6026     2885.00000
    60.6157     3033.00000
    60.6288     3091.00000
    60.6420     3154.00000
    60.6551     3278.00000
    60.6682     3258.00000
    60.6814     3422.00000
    60.6945     3776.00000
    60.7076     4027.00000
    60.7207     4557.00000
    60.7339     5052.00000
    60.7470     6225.00000
    60.7601     7338.00000
    60.7733     8659.00000
    60.7864     9803.00000
    60.7995     9971.00000
    60.8127     9696.00000
    60.8258     9149.00000
    60.8389     8266.00000
    60.8521     7797.00000
    60.8652     7605.00000
    60.8783     8009.00000
    60.8914     8835.00000
    60.9046     9549.00000
    60.9177    10145.00000
    60.9308    10652.00000
    60.9440    10737.00000
    60.9571    10173.00000
    60.9702     9154.00000
    60.9834     8318.00000
    60.9965     7556.00000
    61.0096     6762.00000
    61.0227     6358.00000
    61.0359     6247.00000
    61.0490     6657.00000
    61.0621     6935.00000
    61.0753     7257.00000
    61.0884     7406.00000
    61.1015     7419.00000
    61.1147     7051.00000
    61.1278     6724.00000
    61.1409     6111.00000
    61.1540     5825.00000
    61.1672     5385.00000
    61.1803     5166.00000
    61.1934     5029.00000
    61.2066     5063.00000
    61.2197     5185.00000
    61.2328     5463.00000
    61.2460     5621.00000
    61.2591     5790.00000
    61.2722     5804.00000
    61.2854     5745.00000
    61.2985     5723.00000
    61.3116     5336.00000
    61.3247     4738.00000
    61.3379     4473.00000
    61.3510     4098.00000
    61.3641     3852.00000
    61.3773     3784.00000
    61.3904     3761.00000
    61.4035     3777.00000
    61.4167     3792.00000
    61.4298     3657.00000
    61.4429     3655.00000
    61.4560     3720.00000
    61.4692     3555.00000
    61.4823     3550.00000
    61.4954     3144.00000
    61.5086     2972.00000
    61.5217     2821.00000
    61.5348     2779.00000
    61.5480     2738.00000
    61.5611     2737.00000
    61.5742     2763.00000
    61.5873     2510.00000
    61.6005     2591.00000
    61.6136     2579.00000
    61.6267     2549.00000
    61.6399     2448.00000
    61.6530     2591.00000
    61.6661     2572.00000
    61.6793     2644.00000
    61.6924     2547.00000
    61.7055     2462.00000
    61.7187     2433.00000
    61.7318     2501.00000
    61.7449     2504.00000
    61.7580     2480.00000
    61.7712     2553.00000
    61.7843     2485.00000
    61.7974     2487.00000
    61.8106     2474.00000
    61.8237     2521.00000
    61.8368     2472.00000
    61.8500     2428.00000
    61.8631     2425.00000
    61.8762     2494.00000
    61.8893     2460.00000
    61.9025     2549.00000
    61.9156     2513.00000
    61.9287     2531.00000
    61.9419     2488.00000
    61.9550     2594.00000
    61.9681     2543.00000
    61.9813     2478.00000
    61.9944     2492.00000
    62.0075     2411.00000
    62.0206     2411.00000
    62.0338     2438.00000
    62.0469     2464.00000
    62.0600     2590.00000
    62.0732     2456.00000
    62.0863     2495.00000
    62.0994     2462.00000
    62.1126     2468.00000
    62.1257     2444.00000
    62.1388     2332.00000
    62.1520     2460.00000
    62.1651     2486.00000
    62.1782     2484.00000
    62.1913     2484.00000
    62.2045     2425.00000
    62.2176     2498.00000
    62.2307     2401.00000
    62.2439     2406.00000
    62.2570     2245.00000
    62.2701     2403.00000
    62.2833     2520.00000
    62.2964     2429.00000
    62.3095     2517.00000
    62.3226     2426.00000
    62.3358     2516.00000
    62.3489     2509.00000
    62.3620     2365.00000
    62.3752     2490.00000
    62.3883     2483.00000
    62.4014     2590.00000
    62.4146     2548.00000
    62.4277     2551.00000
    62.4408     2592.00000
    62.4539     2581.00000
    62.4671     2603.00000
    62.4802     2525.00000
    62.4933     2377.00000
    62.5065     2506.00000
    62.5196     2477.00000
    62.5327     2474.00000
    62.5459     2486.00000
    62.5590     2434.00000
    62.5721     2465.00000
    62.5852     2352.00000
    62.5984     2496.00000
    62.6115     2437.00000
    62.6246     2582.00000
    62.6378     2508.00000
    62.6509     2388.00000
    62.6640     2381.00000
    62.6772     2435.00000
    62.6903     2526.00000
    62.7034     2435.00000
    62.7166     2501.00000
    62.7297     2406.00000
    62.7428     2420.00000
    62.7559     2334.00000
    62.7691     2402.00000
    62.7822     2416.00000
    62.7953     2443.00000
    62.8085     2478.00000
    62.8216     2362.00000
    62.8347     2371.00000
    62.8479     2465.00000
    62.8610     2420.00000
    62.8741     2535.00000
    62.8872     2414.00000
    62.9004     2320.00000
    62.9135     2499.00000
    62.9266     2513.00000
    62.9398     2491.00000
    62.9529     2397.00000
    62.9660     2389.00000
    62.9792     2387.00000
    62.9923     2380.00000
    63.0054     2391.00000
    63.0185     2499.00000
    63.0317     2358.00000
    63.0448     2393.00000
    63.0579     2404.00000
    63.0711     2472.00000
    63.0842     2392.00000
    63.0973     2438.00000
    63.1105     2406.00000
    63.1236     2432.00000
    63.1367     2404.00000
    63.1499     2413.00000
    63.1630     2367.00000
    63.1761     2410.00000
    63.1892     2376.00000
    63.2024     2396.00000
    63.2155     2397.00000
    63.2286     2362.00000
    63.2418     2351.00000
    63.2549     2465.00000
    63.2680     2399.00000
    63.2812     2370.00000
    63.2943     2457.00000
    63.3074     2414.00000
    63.3205     2320.00000
    63.3337     2481.00000
    63.3468     2358.00000
    63.3599     2371.00000
    63.3731     2364.00000
    63.3862     2432.00000
    63.3993     2420.00000
    63.4125     2517.00000
    63.4256     2471.00000
    63.4387     2358.00000
    63.4518     2424.00000
    63.4650     2401.00000
    63.4781     2457.00000
    63.4912     2399.00000
    63.5044     2409.00000
    63.5175     2481.00000
    63.5306     2519.00000
    63.5438     2461.00000
    63.5569     2545.00000
    63.5700     2534.00000
    63.5831     2646.00000
    63.5963     2682.00000
    63.6094     2634.00000
    63.6225     2665.00000
    63.6357     2901.00000
    63.6488     2874.00000
    63.6619     2873.00000
    63.6751     3115.00000
    63.6882     3158.00000
    63.7013     3351.00000
    63.7145     3559.00000
    63.7276     3800.00000
    63.7407     4144.00000
    63.7538     4114.00000
    63.7670     4026.00000
    63.7801     3876.00000
    63.7932     3691.00000
    63.8064     3359.00000
    63.8195     3221.00000
    63.8326     3027.00000
    63.8458     2928.00000
    63.8589     3000.00000
    63.8720     2960.00000
    63.8851     3053.00000
    63.8983     3101.00000
    63.9114     3355.00000
    63.9245     3317.00000
    63.9377     3310.00000
    63.9508     3250.00000
    63.9639     3123.00000
    63.9771     2971.00000
    63.9902     2839.00000
    64.0033     2801.00000
    64.0164     2679.00000
    64.0296     2723.00000
    64.0427     2772.00000
    64.0558     2498.00000
    64.0690     2584.00000
    64.0821     2542.00000
    64.0952     2642.00000
    64.1084     2683.00000
    64.1215     2529.00000
    64.1346     2824.00000
    64.1478     2727.00000
    64.1609     2795.00000
    64.1740     2967.00000
    64.1871     3165.00000
    64.2003     3433.00000
    64.2134     3798.00000
    64.2265     4218.00000
    64.2397     4556.00000
    64.2528     5199.00000
    64.2659     5425.00000
    64.2791     5717.00000
    64.2922     5657.00000
    64.3053     5327.00000
    64.3184     4888.00000
    64.3316     4417.00000
    64.3447     3972.00000
    64.3578     3549.00000
    64.3710     3594.00000
    64.3841     3424.00000
    64.3972     3452.00000
    64.4104     3486.00000
    64.4235     3640.00000
    64.4366     3942.00000
    64.4498     4160.00000
    64.4629     4089.00000
    64.4760     4021.00000
    64.4891     3687.00000
    64.5023     3573.00000
    64.5154     3229.00000
    64.5285     3014.00000
    64.5417     2780.00000
    64.5548     2700.00000
    64.5679     2611.00000
    64.5811     2516.00000
    64.5942     2468.00000
    64.6073     2539.00000
    64.6204     2447.00000
    64.6336     2456.00000
    64.6467     2453.00000
    64.6598     2433.00000
    64.6730     2398.00000
    64.6861     2472.00000
    64.6992     2413.00000
    64.7124     2396.00000
    64.7255     2407.00000
    64.7386     2444.00000
    64.7517     2415.00000
    64.7649     2361.00000
    64.7780     2422.00000
    64.7911     2394.00000
    64.8043     2420.00000
    64.8174     2380.00000
    64.8305     2359.00000
    64.8437     2314.00000
    64.8568     2413.00000
    64.8699     2363.00000
    64.8830     2412.00000
    64.8962     2407.00000
    64.9093     2294.00000
    64.9224     2380.00000
    64.9356     2333.00000
    64.9487     2399.00000
    64.9618     2415.00000
    64.9750     2431.00000
    64.9881     2606.00000
    65.0012     2507.00000
    65.0144     2521.00000
    65.0275     2430.00000
    65.0406     2587.00000
    65.0537     2486.00000
    65.0669     2589.00000
    65.0800     2627.00000
    65.0931     2678.00000
    65.1063     2585.00000
    65.1194     2646.00000
    65.1325     2613.00000
    65.1457     2707.00000
    65.1588     2600.00000
    65.1719     2639.00000
    65.1850     2551.00000
    65.1982     2597.00000
    65.2113     2710.00000
    65.2244     2687.00000
    65.2376     2645.00000
    65.2507     2661.00000
    65.2638     2671.00000
    65.2770     2692.00000
    65.2901     2680.00000
    65.3032     2606.00000
    65.3163     2620.00000
    65.3295     2517.00000
    65.3426     2562.00000
    65.3557     2518.00000
    65.3689     2546.00000
    65.3820     2448.00000
    65.3951     2435.00000
    65.4083     2475.00000
    65.4214     2446.00000
    65.4345     2450.00000
    65.4476     2462.00000
    65.4608     2492.00000
    65.4739     2507.00000
    65.4870     2476.00000
    65.5002     2443.00000
    65.5133     2453.00000
    65.5264     2404.00000
    65.5396     2438.00000
    65.5527     2442.00000
    65.5658     2406.00000
    65.5790     2343.00000
    65.5921     2357.00000
    65.6052     2471.00000
    65.6183     2270.00000
    65.6315     2315.00000
    65.6446     2279.00000
    65.6577     2398.00000
    65.6709     2403.00000
    65.6840     2338.00000
    65.6971     2275.00000
    65.7103     2270.00000
    65.7234     2315.00000
    65.7365     2372.00000
    65.7496     2378.00000
    65.7628     2329.00000
    65.7759     2407.00000
    65.7890     2387.00000
    65.8022     2394.00000
    65.8153     2334.00000
    65.8284     2422.00000
    65.8416     2380.00000
    65.8547     2420.00000
    65.8678     2401.00000
    65.8810     2455.00000
    65.8941     2338.00000
    65.9072     2433.00000
    65.9203     2383.00000
    65.9335     2384.00000
    65.9466     2328.00000
    65.9597     2300.00000
    65.9729     2340.00000
    65.9860     2339.00000
    65.9991     2367.00000
    66.0123     2285.00000
    66.0254     2324.00000
    66.0385     2345.00000
    66.0516     2383.00000
    66.0648     2354.00000
    66.0779     2383.00000
    66.0910     2427.00000
    66.1042     2403.00000
    66.1173     2389.00000
    66.1304     2405.00000
    66.1436     2300.00000
    66.1567     2296.00000
    66.1698     2403.00000
    66.1829     2381.00000
    66.1961     2272.00000
    66.2092     2335.00000
    66.2223     2302.00000
    66.2355     2296.00000
    66.2486     2302.00000
    66.2617     2313.00000
    66.2749     2356.00000
    66.2880     2298.00000
    66.3011     2334.00000
    66.3142     2352.00000
    66.3274     2372.00000
    66.3405     2287.00000
    66.3536     2269.00000
    66.3668     2364.00000
    66.3799     2308.00000
    66.3930     2356.00000
    66.4062     2256.00000
    66.4193     2302.00000
    66.4324     2285.00000
    66.4455     2316.00000
    66.4587     2306.00000
    66.4718     2312.00000
    66.4849     2381.00000
    66.4981     2382.00000
    66.5112     2352.00000
    66.5243     2361.00000
    66.5375     2415.00000
    66.5506     2455.00000
    66.5637     2457.00000
    66.5769     2447.00000
    66.5900     2547.00000
    66.6031     2479.00000
    66.6162     2519.00000
    66.6294     2471.00000
    66.6425     2480.00000
    66.6556     2457.00000
    66.6688     2348.00000
    66.6819     2305.00000
    66.6950     2377.00000
    66.7082     2441.00000
    66.7213     2369.00000
    66.7344     2523.00000
    66.7476     2483.00000
    66.7607     2543.00000
    66.7738     2544.00000
    66.7869     2563.00000
    66.8001     2498.00000
    66.8132     2531.00000
    66.8263     2623.00000
    66.8395     2529.00000
    66.8526     2383.00000
    66.8657     2368.00000
    66.8789     2364.00000
    66.8920     2291.00000
    66.9051     2398.00000
    66.9182     2451.00000
    66.9314     2439.00000
    66.9445     2344.00000
    66.9576     2504.00000
    66.9708     2378.00000
    66.9839     2437.00000
    66.9970     2418.00000
    67.0102     2322.00000
    67.0233     2368.00000
    67.0364     2367.00000
    67.0495     2417.00000
    67.0627     2334.00000
    67.0758     2303.00000
    67.0889     2395.00000
    67.1021     2210.00000
    67.1152     2247.00000
    67.1283     2255.00000
    67.1415     2320.00000
    67.1546     2298.00000
    67.1677     2265.00000
    67.1808     2308.00000
    67.1940     2372.00000
    67.2071     2260.00000
    67.2202     2265.00000
    67.2334     2310.00000
    67.2465     2284.00000
    67.2596     2243.00000
    67.2728     2352.00000
    67.2859     2283.00000
    67.2990     2280.00000
    67.3121     2324.00000
    67.3253     2311.00000
    67.3384     2393.00000
    67.3515     2283.00000
    67.3647     2265.00000
    67.3778     2342.00000
    67.3909     2370.00000
    67.4041     2349.00000
    67.4172     2280.00000
    67.4303     2270.00000
    67.4435     2312.00000
    67.4566     2347.00000
    67.4697     2307.00000
    67.4828     2363.00000
    67.4960     2418.00000
    67.5091     2310.00000
    67.5222     2332.00000
    67.5354     2328.00000
    67.5485     2274.00000
    67.5616     2393.00000
    67.5748     2333.00000
    67.5879     2265.00000
    67.6010     2386.00000
    67.6142     2336.00000
    67.6273     2359.00000
    67.6404     2327.00000
    67.6535     2326.00000
    67.6667     2278.00000
    67.6798     2325.00000
    67.6929     2348.00000
    67.7061     2427.00000
    67.7192     2369.00000
    67.7323     2338.00000
    67.7455     2387.00000
    67.7586     2371.00000
    67.7717     2355.00000
    67.7848     2465.00000
    67.7980     2337.00000
    67.8111     2378.00000
    67.8242     2327.00000
    67.8374     2429.00000
    67.8505     2427.00000
    67.8636     2376.00000
    67.8768     2388.00000
    67.8899     2439.00000
    67.9030     2356.00000
    67.9161     2418.00000
    67.9293     2407.00000
    67.9424     2444.00000
    67.9555     2526.00000
    67.9687     2570.00000
    67.9818     2598.00000
    67.9949     2677.00000
    68.0081     2848.00000
    68.0212     3054.00000
    68.0343     3337.00000
    68.0474     3448.00000
    68.0606     3568.00000
    68.0737     3537.00000
    68.0868     3442.00000
    68.1000     3159.00000
    68.1131     2994.00000
    68.1262     2771.00000
    68.1394     2552.00000
    68.1525     2623.00000
    68.1656     2587.00000
    68.1787     2565.00000
    68.1919     2567.00000
    68.2050     2714.00000
    68.2181     2742.00000
    68.2313     2884.00000
    68.2444     2984.00000
    68.2575     3005.00000
    68.2707     3037.00000
    68.2838     2827.00000
    68.2969     2837.00000
    68.3101     2768.00000
    68.3232     2724.00000
    68.3363     2673.00000
    68.3494     2626.00000
    68.3626     2676.00000
    68.3757     2735.00000
    68.3888     2749.00000
    68.4020     2809.00000
    68.4151     2819.00000
    68.4282     2752.00000
    68.4414     2791.00000
    68.4545     2784.00000
    68.4676     2598.00000
    68.4807     2628.00000
    68.4939     2645.00000
    68.5070     2605.00000
    68.5201     2718.00000
    68.5333     2743.00000
    68.5464     2692.00000
    68.5595     2771.00000
    68.5727     2755.00000
    68.5858     2721.00000
    68.5989     2688.00000
    68.6120     2651.00000
    68.6252     2616.00000
    68.6383     2578.00000
    68.6514     2624.00000
    68.6646     2668.00000
    68.6777     2597.00000
    68.6908     2662.00000
    68.7040     2675.00000
    68.7171     2623.00000
    68.7302     2680.00000
    68.7434     2730.00000
    68.7565     2799.00000
    68.7696     2849.00000
    68.7827     3080.00000
    68.7959     3221.00000
    68.8090     3667.00000
    68.8221     4157.00000
    68.8353     4885.00000
    68.8484     5188.00000
    68.8615     5319.00000
    68.8747     5042.00000
    68.8878     4387.00000
    68.9009     3843.00000
    68.9140     3410.00000
    68.9272     2988.00000
    68.9403     2958.00000
    68.9534     2762.00000
    68.9666     2874.00000
    68.9797     2794.00000
    68.9928     2896.00000
    69.0060     3119.00000
    69.0191     3522.00000
    69.0322     3749.00000
    69.0453     3829.00000
    69.0585     3915.00000
    69.0716     3700.00000
    69.0847     3404.00000
    69.0979     3120.00000
    69.1110     2960.00000
    69.1241     2710.00000
    69.1373     2728.00000
    69.1504     2599.00000
    69.1635     2591.00000
    69.1767     2595.00000
    69.1898     2639.00000
    69.2029     2644.00000
    69.2160     2631.00000
    69.2292     2747.00000
    69.2423     2863.00000
    69.2554     3016.00000
    69.2686     3283.00000
    69.2817     3634.00000
    69.2948     3944.00000
    69.3080     3889.00000
    69.3211     3805.00000
    69.3342     3522.00000
    69.3473     3118.00000
    69.3605     3000.00000
    69.3736     2835.00000
    69.3867     2748.00000
    69.3999     2683.00000
    69.4130     2722.00000
    69.4261     2716.00000
    69.4393     2706.00000
    69.4524     2836.00000
    69.4655     2957.00000
    69.4786     3241.00000
    69.4918     3274.00000
    69.5049     3311.00000
    69.5180     3291.00000
    69.5312     3114.00000
    69.5443     3080.00000
    69.5574     3150.00000
    69.5706     3107.00000
    69.5837     3276.00000
    69.5968     3344.00000
    69.6099     3513.00000
    69.6231     3755.00000
    69.6362     3778.00000
    69.6493     3584.00000
    69.6625     3597.00000
    69.6756     3637.00000
    69.6887     3701.00000
    69.7019     3750.00000
    69.7150     3673.00000
    69.7281     3399.00000
    69.7413     3286.00000
    69.7544     3111.00000
    69.7675     3163.00000
    69.7806     3119.00000
    69.7938     3138.00000
    69.8069     3272.00000
    69.8200     3577.00000
    69.8332     3470.00000
    69.8463     3508.00000
    69.8594     3825.00000
    69.8726     4203.00000
    69.8857     4486.00000
    69.8988     4957.00000
    69.9119     5464.00000
    69.9251     6093.00000
    69.9382     6679.00000
    69.9513     7077.00000
    69.9645     7135.00000
    69.9776     6871.00000
    69.9907     6361.00000
    70.0039     5606.00000
    70.0170     5068.00000
    70.0301     4621.00000
    70.0433     4148.00000
    70.0564     3981.00000
    70.0695     3902.00000
    70.0826     3769.00000
    70.0958     3956.00000
    70.1089     4247.00000
    70.1220     4503.00000
    70.1352     4814.00000
    70.1483     5153.00000
    70.1614     5413.00000
    70.1746     5504.00000
    70.1877     5435.00000
    70.2008     5281.00000
    70.2139     5368.00000
    70.2271     5245.00000
    70.2402     4943.00000
    70.2533     4451.00000
    70.2665     4138.00000
    70.2796     3765.00000
    70.2927     3574.00000
    70.3059     3426.00000
    70.3190     3295.00000
    70.3321     3367.00000
    70.3452     3458.00000
    70.3584     3389.00000
    70.3715     3660.00000
    70.3846     3758.00000
    70.3978     4043.00000
    70.4109     4038.00000
    70.4240     4224.00000
    70.4372     4506.00000
    70.4503     4512.00000
    70.4634     4767.00000
    70.4765     4936.00000
    70.4897     5255.00000
    70.5028     5314.00000
    70.5159     5197.00000
    70.5291     4882.00000
    70.5422     4439.00000
    70.5553     4051.00000
    70.5685     3790.00000
    70.5816     3492.00000
    70.5947     3418.00000
    70.6078     3397.00000
    70.6210     3219.00000
    70.6341     3344.00000
    70.6472     3404.00000
    70.6604     3587.00000
    70.6735     3841.00000
    70.6866     4021.00000
    70.6998     4155.00000
    70.7129     4258.00000
    70.7260     3964.00000
    70.7392     3881.00000
    70.7523     3558.00000
    70.7654     3292.00000
    70.7785     3040.00000
    70.7917     2952.00000
    70.8048     3035.00000
    70.8179     3005.00000
    70.8311     2959.00000
    70.8442     2893.00000
    70.8573     2821.00000
    70.8705     2805.00000
    70.8836     2798.00000
    70.8967     2813.00000
    70.9099     2792.00000
    70.9230     2700.00000
    70.9361     2811.00000
    70.9492     2758.00000
    70.9624     2882.00000
    70.9755     2748.00000
    70.9886     2872.00000
    71.0018     2805.00000
    71.0149     2975.00000
    71.0280     3076.00000
    71.0412     3062.00000
    71.0543     3350.00000
    71.0674     3465.00000
    71.0805     3679.00000
    71.0937     3805.00000
    71.1068     3873.00000
    71.1199     4088.00000
    71.1331     4143.00000
    71.1462     4161.00000
    71.1593     4288.00000
    71.1725     4227.00000
    71.1856     4245.00000
    71.1987     4082.00000
    71.2118     4037.00000
    71.2250     3887.00000
    71.2381     3699.00000
    71.2512     3664.00000
    71.2644     3893.00000
    71.2775     4202.00000
    71.2906     4665.00000
    71.3038     5458.00000
    71.3169     6009.00000
    71.3300     6136.00000
    71.3431     5937.00000
    71.3563     5532.00000
    71.3694     4712.00000
    71.3825     4426.00000
    71.3957     3951.00000
    71.4088     3627.00000
    71.4219     3487.00000
    71.4351     3325.00000
    71.4482     3316.00000
    71.4613     3239.00000
    71.4744     3171.00000
    71.4876     3291.00000
    71.5007     3472.00000
    71.5138     3802.00000
    71.5270     3941.00000
    71.5401     4016.00000
    71.5532     3872.00000
    71.5664     3460.00000
    71.5795     3339.00000
    71.5926     3091.00000
    71.6058     2941.00000
    71.6189     2913.00000
    71.6320     2867.00000
    71.6451     2884.00000
    71.6583     2930.00000
    71.6714     3078.00000
    71.6845     3253.00000
    71.6977     3515.00000
    71.7108     3681.00000
    71.7239     4047.00000
    71.7371     4137.00000
    71.7502     3982.00000
    71.7633     3769.00000
    71.7764     3439.00000
    71.7896     3139.00000
    71.8027     3070.00000
    71.8158     2927.00000
    71.8290     2883.00000
    71.8421     2945.00000
    71.8552     2917.00000
    71.8684     2839.00000
    71.8815     3056.00000
    71.8946     3097.00000
    71.9078     3113.00000
    71.9209     3338.00000
    71.9340     3305.00000
    71.9471     3488.00000
    71.9603     3432.00000
    71.9734     3394.00000
    71.9865     3318.00000
    71.9997     3311.00000
    72.0128     3215.00000
    72.0259     3343.00000
    72.0391     3360.00000
    72.0522     3391.00000
    72.0653     3575.00000
    72.0784     3503.00000
    72.0916     3425.00000
    72.1047     3539.00000
    72.1178     3600.00000
    72.1310     3580.00000
    72.1441     3251.00000
    72.1572     3260.00000
    72.1704     3072.00000
    72.1835     3081.00000
    72.1966     2827.00000
    72.2097     2897.00000
    72.2229     2783.00000
    72.2360     2901.00000
    72.2491     2860.00000
    72.2623     2839.00000
    72.2754     2902.00000
    72.2885     2965.00000
    72.3017     2992.00000
    72.3148     2922.00000
    72.3279     2978.00000
    72.3410     2951.00000
    72.3542     2808.00000
    72.3673     2807.00000
    72.3804     2743.00000
    72.3936     2708.00000
    72.4067     2582.00000
    72.4198     2583.00000
    72.4330     2514.00000
    72.4461     2482.00000
    72.4592     2489.00000
    72.4724     2373.00000
    72.4855     2503.00000
    72.4986     2470.00000
    72.5117     2479.00000
    72.5249     2540.00000
    72.5380     2359.00000
    72.5511     2552.00000
    72.5643     2562.00000
    72.5774     2470.00000
    72.5905     2553.00000
    72.6037     2620.00000
    72.6168     2491.00000
    72.6299     2545.00000
    72.6430     2533.00000
    72.6562     2508.00000
    72.6693     2558.00000
    72.6824     2585.00000
    72.6956     2578.00000
    72.7087     2725.00000
    72.7218     2820.00000
    72.7350     3027.00000
    72.7481     3209.00000
    72.7612     3365.00000
    72.7743     3553.00000
    72.7875     3846.00000
    72.8006     4097.00000
    72.8137     4228.00000
    72.8269     4238.00000
    72.8400     3932.00000
    72.8531     3715.00000
    72.8663     3454.00000
    72.8794     3192.00000
    72.8925     3054.00000
    72.9057     2952.00000
    72.9188     2946.00000
    72.9319     2853.00000
    72.9450     2918.00000
    72.9582     2951.00000
    72.9713     2963.00000
    72.9844     3105.00000
    72.9976     3252.00000
    73.0107     3313.00000
    73.0238     3317.00000
    73.0370     3333.00000
    73.0501     3290.00000
    73.0632     3099.00000
    73.0763     2937.00000
    73.0895     2879.00000
    73.1026     2761.00000
    73.1157     2738.00000
    73.1289     2720.00000
    73.1420     2605.00000
    73.1551     2612.00000
    73.1683     2746.00000
    73.1814     2738.00000
    73.1945     2804.00000
    73.2076     2929.00000
    73.2208     3101.00000
    73.2339     3402.00000
    73.2470     3549.00000
    73.2602     3869.00000
    73.2733     4006.00000
    73.2864     4108.00000
    73.2996     4287.00000
    73.3127     4135.00000
    73.3258     3785.00000
    73.3390     3745.00000
    73.3521     3472.00000
    73.3652     3324.00000
    73.3783     3114.00000
    73.3915     3150.00000
    73.4046     3032.00000
    73.4177     3228.00000
    73.4309     3349.00000
    73.4440     3419.00000
    73.4571     3393.00000
    73.4703     3531.00000
    73.4834     3457.00000
    73.4965     3485.00000
    73.5096     3550.00000
    73.5228     3568.00000
    73.5359     3390.00000
    73.5490     3330.00000
    73.5622     3239.00000
    73.5753     3199.00000
    73.5884     3140.00000
    73.6016     3339.00000
    73.6147     3225.00000
    73.6278     3589.00000
    73.6409     3650.00000
    73.6541     3795.00000
    73.6672     3921.00000
    73.6803     4161.00000
    73.6935     4187.00000
    73.7066     4301.00000
    73.7197     4308.00000
    73.7329     4226.00000
    73.7460     3912.00000
    73.7591     3595.00000
    73.7722     3446.00000
    73.7854     3303.00000
    73.7985     3075.00000
    73.8116     3062.00000
    73.8248     2962.00000
    73.8379     3017.00000
    73.8510     3145.00000
    73.8642     3181.00000
    73.8773     3342.00000
    73.8904     3297.00000
    73.9035     3261.00000
    73.9167     3495.00000
    73.9298     3340.00000
    73.9429     3320.00000
    73.9561     3273.00000
    73.9692     3242.00000
    73.9823     3034.00000
    73.9955     2876.00000
    74.0086     2791.00000
    74.0217     2728.00000
    74.0349     2844.00000
    74.0480     2750.00000
    74.0611     2777.00000
    74.0742     2844.00000
    74.0874     2809.00000
    74.1005     2917.00000
    74.1136     3172.00000
    74.1268     3289.00000
    74.1399     3627.00000
    74.1530     4222.00000
    74.1662     4495.00000
    74.1793     4852.00000
    74.1924     5142.00000
    74.2056     5058.00000
    74.2187     5153.00000
    74.2318     5031.00000
    74.2449     4893.00000
    74.2581     4974.00000
    74.2712     5167.00000
    74.2843     5301.00000
    74.2975     5282.00000
    74.3106     5041.00000
    74.3237     4803.00000
    74.3369     4311.00000
    74.3500     4010.00000
    74.3631     3691.00000
    74.3762     3906.00000
    74.3894     3885.00000
    74.4025     3940.00000
    74.4156     4080.00000
    74.4288     3797.00000
    74.4419     3769.00000
    74.4550     3665.00000
    74.4682     3838.00000
    74.4813     3713.00000
    74.4944     3781.00000
    74.5075     3764.00000
    74.5207     3649.00000
    74.5338     3529.00000
    74.5469     3308.00000
    74.5601     3095.00000
    74.5732     2833.00000
    74.5863     2690.00000
    74.5995     2601.00000
    74.6126     2528.00000
    74.6257     2557.00000
    74.6388     2461.00000
    74.6520     2343.00000
    74.6651     2428.00000
    74.6782     2458.00000
    74.6914     2500.00000
    74.7045     2353.00000
    74.7176     2422.00000
    74.7308     2318.00000
    74.7439     2324.00000
    74.7570     2363.00000
    74.7701     2416.00000
    74.7833     2377.00000
    74.7964     2341.00000
    74.8095     2280.00000
    74.8227     2391.00000
    74.8358     2379.00000
    74.8489     2321.00000
    74.8621     2388.00000
    74.8752     2280.00000
    74.8883     2324.00000
    74.9015     2392.00000
    74.9146     2342.00000
    74.9277     2317.00000
    74.9408     2394.00000
    74.9540     2311.00000
    74.9671     2350.00000
    74.9802     2390.00000
    74.9934     2381.00000
    75.0065     2408.00000
    75.0196     2326.00000
    75.0328     2288.00000
    75.0459     2299.00000
    75.0590     2314.00000
    75.0722     2296.00000
    75.0853     2299.00000
    75.0984     2266.00000
    75.1115     2318.00000
    75.1247     2316.00000
    75.1378     2235.00000
    75.1509     2325.00000
    75.1641     2299.00000
    75.1772     2304.00000
    75.1903     2294.00000
    75.2035     2306.00000
    75.2166     2258.00000
    75.2297     2357.00000
    75.2428     2291.00000
    75.2560     2342.00000
    75.2691     2375.00000
    75.2822     2353.00000
    75.2954     2307.00000
    75.3085     2335.00000
    75.3216     2305.00000
    75.3348     2375.00000
    75.3479     2380.00000
    75.3610     2296.00000
    75.3741     2312.00000
    75.3873     2301.00000
    75.4004     2314.00000
    75.4135     2340.00000
    75.4267     2333.00000
    75.4398     2451.00000
    75.4529     2293.00000
    75.4661     2359.00000
    75.4792     2189.00000
    75.4923     2337.00000
    75.5054     2315.00000
    75.5186     2266.00000
    75.5317     2308.00000
    75.5448     2307.00000
    75.5580     2352.00000
    75.5711     2248.00000
    75.5842     2324.00000
    75.5974     2469.00000
    75.6105     2355.00000
    75.6236     2399.00000
    75.6367     2382.00000
    75.6499     2432.00000
    75.6630     2394.00000
    75.6761     2429.00000
    75.6893     2472.00000
    75.7024     2498.00000
    75.7155     2446.00000
    75.7287     2475.00000
    75.7418     2489.00000
    75.7549     2533.00000
    75.7681     2534.00000
    75.7812     2567.00000
    75.7943     2492.00000
    75.8074     2453.00000
    75.8206     2423.00000
    75.8337     2441.00000
    75.8468     2441.00000
    75.8600     2435.00000
    75.8731     2409.00000
    75.8862     2426.00000
    75.8994     2363.00000
    75.9125     2484.00000
    75.9256     2447.00000
    75.9387     2394.00000
    75.9519     2469.00000
    75.9650     2427.00000
    75.9781     2489.00000
    75.9913     2548.00000
    76.0044     2483.00000
    76.0175     2514.00000
    76.0307     2431.00000
    76.0438     2391.00000
    76.0569     2574.00000
    76.0701     2561.00000
    76.0832     2553.00000
    76.0963     2630.00000
    76.1094     2617.00000
    76.1226     2681.00000
    76.1357     2751.00000
    76.1488     2688.00000
    76.1620     2767.00000
    76.1751     2709.00000
    76.1882     2848.00000
    76.2014     2878.00000
    76.2145     2852.00000
    76.2276     2877.00000
    76.2407     2862.00000
    76.2539     2832.00000
    76.2670     2621.00000
    76.2801     2701.00000
    76.2933     2718.00000
    76.3064     2771.00000
    76.3195     2785.00000
    76.3327     2891.00000
    76.3458     3115.00000
    76.3589     3090.00000
    76.3720     3384.00000
    76.3852     3508.00000
    76.3983     3735.00000
    76.4114     3881.00000
    76.4246     4234.00000
    76.4377     4423.00000
    76.4508     4688.00000
    76.4640     4723.00000
    76.4771     4760.00000
    76.4902     4479.00000
    76.5033     4481.00000
    76.5165     4217.00000
    76.5296     3886.00000
    76.5427     3670.00000
    76.5559     3339.00000
    76.5690     3192.00000
    76.5821     3058.00000
    76.5953     3052.00000
    76.6084     3109.00000
    76.6215     3179.00000
    76.6347     3287.00000
    76.6478     3307.00000
    76.6609     3409.00000
    76.6740     3410.00000
    76.6872     3444.00000
    76.7003     3616.00000
    76.7134     3501.00000
    76.7266     3441.00000
    76.7397     3277.00000
    76.7528     3129.00000
    76.7660     3054.00000
    76.7791     2810.00000
    76.7922     2688.00000
    76.8053     2675.00000
    76.8185     2627.00000
    76.8316     2655.00000
    76.8447     2457.00000
    76.8579     2594.00000
    76.8710     2570.00000
    76.8841     2524.00000
    76.8973     2488.00000
    76.9104     2696.00000
    76.9235     2465.00000
    76.9366     2470.00000
    76.9498     2481.00000
    76.9629     2503.00000
    76.9760     2433.00000
    76.9892     2484.00000
    77.0023     2609.00000
    77.0154     2576.00000
    77.0286     2575.00000
    77.0417     2537.00000
    77.0548     2661.00000
    77.0679     2672.00000
    77.0811     2780.00000
    77.0942     2802.00000
    77.1073     2929.00000
    77.1205     2975.00000
    77.1336     3216.00000
    77.1467     3450.00000
    77.1599     3548.00000
    77.1730     3906.00000
    77.1861     4020.00000
    77.1993     4158.00000
    77.2124     4294.00000
    77.2255     4493.00000
    77.2386     4489.00000
    77.2518     4585.00000
    77.2649     4411.00000
    77.2780     4322.00000
    77.2912     4037.00000
    77.3043     3752.00000
    77.3174     3544.00000
    77.3306     3253.00000
    77.3437     3120.00000
    77.3568     3026.00000
    77.3699     3222.00000
    77.3831     3206.00000
    77.3962     3210.00000
    77.4093     3295.00000
    77.4225     3399.00000
    77.4356     3527.00000
    77.4487     3437.00000
    77.4619     3440.00000
    77.4750     3443.00000
    77.4881     3449.00000
    77.5013     3428.00000
    77.5144     3259.00000
    77.5275     3092.00000
    77.5406     3028.00000
    77.5538     2920.00000
    77.5669     2900.00000
    77.5800     2872.00000
    77.5932     2823.00000
    77.6063     2854.00000
    77.6194     2986.00000
    77.6326     2913.00000
    77.6457     3074.00000
    77.6588     3207.00000
    77.6719     3053.00000
    77.6851     2993.00000
    77.6982     2826.00000
    77.7113     2862.00000
    77.7245     2770.00000
    77.7376     2702.00000
    77.7507     2637.00000
    77.7639     2625.00000
    77.7770     2553.00000
    77.7901     2532.00000
    77.8032     2555.00000
    77.8164     2676.00000
    77.8295     2560.00000
    77.8426     2678.00000
    77.8558     2657.00000
    77.8689     2655.00000
    77.8820     2767.00000
    77.8952     2702.00000
    77.9083     2729.00000
    77.9214     2691.00000
    77.9345     2611.00000
    77.9477     2686.00000
    77.9608     2666.00000
    77.9739     2617.00000
    77.9871     2638.00000
    78.0002     2535.00000
    78.0133     2581.00000
    78.0265     2840.00000
    78.0396     2878.00000
    78.0527     2904.00000
    78.0658     3072.00000
    78.0790     3081.00000
    78.0921     2980.00000
    78.1052     2805.00000
    78.1184     2749.00000
    78.1315     2624.00000
    78.1446     2596.00000
    78.1578     2520.00000
    78.1709     2557.00000
    78.1840     2479.00000
    78.1972     2423.00000
    78.2103     2447.00000
    78.2234     2506.00000
    78.2365     2588.00000
    78.2497     2629.00000
    78.2628     2723.00000
    78.2759     2675.00000
    78.2891     2734.00000
    78.3022     2758.00000
    78.3153     2702.00000
    78.3285     2717.00000
    78.3416     2739.00000
    78.3547     2728.00000
    78.3679     2625.00000
    78.3810     2597.00000
    78.3941     2785.00000
    78.4072     2764.00000
    78.4204     2900.00000
    78.4335     3018.00000
    78.4466     3034.00000
    78.4598     3228.00000
    78.4729     3367.00000
    78.4860     3357.00000
    78.4992     3542.00000
    78.5123     3361.00000
    78.5254     3463.00000
    78.5385     3483.00000
    78.5517     3472.00000
    78.5648     3575.00000
    78.5779     3452.00000
    78.5911     3370.00000
    78.6042     3249.00000
    78.6173     3092.00000
    78.6305     3094.00000
    78.6436     2877.00000
    78.6567     2907.00000
    78.6698     2921.00000
    78.6830     3003.00000
    78.6961     2994.00000
    78.7092     3130.00000
    78.7224     3234.00000
    78.7355     3259.00000
    78.7486     3274.00000
    78.7618     3323.00000
    78.7749     3362.00000
    78.7880     3401.00000
    78.8011     3461.00000
    78.8143     3632.00000
    78.8274     3706.00000
    78.8405     3520.00000
    78.8537     3473.00000
    78.8668     3376.00000
    78.8799     3295.00000
    78.8931     3413.00000
    78.9062     3309.00000
    78.9193     3257.00000
    78.9324     3152.00000
    78.9456     3211.00000
    78.9587     3367.00000
    78.9718     3468.00000
    78.9850     3656.00000
    78.9981     3770.00000
    79.0112     3957.00000
    79.0244     4097.00000
    79.0375     4128.00000
    79.0506     3969.00000
    79.0638     3884.00000
    79.0769     3894.00000
    79.0900     3727.00000
    79.1031     3859.00000
    79.1163     3893.00000
    79.1294     3929.00000
    79.1425     3869.00000
    79.1557     3979.00000
    79.1688     3934.00000
    79.1819     3860.00000
    79.1951     4016.00000
    79.2082     4014.00000
    79.2213     4004.00000
    79.2345     4028.00000
    79.2476     3999.00000
    79.2607     3863.00000
    79.2738     3585.00000
    79.2870     3552.00000
    79.3001     3384.00000
    79.3132     3304.00000
    79.3264     3376.00000
    79.3395     3174.00000
    79.3526     3084.00000
    79.3658     3136.00000
    79.3789     3222.00000
    79.3920     3246.00000
    79.4051     3143.00000
    79.4183     3269.00000
    79.4314     3153.00000
    79.4445     3297.00000
    79.4577     3290.00000
    79.4708     3310.00000
    79.4839     3268.00000
    79.4971     3418.00000
    79.5102     3508.00000
    79.5233     3593.00000
    79.5364     3682.00000
    79.5496     3942.00000
    79.5627     4217.00000
    79.5758     4215.00000
    79.5890     4187.00000
    79.6021     3982.00000
    79.6152     3804.00000
    79.6284     3663.00000
    79.6415     3390.00000
    79.6546     3141.00000
    79.6677     3019.00000
    79.6809     3114.00000
    79.6940     2920.00000
    79.7071     2920.00000
    79.7203     2936.00000
    79.7334     2890.00000
    79.7465     3019.00000
    79.7597     2898.00000
    79.7728     3189.00000
    79.7859     3320.00000
    79.7990     3376.00000
    79.8122     3438.00000
    79.8253     3436.00000
    79.8384     3434.00000
    79.8516     3517.00000
    79.8647     3323.00000
    79.8778     3344.00000
    79.8910     3162.00000
    79.9041     3148.00000
    79.9172     3153.00000
    79.9304     2981.00000
    79.9435     2943.00000
    79.9566     2820.00000
    79.9697     2788.00000
    79.9829     2768.00000
    79.9960     2692.00000
    80.0091     2654.00000
    80.0223     2718.00000
    80.0354     2687.00000
    80.0485     2682.00000
    80.0617     2826.00000
    80.0748     2786.00000
    80.0879     2700.00000
    80.1010     2787.00000
    80.1142     2720.00000
    80.1273     2864.00000
    80.1404     2871.00000
    80.1536     2863.00000
    80.1667     2981.00000
    80.1798     2920.00000
    80.1930     3052.00000
    80.2061     3061.00000
    80.2192     3299.00000
    80.2323     3327.00000
    80.2455     3457.00000
    80.2586     3473.00000
    80.2717     3863.00000
    80.2849     3951.00000
    80.2980     4335.00000
    80.3111     4661.00000
    80.3243     4969.00000
    80.3374     5248.00000
    80.3505     5691.00000
    80.3637     5873.00000
    80.3768     6262.00000
    80.3899     6598.00000
    80.4030     6465.00000
    80.4162     6361.00000
    80.4293     6214.00000
    80.4424     6145.00000
    80.4556     5729.00000
    80.4687     5567.00000
    80.4818     5139.00000
    80.4950     5114.00000
    80.5081     5024.00000
    80.5212     4640.00000
    80.5343     4625.00000
    80.5475     4539.00000
    80.5606     4457.00000
    80.5737     4669.00000
    80.5869     4912.00000
    80.6000     5158.00000
    80.6131     5353.00000
    80.6263     5571.00000
    80.6394     5767.00000
    80.6525     5959.00000
    80.6656     6002.00000
    80.6788     5948.00000
    80.6919     5691.00000
    80.7050     5334.00000
    80.7182     5113.00000
    80.7313     4923.00000
    80.7444     4822.00000
    80.7576     4739.00000
    80.7707     4785.00000
    80.7838     4642.00000
    80.7970     4362.00000
    80.8101     4210.00000
    80.8232     3889.00000
    80.8363     3938.00000
    80.8495     3720.00000
    80.8626     3463.00000
    80.8757     3577.00000
    80.8889     3523.00000
    80.9020     3608.00000
    80.9151     3583.00000
    80.9283     3554.00000
    80.9414     3356.00000
    80.9545     3393.00000
    80.9676     3328.00000
    80.9808     3326.00000
    80.9939     3340.00000
    81.0070     3341.00000
    81.0202     3504.00000
    81.0333     3514.00000
    81.0464     3694.00000
    81.0596     3420.00000
    81.0727     3397.00000
    81.0858     3335.00000
    81.0989     3443.00000
    81.1121     3450.00000
    81.1252     3529.00000
    81.1383     3515.00000
    81.1515     3647.00000
    81.1646     3576.00000
    81.1777     3495.00000
    81.1909     3451.00000
    81.2040     3420.00000
    81.2171     3365.00000
    81.2302     3371.00000
    81.2434     3370.00000
    81.2565     3331.00000
    81.2696     3398.00000
    81.2828     3357.00000
    81.2959     3431.00000
    81.3090     3539.00000
    81.3222     3545.00000
    81.3353     3512.00000
    81.3484     3542.00000
    81.3616     3639.00000
    81.3747     3593.00000
    81.3878     3430.00000
    81.4009     3415.00000
    81.4141     3331.00000
    81.4272     3038.00000
    81.4403     3051.00000
    81.4535     3020.00000
    81.4666     2906.00000
    81.4797     2875.00000
    81.4929     2752.00000
    81.5060     2897.00000
    81.5191     2759.00000
    81.5322     2746.00000
    81.5454     2792.00000
    81.5585     2888.00000
    81.5716     2828.00000
    81.5848     2740.00000
    81.5979     2772.00000
    81.6110     2777.00000
    81.6242     2710.00000
    81.6373     2640.00000
    81.6504     2561.00000
    81.6636     2654.00000
    81.6767     2536.00000
    81.6898     2572.00000
    81.7029     2446.00000
    81.7161     2467.00000
    81.7292     2519.00000
    81.7423     2474.00000
    81.7555     2406.00000
    81.7686     2478.00000
    81.7817     2526.00000
    81.7949     2403.00000
    81.8080     2475.00000
    81.8211     2444.00000
    81.8342     2459.00000
    81.8474     2478.00000
    81.8605     2429.00000
    81.8736     2403.00000
    81.8868     2461.00000
    81.8999     2506.00000
    81.9130     2441.00000
    81.9262     2456.00000
    81.9393     2473.00000
    81.9524     2445.00000
    81.9655     2480.00000
    81.9787     2516.00000
    81.9918     2476.00000
    82.0049     2514.00000
    82.0181     2515.00000
    82.0312     2528.00000
    82.0443     2679.00000
    82.0575     2606.00000
    82.0706     2675.00000
    82.0837     2646.00000
    82.0968     2740.00000
    82.1100     2840.00000
    82.1231     2917.00000
    82.1362     2958.00000
    82.1494     3127.00000
    82.1625     3154.00000
    82.1756     3273.00000
    82.1888     3453.00000
    82.2019     3616.00000
    82.2150     3722.00000
    82.2281     3849.00000
    82.2413     3799.00000
    82.2544     4092.00000
    82.2675     4236.00000
    82.2807     4237.00000
    82.2938     4207.00000
    82.3069     4012.00000
    82.3201     3954.00000
    82.3332     3828.00000
    82.3463     3640.00000
    82.3595     3481.00000
    82.3726     3359.00000
    82.3857     3246.00000
    82.3988     3111.00000
    82.4120     3015.00000
    82.4251     3196.00000
    82.4382     3245.00000
    82.4514     3141.00000
    82.4645     3349.00000
    82.4776     3230.00000
    82.4908     3276.00000
    82.5039     3431.00000
    82.5170     3357.00000
    82.5302     3419.00000
    82.5433     3482.00000
    82.5564     3482.00000
    82.5695     3566.00000
    82.5827     3685.00000
    82.5958     3808.00000
    82.6089     4062.00000
    82.6221     4151.00000
    82.6352     4031.00000
    82.6483     3809.00000
    82.6615     3509.00000
    82.6746     3225.00000
    82.6877     3009.00000
    82.7008     2867.00000
    82.7140     2776.00000
    82.7271     2749.00000
    82.7402     2586.00000
    82.7534     2634.00000
    82.7665     2608.00000
    82.7796     2753.00000
    82.7928     2645.00000
    82.8059     2546.00000
    82.8190     2734.00000
    82.8321     2725.00000
    82.8453     2873.00000
    82.8584     3102.00000
    82.8715     3080.00000
    82.8847     3069.00000
    82.8978     3081.00000
    82.9109     2952.00000
    82.9241     2961.00000
    82.9372     2768.00000
    82.9503     2717.00000
    82.9634     2638.00000
    82.9766     2615.00000
    82.9897     2563.00000
    83.0028     2542.00000
    83.0160     2478.00000
    83.0291     2435.00000
    83.0422     2432.00000
    83.0554     2442.00000
    83.0685     2403.00000
    83.0816     2370.00000
    83.0947     2429.00000
    83.1079     2378.00000
    83.1210     2479.00000
    83.1341     2353.00000
    83.1473     2435.00000
    83.1604     2487.00000
    83.1735     2368.00000
    83.1867     2385.00000
    83.1998     2403.00000
    83.2129     2486.00000
    83.2261     2415.00000
    83.2392     2432.00000
    83.2523     2392.00000
    83.2654     2424.00000
    83.2786     2420.00000
    83.2917     2455.00000
    83.3048     2426.00000
    83.3180     2362.00000
    83.3311     2381.00000
    83.3442     2354.00000
    83.3574     2356.00000
    83.3705     2421.00000
    83.3836     2302.00000
    83.3967     2339.00000
    83.4099     2475.00000
    83.4230     2435.00000
    83.4361     2550.00000
    83.4493     2440.00000
    83.4624     2539.00000
    83.4755     2557.00000
    83.4887     2618.00000
    83.5018     2653.00000
    83.5149     2662.00000
    83.5281     2701.00000
    83.5412     2638.00000
    83.5543     2603.00000
    83.5674     2669.00000
    83.5806     2609.00000
    83.5937     2655.00000
    83.6068     2645.00000
    83.6200     2641.00000
    83.6331     2654.00000
    83.6462     2631.00000
    83.6594     2760.00000
    83.6725     2655.00000
    83.6856     2561.00000
    83.6987     2617.00000
    83.7119     2634.00000
    83.7250     2694.00000
    83.7381     2749.00000
    83.7513     2684.00000
    83.7644     2794.00000
    83.7775     2813.00000
    83.7907     2948.00000
    83.8038     3002.00000
    83.8169     3130.00000
    83.8300     3250.00000
    83.8432     3222.00000
    83.8563     3325.00000
    83.8694     3375.00000
    83.8826     3200.00000
    83.8957     3245.00000
    83.9088     3011.00000
    83.9220     2842.00000
    83.9351     2802.00000
    83.9482     2682.00000
    83.9613     2597.00000
    83.9745     2596.00000
    83.9876     2578.00000
    84.0007     2554.00000
    84.0139     2482.00000
    84.0270     2526.00000
    84.0401     2496.00000
    84.0533     2659.00000
    84.0664     2614.00000
    84.0795     2634.00000
    84.0927     2712.00000
    84.1058     2767.00000
    84.1189     2772.00000
    84.1320     2820.00000
    84.1452     2671.00000
    84.1583     2612.00000
    84.1714     2552.00000
    84.1846     2578.00000
    84.1977     2470.00000
    84.2108     2407.00000
    84.2240     2372.00000
    84.2371     2423.00000
    84.2502     2385.00000
    84.2633     2347.00000
    84.2765     2420.00000
    84.2896     2388.00000
    84.3027     2410.00000
    84.3159     2417.00000
    84.3290     2346.00000
    84.3421     2390.00000
    84.3553     2303.00000
    84.3684     2370.00000
    84.3815     2435.00000
    84.3946     2407.00000
    84.4078     2424.00000
    84.4209     2357.00000
    84.4340     2438.00000
    84.4472     2445.00000
    84.4603     2372.00000
    84.4734     2507.00000
    84.4866     2405.00000
    84.4997     2465.00000
    84.5128     2535.00000
    84.5260     2563.00000
    84.5391     2465.00000
    84.5522     2621.00000
    84.5653     2483.00000
    84.5785     2460.00000
    84.5916     2410.00000
    84.6047     2342.00000
    84.6179     2471.00000
    84.6310     2358.00000
    84.6441     2384.00000
    84.6573     2394.00000
    84.6704     2259.00000
    84.6835     2335.00000
    84.6966     2385.00000
    84.7098     2340.00000
    84.7229     2375.00000
    84.7360     2457.00000
    84.7492     2492.00000
    84.7623     2480.00000
    84.7754     2400.00000
    84.7886     2426.00000
    84.8017     2395.00000
    84.8148     2446.00000
    84.8279     2414.00000
    84.8411     2432.00000
    84.8542     2413.00000
    84.8673     2355.00000
    84.8805     2425.00000
    84.8936     2413.00000
    84.9067     2311.00000
    84.9199     2422.00000
    84.9330     2333.00000
    84.9461     2483.00000
    84.9593     2342.00000
    84.9724     2498.00000
    84.9855     2374.00000
    84.9986     2357.00000
    85.0118     2414.00000
    85.0249     2382.00000
    85.0380     2339.00000
    85.0512     2345.00000
    85.0643     2380.00000
    85.0774     2298.00000
    85.0906     2372.00000
    85.1037     2371.00000
    85.1168     2371.00000
    85.1299     2350.00000
    85.1431     2352.00000
    85.1562     2428.00000
    85.1693     2354.00000
    85.1825     2410.00000
    85.1956     2421.00000
    85.2087     2369.00000
    85.2219     2424.00000
    85.2350     2375.00000
    85.2481     2400.00000
    85.2612     2485.00000
    85.2744     2391.00000
    85.2875     2459.00000
    85.3006     2401.00000
    85.3138     2419.00000
    85.3269     2516.00000
    85.3400     2425.00000
    85.3532     2582.00000
    85.3663     2651.00000
    85.3794     2650.00000
    85.3925     2763.00000
    85.4057     2819.00000
    85.4188     2844.00000
    85.4319     2898.00000
    85.4451     2810.00000
    85.4582     2889.00000
    85.4713     2955.00000
    85.4845     2804.00000
    85.4976     3010.00000
    85.5107     3055.00000
    85.5238     3100.00000
    85.5370     3112.00000
    85.5501     2970.00000
    85.5632     2946.00000
    85.5764     2893.00000
    85.5895     2752.00000
    85.6026     2761.00000
    85.6158     2808.00000
    85.6289     2899.00000
    85.6420     3023.00000
    85.6552     3158.00000
    85.6683     3338.00000
    85.6814     3501.00000
    85.6945     3747.00000
    85.7077     3796.00000
    85.7208     3890.00000
    85.7339     3968.00000
    85.7471     4007.00000
    85.7602     3974.00000
    85.7733     3977.00000
    85.7865     4023.00000
    85.7996     3820.00000
    85.8127     3894.00000
    85.8259     3841.00000
    85.8390     3669.00000
    85.8521     3469.00000
    85.8652     3353.00000
    85.8784     3323.00000
    85.8915     3266.00000
    85.9046     3278.00000
    85.9178     3354.00000
    85.9309     3369.00000
    85.9440     3589.00000
    85.9572     3559.00000
    85.9703     3591.00000
    85.9834     3658.00000
    85.9965     3652.00000
    86.0097     3552.00000
    86.0228     3528.00000
    86.0359     3456.00000
    86.0491     3456.00000
    86.0622     3304.00000
    86.0753     3259.00000
    86.0885     3062.00000
    86.1016     3024.00000
    86.1147     2958.00000
    86.1278     2862.00000
    86.1410     2827.00000
    86.1541     2772.00000
    86.1672     2723.00000
    86.1804     2741.00000
    86.1935     2711.00000
    86.2066     2737.00000
    86.2198     2740.00000
    86.2329     2626.00000
    86.2460     2711.00000
    86.2591     2619.00000
    86.2723     2721.00000
    86.2854     2613.00000
    86.2985     2570.00000
    86.3117     2613.00000
    86.3248     2524.00000
    86.3379     2524.00000
    86.3511     2504.00000
    86.3642     2425.00000
    86.3773     2470.00000
    86.3904     2427.00000
    86.4036     2496.00000
    86.4167     2442.00000
    86.4298     2399.00000
    86.4430     2467.00000
    86.4561     2402.00000
    86.4692     2457.00000
    86.4824     2424.00000
    86.4955     2470.00000
    86.5086     2378.00000
    86.5218     2400.00000
    86.5349     2480.00000
    86.5480     2531.00000
    86.5611     2541.00000
    86.5743     2728.00000
    86.5874     2813.00000
    86.6005     2703.00000
    86.6137     2840.00000
    86.6268     2907.00000
    86.6399     2969.00000
    86.6531     2973.00000
    86.6662     3098.00000
    86.6793     3002.00000
    86.6925     2936.00000
    86.7056     3014.00000
    86.7187     2841.00000
    86.7318     2853.00000
    86.7450     2682.00000
    86.7581     2522.00000
    86.7712     2541.00000
    86.7844     2594.00000
    86.7975     2518.00000
    86.8106     2591.00000
    86.8238     2544.00000
    86.8369     2520.00000
    86.8500     2606.00000
    86.8631     2563.00000
    86.8763     2608.00000
    86.8894     2733.00000
    86.9025     2730.00000
    86.9157     2783.00000
    86.9288     2797.00000
    86.9419     2746.00000
    86.9551     2781.00000
    86.9682     2807.00000
    86.9813     2856.00000
    86.9944     2775.00000
    87.0076     2824.00000
    87.0207     2787.00000
    87.0338     2910.00000
    87.0470     3009.00000
    87.0601     3066.00000
    87.0732     3042.00000
    87.0864     3146.00000
    87.0995     3280.00000
    87.1126     3309.00000
    87.1257     3348.00000
    87.1389     3141.00000
    87.1520     3051.00000
    87.1651     3011.00000
    87.1783     2768.00000
    87.1914     2774.00000
    87.2045     2696.00000
    87.2177     2794.00000
    87.2308     2792.00000
    87.2439     2752.00000
    87.2570     2894.00000
    87.2702     2958.00000
    87.2833     2940.00000
    87.2964     2951.00000
    87.3096     2951.00000
    87.3227     3189.00000
    87.3358     3167.00000
    87.3490     3058.00000
    87.3621     3172.00000
    87.3752     3007.00000
    87.3884     2975.00000
    87.4015     2886.00000
    87.4146     2958.00000
    87.4277     2766.00000
    87.4409     2682.00000
    87.4540     2745.00000
    87.4671     2666.00000
    87.4803     2573.00000
    87.4934     2624.00000
    87.5065     2721.00000
    87.5197     2637.00000
    87.5328     2611.00000
    87.5459     2758.00000
    87.5590     2647.00000
    87.5722     2724.00000
    87.5853     2729.00000
    87.5984     2829.00000
    87.6116     2661.00000
    87.6247     2808.00000
    87.6378     2741.00000
    87.6510     2831.00000
    87.6641     2684.00000
    87.6772     2897.00000
    87.6904     2892.00000
    87.7035     2985.00000
    87.7166     3028.00000
    87.7297     3162.00000
    87.7429     3262.00000
    87.7560     3311.00000
    87.7691     3150.00000
    87.7823     3285.00000
    87.7954     3082.00000
    87.8085     3110.00000
    87.8217     3104.00000
    87.8348     2947.00000
    87.8479     2809.00000
    87.8610     2838.00000
    87.8742     2868.00000
    87.8873     2879.00000
    87.9004     2841.00000
    87.9136     2930.00000
    87.9267     2794.00000
    87.9398     2986.00000
    87.9530     2978.00000
    87.9661     3054.00000
    87.9792     3335.00000
    87.9923     3631.00000
    88.0055     3786.00000
    88.0186     3901.00000
    88.0317     3997.00000
    88.0449     3911.00000
    88.0580     3857.00000
    88.0711     3593.00000
    88.0843     3383.00000
    88.0974     3189.00000
    88.1105     3149.00000
    88.1236     2975.00000
    88.1368     2982.00000
    88.1499     2959.00000
    88.1630     2918.00000
    88.1762     2953.00000
    88.1893     2929.00000
    88.2024     2978.00000
    88.2156     2913.00000
    88.2287     2895.00000
    88.2418     2978.00000
    88.2550     3064.00000
    88.2681     3146.00000
    88.2812     3126.00000
    88.2943     3185.00000
    88.3075     3159.00000
    88.3206     3093.00000
    88.3337     3030.00000
    88.3469     3030.00000
    88.3600     2876.00000
    88.3731     2814.00000
    88.3863     2825.00000
    88.3994     2814.00000
    88.4125     2815.00000
    88.4256     2804.00000
    88.4388     2806.00000
    88.4519     2874.00000
    88.4650     2942.00000
    88.4782     2871.00000
    88.4913     2908.00000
    88.5044     3057.00000
    88.5176     2930.00000
    88.5307     2981.00000
    88.5438     3006.00000
    88.5569     2946.00000
    88.5701     2983.00000
    88.5832     3011.00000
    88.5963     3003.00000
    88.6095     3231.00000
    88.6226     3492.00000
    88.6357     3567.00000
    88.6489     3771.00000
    88.6620     3769.00000
    88.6751     3876.00000
    88.6882     3832.00000
    88.7014     3756.00000
    88.7145     3787.00000
    88.7276     3451.00000
    88.7408     3187.00000
    88.7539     3049.00000
    88.7670     2870.00000
    88.7802     2897.00000
    88.7933     2757.00000
    88.8064     2791.00000
    88.8196     2660.00000
    88.8327     2544.00000
    88.8458     2595.00000
    88.8589     2727.00000
    88.8721     2699.00000
    88.8852     2791.00000
    88.8983     2866.00000
    88.9115     2989.00000
    88.9246     3002.00000
    88.9377     3066.00000
    88.9509     3146.00000
    88.9640     3088.00000
    88.9771     3061.00000
    88.9902     3111.00000
    89.0034     3039.00000
    89.0165     2851.00000
    89.0296     2846.00000
    89.0428     2762.00000
    89.0559     2616.00000
    89.0690     2590.00000
    89.0822     2681.00000
    89.0953     2565.00000
    89.1084     2708.00000
    89.1216     2807.00000
    89.1347     2853.00000
    89.1478     2851.00000
    89.1609     3034.00000
    89.1741     3127.00000
    89.1872     3241.00000
    89.2003     3423.00000
    89.2135     3278.00000
    89.2266     3326.00000
    89.2397     3154.00000
    89.2529     3071.00000
    89.2660     2921.00000
    89.2791     2942.00000
    89.2922     2719.00000
    89.3054     2822.00000
    89.3185     2690.00000
    89.3316     2618.00000
    89.3448     2620.00000
    89.3579     2550.00000
    89.3710     2546.00000
    89.3842     2505.00000
    89.3973     2536.00000
    89.4104     2654.00000
    89.4235     2669.00000
    89.4367     2673.00000
    89.4498     2693.00000
    89.4629     2736.00000
    89.4761     2849.00000
    89.4892     2909.00000
    89.5023     2862.00000
    89.5155     2817.00000
    89.5286     2785.00000
    89.5417     2638.00000
    89.5548     2694.00000
    89.5680     2674.00000
    89.5811     2606.00000
    89.5942     2588.00000
    89.6074     2471.00000
    89.6205     2571.00000
    89.6336     2507.00000
    89.6468     2565.00000
    89.6599     2455.00000
    89.6730     2443.00000
    89.6861     2413.00000
    89.6993     2440.00000
    89.7124     2367.00000
    89.7255     2522.00000
    89.7387     2593.00000
    89.7518     2536.00000
    89.7649     2596.00000
    89.7781     2729.00000
    89.7912     2703.00000
    89.8043     2776.00000
    89.8175     2930.00000
    89.8306     3158.00000
    89.8437     3456.00000
    89.8568     3625.00000
    89.8700     3697.00000
    89.8831     3719.00000
    89.8962     3531.00000
    89.9094     3461.00000
    89.9225     3424.00000
    89.9356     3168.00000
    89.9488     3068.00000
    89.9619     3120.00000
    89.9750     2982.00000
    89.9882     2882.00000
    90.0013     2856.00000
    90.0144     2808.00000
    90.0275     2663.00000
    90.0407     2684.00000
    90.0538     2682.00000
    90.0669     2655.00000
    90.0801     2663.00000
    90.0932     2817.00000
    90.1063     2864.00000
    90.1195     2894.00000
    90.1326     2985.00000
    90.1457     3060.00000
    90.1588     3111.00000
    90.1720     3121.00000
    90.1851     3092.00000
    90.1982     2978.00000
    90.2114     2951.00000
    90.2245     2891.00000
    90.2376     2831.00000
    90.2508     2943.00000
    90.2639     2877.00000
    90.2770     2938.00000
    90.2901     2908.00000
    90.3033     3024.00000
    90.3164     3078.00000
    90.3295     3045.00000
    90.3427     3233.00000
    90.3558     3210.00000
    90.3689     3301.00000
    90.3821     3149.00000
    90.3952     3192.00000
    90.4083     3119.00000
    90.4214     3137.00000
    90.4346     3006.00000
    90.4477     2889.00000
    90.4608     2989.00000
    90.4740     2874.00000
    90.4871     2941.00000
    90.5002     3021.00000
    90.5134     3013.00000
    90.5265     2895.00000
    90.5396     2910.00000
    90.5527     2989.00000
    90.5659     2903.00000
    90.5790     3006.00000
    90.5921     3055.00000
    90.6053     2963.00000
    90.6184     2980.00000
    90.6315     3104.00000
    90.6447     3170.00000
    90.6578     3175.00000
    90.6709     3165.00000
    90.6841     3146.00000
    90.6972     3341.00000
    90.7103     3157.00000
    90.7234     3104.00000
    90.7366     3123.00000
    90.7497     3195.00000
    90.7628     3116.00000
    90.7760     3104.00000
    90.7891     2921.00000
    90.8022     3008.00000
    90.8154     2890.00000
    90.8285     2995.00000
    90.8416     2805.00000
    90.8548     2686.00000
    90.8679     2799.00000
    90.8810     2634.00000
    90.8941     2663.00000
    90.9073     2757.00000
    90.9204     2661.00000
    90.9335     2715.00000
    90.9467     2842.00000
    90.9598     2803.00000
    90.9729     2990.00000
    90.9861     3039.00000
    90.9992     3143.00000
    91.0123     3271.00000
    91.0254     3220.00000
    91.0386     3456.00000
    91.0517     3477.00000
    91.0648     3359.00000
    91.0780     3274.00000
    91.0911     3139.00000
    91.1042     2967.00000
    91.1174     2828.00000
    91.1305     2797.00000
    91.1436     2756.00000
    91.1567     2582.00000
    91.1699     2705.00000
    91.1830     2710.00000
    91.1961     2651.00000
    91.2093     2724.00000
    91.2224     2721.00000
    91.2355     2784.00000
    91.2487     2788.00000
    91.2618     3005.00000
    91.2749     3017.00000
    91.2880     3095.00000
    91.3012     3282.00000
    91.3143     3487.00000
    91.3274     3618.00000
    91.3406     3857.00000
    91.3537     3898.00000
    91.3668     4050.00000
    91.3800     4143.00000
    91.3931     4215.00000
    91.4062     4129.00000
    91.4193     4193.00000
    91.4325     4201.00000
    91.4456     4147.00000
    91.4587     4000.00000
    91.4719     3818.00000
    91.4850     3619.00000
    91.4981     3405.00000
    91.5113     3176.00000
    91.5244     3188.00000
    91.5375     2881.00000
    91.5507     2989.00000
    91.5638     2791.00000
    91.5769     2857.00000
    91.5900     2999.00000
    91.6032     2952.00000
    91.6163     2952.00000
    91.6294     3075.00000
    91.6426     3029.00000
    91.6557     3265.00000
    91.6688     3383.00000
    91.6820     3490.00000
    91.6951     3453.00000
    91.7082     3603.00000
    91.7213     3690.00000
    91.7345     3629.00000
    91.7476     3681.00000
    91.7607     3711.00000
    91.7739     3831.00000
    91.7870     3821.00000
    91.8001     3899.00000
    91.8133     3926.00000
    91.8264     3922.00000
    91.8395     3839.00000
    91.8526     3618.00000
    91.8658     3448.00000
    91.8789     3128.00000
    91.8920     3139.00000
    91.9052     2934.00000
    91.9183     2837.00000
    91.9314     2849.00000
    91.9446     2773.00000
    91.9577     2664.00000
    91.9708     2738.00000
    91.9840     2860.00000
    91.9971     2768.00000
    92.0102     2779.00000
    92.0233     2888.00000
    92.0365     2964.00000
    92.0496     2999.00000
    92.0627     3081.00000
    92.0759     3161.00000
    92.0890     3326.00000
    92.1021     3491.00000
    92.1153     3337.00000
    92.1284     3308.00000
    92.1415     3348.00000
    92.1546     3198.00000
    92.1678     3162.00000
    92.1809     3023.00000
    92.1940     2970.00000
    92.2072     2889.00000
    92.2203     2728.00000
    92.2334     2809.00000
    92.2466     2794.00000
    92.2597     2671.00000
    92.2728     2751.00000
    92.2859     2861.00000
    92.2991     2655.00000
    92.3122     2656.00000
    92.3253     2610.00000
    92.3385     2633.00000
    92.3516     2681.00000
    92.3647     2543.00000
    92.3779     2657.00000
    92.3910     2665.00000
    92.4041     2698.00000
    92.4173     2685.00000
    92.4304     2602.00000
    92.4435     2605.00000
    92.4566     2661.00000
    92.4698     2645.00000
    92.4829     2551.00000
    92.4960     2570.00000
    92.5092     2489.00000
    92.5223     2569.00000
    92.5354     2591.00000
    92.5486     2580.00000
    92.5617     2577.00000
    92.5748     2701.00000
    92.5879     2559.00000
    92.6011     2812.00000
    92.6142     2757.00000
    92.6273     2853.00000
    92.6405     2801.00000
    92.6536     2847.00000
    92.6667     2790.00000
    92.6799     2731.00000
    92.6930     2831.00000
    92.7061     2696.00000
    92.7192     2679.00000
    92.7324     2622.00000
    92.7455     2764.00000
    92.7586     2582.00000
    92.7718     2675.00000
    92.7849     2768.00000
    92.7980     2749.00000
    92.8112     2815.00000
    92.8243     2773.00000
    92.8374     2845.00000
    92.8505     2778.00000
    92.8637     2851.00000
    92.8768     2944.00000
    92.8899     2951.00000
    92.9031     3021.00000
    92.9162     3002.00000
    92.9293     3126.00000
    92.9425     3125.00000
    92.9556     3193.00000
    92.9687     3265.00000
    92.9819     3398.00000
    92.9950     3464.00000
    93.0081     3571.00000
    93.0212     3680.00000
    93.0344     3810.00000
    93.0475     3773.00000
    93.0606     3636.00000
    93.0738     3588.00000
    93.0869     3443.00000
    93.1000     3204.00000
    93.1132     3117.00000
    93.1263     3012.00000
    93.1394     2982.00000
    93.1525     2906.00000
    93.1657     2890.00000
    93.1788     2739.00000
    93.1919     2684.00000
    93.2051     2824.00000
    93.2182     2705.00000
    93.2313     2807.00000
    93.2445     2729.00000
    93.2576     2697.00000
    93.2707     2732.00000
    93.2839     2879.00000
    93.2970     2838.00000
    93.3101     2870.00000
    93.3232     3046.00000
    93.3364     2904.00000
    93.3495     3010.00000
    93.3626     2978.00000
    93.3758     2854.00000
    93.3889     2790.00000
    93.4020     2762.00000
    93.4152     2728.00000
    93.4283     2723.00000
    93.4414     2590.00000
    93.4545     2516.00000
    93.4677     2544.00000
    93.4808     2463.00000
    93.4939     2434.00000
    93.5071     2391.00000
    93.5202     2400.00000
    93.5333     2362.00000
    93.5465     2343.00000
    93.5596     2334.00000
    93.5727     2364.00000
    93.5858     2268.00000
    93.5990     2441.00000
    93.6121     2466.00000
    93.6252     2342.00000
    93.6384     2307.00000
    93.6515     2324.00000
    93.6646     2430.00000
    93.6778     2385.00000
    93.6909     2254.00000
    93.7040     2284.00000
    93.7171     2364.00000
    93.7303     2303.00000
    93.7434     2338.00000
    93.7565     2359.00000
    93.7697     2337.00000
    93.7828     2417.00000
    93.7959     2348.00000
    93.8091     2303.00000
    93.8222     2285.00000
    93.8353     2238.00000
    93.8484     2336.00000
    93.8616     2279.00000
    93.8747     2268.00000
    93.8878     2273.00000
    93.9010     2269.00000
    93.9141     2415.00000
    93.9272     2325.00000
    93.9404     2333.00000
    93.9535     2327.00000
    93.9666     2356.00000
    93.9798     2259.00000
    93.9929     2346.00000
    94.0060     2303.00000
    94.0191     2357.00000
    94.0323     2377.00000
    94.0454     2284.00000
    94.0585     2375.00000
    94.0717     2363.00000
    94.0848     2391.00000
    94.0979     2419.00000
    94.1111     2339.00000
    94.1242     2405.00000
    94.1373     2366.00000
    94.1505     2502.00000
    94.1636     2430.00000
    94.1767     2452.00000
    94.1898     2486.00000
    94.2030     2704.00000
    94.2161     2638.00000
    94.2292     2743.00000
    94.2424     2814.00000
    94.2555     2953.00000
    94.2686     3042.00000
    94.2818     3262.00000
    94.2949     3213.00000
    94.3080     3136.00000
    94.3211     3213.00000
    94.3343     3112.00000
    94.3474     3082.00000
    94.3605     2886.00000
    94.3737     2924.00000
    94.3868     2793.00000
    94.3999     2875.00000
    94.4131     2817.00000
    94.4262     2892.00000
    94.4393     2774.00000
    94.4524     2902.00000
    94.4656     2846.00000
    94.4787     2802.00000
    94.4918     2736.00000
    94.5050     2777.00000
    94.5181     2716.00000
    94.5312     2764.00000
    94.5444     2882.00000
    94.5575     2947.00000
    94.5706     2959.00000
    94.5837     2847.00000
    94.5969     2832.00000
    94.6100     2864.00000
    94.6231     2972.00000
    94.6363     2913.00000
    94.6494     2706.00000
    94.6625     2758.00000
    94.6757     2706.00000
    94.6888     2723.00000
    94.7019     2748.00000
    94.7150     2789.00000
    94.7282     2721.00000
    94.7413     2671.00000
    94.7544     2798.00000
    94.7676     2800.00000
    94.7807     2748.00000
    94.7938     2736.00000
    94.8070     2732.00000
    94.8201     2853.00000
    94.8332     2858.00000
    94.8464     2897.00000
    94.8595     3040.00000
    94.8726     3128.00000
    94.8857     3234.00000
    94.8989     3332.00000
    94.9120     3275.00000
    94.9251     3217.00000
    94.9383     3201.00000
    94.9514     3137.00000
    94.9645     3192.00000
    94.9777     3275.00000
    94.9908     3201.00000
    95.0039     3195.00000
    95.0170     3205.00000
    95.0302     3199.00000
    95.0433     3190.00000
    95.0564     3057.00000
    95.0696     3020.00000
    95.0827     2839.00000
    95.0958     2865.00000
    95.1090     2912.00000
    95.1221     2860.00000
    95.1352     2861.00000
    95.1484     2836.00000
    95.1615     2713.00000
    95.1746     2795.00000
    95.1877     2813.00000
    95.2009     2872.00000
    95.2140     2770.00000
    95.2271     2776.00000
    95.2403     2785.00000
    95.2534     2751.00000
    95.2665     2769.00000
    95.2797     2653.00000
    95.2928     2695.00000
    95.3059     2720.00000
    95.3190     2629.00000
    95.3322     2751.00000
    95.3453     2760.00000
    95.3584     2703.00000
    95.3716     2802.00000
    95.3847     2589.00000
    95.3978     2595.00000
    95.4110     2526.00000
    95.4241     2434.00000
    95.4372     2435.00000
    95.4503     2585.00000
    95.4635     2478.00000
    95.4766     2397.00000
    95.4897     2450.00000
    95.5029     2425.00000
    95.5160     2452.00000
    95.5291     2378.00000
    95.5423     2335.00000
    95.5554     2295.00000
    95.5685     2329.00000
    95.5816     2318.00000
    95.5948     2425.00000
    95.6079     2314.00000
    95.6210     2357.00000
    95.6342     2267.00000
    95.6473     2346.00000
    95.6604     2360.00000
    95.6736     2341.00000
    95.6867     2334.00000
    95.6998     2414.00000
    95.7130     2379.00000
    95.7261     2392.00000
    95.7392     2370.00000
    95.7523     2354.00000
    95.7655     2287.00000
    95.7786     2336.00000
    95.7917     2342.00000
    95.8049     2308.00000
    95.8180     2281.00000
    95.8311     2260.00000
    95.8443     2358.00000
    95.8574     2390.00000
    95.8705     2316.00000
    95.8836     2361.00000
    95.8968     2282.00000
    95.9099     2335.00000
    95.9230     2259.00000
    95.9362     2279.00000
    95.9493     2330.00000
    95.9624     2311.00000
    95.9756     2372.00000
    95.9887     2260.00000
    96.0018     2342.00000
    96.0149     2309.00000
    96.0281     2303.00000
    96.0412     2362.00000
    96.0543     2357.00000
    96.0675     2257.00000
    96.0806     2308.00000
    96.0937     2319.00000
    96.1069     2290.00000
    96.1200     2198.00000
    96.1331     2280.00000
    96.1463     2291.00000
    96.1594     2339.00000
    96.1725     2366.00000
    96.1856     2337.00000
    96.1988     2324.00000
    96.2119     2269.00000
    96.2250     2274.00000
    96.2382     2409.00000
    96.2513     2295.00000
    96.2644     2363.00000
    96.2776     2424.00000
    96.2907     2391.00000
    96.3038     2310.00000
    96.3169     2288.00000
    96.3301     2363.00000
    96.3432     2374.00000
    96.3563     2422.00000
    96.3695     2329.00000
    96.3826     2384.00000
    96.3957     2395.00000
    96.4089     2357.00000
    96.4220     2382.00000
    96.4351     2428.00000
    96.4482     2379.00000
    96.4614     2407.00000
    96.4745     2370.00000
    96.4876     2354.00000
    96.5008     2487.00000
    96.5139     2446.00000
    96.5270     2484.00000
    96.5402     2450.00000
    96.5533     2489.00000
    96.5664     2578.00000
    96.5796     2501.00000
    96.5927     2500.00000
    96.6058     2432.00000
    96.6189     2478.00000
    96.6321     2413.00000
    96.6452     2393.00000
    96.6583     2431.00000
    96.6715     2363.00000
    96.6846     2424.00000
    96.6977     2326.00000
    96.7109     2433.00000
    96.7240     2349.00000
    96.7371     2376.00000
    96.7502     2467.00000
    96.7634     2396.00000
    96.7765     2471.00000
    96.7896     2492.00000
    96.8028     2510.00000
    96.8159     2535.00000
    96.8290     2728.00000
    96.8422     2737.00000
    96.8553     2712.00000
    96.8684     2762.00000
    96.8815     2848.00000
    96.8947     2796.00000
    96.9078     2928.00000
    96.9209     2868.00000
    96.9341     2884.00000
    96.9472     2900.00000
    96.9603     2880.00000
    96.9735     2975.00000
    96.9866     3112.00000
    96.9997     2926.00000
    97.0128     3074.00000
    97.0260     3069.00000
    97.0391     3156.00000
    97.0522     3269.00000
    97.0654     3336.00000
    97.0785     3488.00000
    97.0916     3479.00000
    97.1048     3567.00000
    97.1179     3632.00000
    97.1310     3490.00000
    97.1442     3416.00000
    97.1573     3266.00000
    97.1704     3108.00000
    97.1835     3004.00000
    97.1967     2959.00000
    97.2098     2893.00000
    97.2229     2951.00000
    97.2361     3023.00000
    97.2492     2894.00000
    97.2623     2947.00000
    97.2755     2945.00000
    97.2886     2942.00000
    97.3017     3010.00000
    97.3148     3170.00000
    97.3280     3215.00000
    97.3411     3337.00000
    97.3542     3410.00000
    97.3674     3357.00000
    97.3805     3513.00000
    97.3936     3619.00000
    97.4068     3607.00000
    97.4199     3603.00000
    97.4330     3434.00000
    97.4462     3431.00000
    97.4593     3207.00000
    97.4724     3153.00000
    97.4855     2906.00000
    97.4987     2984.00000
    97.5118     2854.00000
    97.5249     2729.00000
    97.5381     2800.00000
    97.5512     2861.00000
    97.5643     2888.00000
    97.5775     2860.00000
    97.5906     2824.00000
    97.6037     2938.00000
    97.6168     3059.00000
    97.6300     3258.00000
    97.6431     3171.00000
    97.6562     3237.00000
    97.6694     3233.00000
    97.6825     3233.00000
    97.6956     3202.00000
    97.7088     3179.00000
    97.7219     3290.00000
    97.7350     3246.00000
    97.7481     3133.00000
    97.7613     3010.00000
    97.7744     2958.00000
    97.7875     2922.00000
    97.8007     2923.00000
    97.8138     2974.00000
    97.8269     2957.00000
    97.8401     2958.00000
    97.8532     3148.00000
    97.8663     3087.00000
    97.8794     3221.00000
    97.8926     3307.00000
    97.9057     3255.00000
    97.9188     3213.00000
    97.9320     3116.00000
    97.9451     3023.00000
    97.9582     3002.00000
    97.9714     3025.00000
    97.9845     2873.00000
    97.9976     2744.00000
    98.0107     2791.00000
    98.0239     2784.00000
    98.0370     2687.00000
    98.0501     2741.00000
    98.0633     2716.00000
    98.0764     2648.00000
    98.0895     2610.00000
    98.1027     2722.00000
    98.1158     2708.00000
    98.1289     2604.00000
    98.1421     2725.00000
    98.1552     2699.00000
    98.1683     2681.00000
    98.1814     2756.00000
    98.1946     2735.00000
    98.2077     2707.00000
    98.2208     2701.00000
    98.2340     2716.00000
    98.2471     2663.00000
    98.2602     2612.00000
    98.2734     2591.00000
    98.2865     2460.00000
    98.2996     2607.00000
    98.3128     2585.00000
    98.3259     2466.00000
    98.3390     2345.00000
    98.3521     2436.00000
    98.3653     2395.00000
    98.3784     2431.00000
    98.3915     2448.00000
    98.4047     2373.00000
    98.4178     2325.00000
    98.4309     2400.00000
    98.4441     2315.00000
    98.4572     2431.00000
    98.4703     2494.00000
    98.4834     2432.00000
    98.4966     2322.00000
    98.5097     2405.00000
    98.5228     2433.00000
    98.5360     2416.00000
    98.5491     2422.00000
    98.5622     2426.00000
    98.5754     2409.00000
    98.5885     2461.00000
    98.6016     2484.00000
    98.6147     2532.00000
    98.6279     2488.00000
    98.6410     2567.00000
    98.6541     2370.00000
    98.6673     2617.00000
    98.6804     2589.00000
    98.6935     2690.00000
    98.7067     2715.00000
    98.7198     2840.00000
    98.7329     2932.00000
    98.7460     3059.00000
    98.7592     3141.00000
    98.7723     3330.00000
    98.7854     3465.00000
    98.7986     3545.00000
    98.8117     3677.00000
    98.8248     3545.00000
    98.8380     3550.00000
    98.8511     3557.00000
    98.8642     3491.00000
    98.8773     3484.00000
    98.8905     3498.00000
    98.9036     3383.00000
    98.9167     3497.00000
    98.9299     3384.00000
    98.9430     3509.00000
    98.9561     3340.00000
    98.9693     3470.00000
    98.9824     3398.00000
    98.9955     3650.00000
    99.0087     3619.00000
    99.0218     3774.00000
    99.0349     3924.00000
    99.0480     4033.00000
    99.0612     4182.00000
    99.0743     4323.00000
    99.0874     4373.00000
    99.1006     4537.00000
    99.1137     4581.00000
    99.1268     4645.00000
    99.1400     4622.00000
    99.1531     4525.00000
    99.1662     4662.00000
    99.1793     4519.00000
    99.1925     4416.00000
    99.2056     4349.00000
    99.2187     4357.00000
    99.2319     4127.00000
    99.2450     3833.00000
    99.2581     3822.00000
    99.2713     3598.00000
    99.2844     3454.00000
    99.2975     3407.00000
    99.3107     3328.00000
    99.3238     3245.00000
    99.3369     3245.00000
    99.3500     3319.00000
    99.3632     3460.00000
    99.3763     3271.00000
    99.3894     3360.00000
    99.4026     3429.00000
    99.4157     3502.00000
    99.4288     3549.00000
    99.4420     3587.00000
    99.4551     3502.00000
    99.4682     3511.00000
    99.4813     3647.00000
    99.4945     3619.00000
    99.5076     3792.00000
    99.5207     3754.00000
    99.5339     3750.00000
    99.5470     3630.00000
    99.5601     3672.00000
    99.5733     3662.00000
    99.5864     3612.00000
    99.5995     3583.00000
    99.6126     3621.00000
    99.6258     3647.00000
    99.6389     3556.00000
    99.6520     3535.00000
    99.6652     3567.00000
    99.6783     3545.00000
    99.6914     3509.00000
    99.7046     3679.00000
    99.7177     3589.00000
    99.7308     3752.00000
    99.7439     3637.00000
    99.7571     3498.00000
    99.7702     3496.00000
    99.7833     3351.00000
    99.7965     3400.00000
    99.8096     3301.00000
    99.8227     3181.00000
    99.8359     3105.00000
    99.8490     3055.00000
    99.8621     2976.00000
    99.8753     2937.00000
    99.8884     2911.00000
    99.9015     3024.00000
    99.9146     2901.00000
    99.9278     2956.00000
    99.9409     2955.00000
    99.9540     3137.00000
    99.9672     3136.00000
    99.9803     3071.00000
    99.9934     3317.00000
