! Initial file:   D:\ZAKARY_OUAIL\MA_THESE\Deuxième_année_de_thèse\DRX\Affinement_DRX\Fullprof\Thermodiff3-nuit_NaNbO2F2\100°C\NaNbO2F2-Lent_100°C - Copie.xrdml
! Initial format:  58
! WAVE (A):      1.54060     1.54060     1.00000
! REM : data have been multiplied by     1.0000
! X_data : 2 Theta (deg.)                                                                                                                                                                                                                                                  
! Y_data : Intensity (arb. units)                                                                                                                                                                                                                                          
!     X         Y
!--------------------------------------------------------------------------------
    10.0116     7952.00000
    10.0247     7879.00000
    10.0379     8049.00000
    10.0510     7877.00000
    10.0641     7906.00000
    10.0772     7897.00000
    10.0904     8172.00000
    10.1035     8029.00000
    10.1166     7971.00000
    10.1298     8086.00000
    10.1429     8238.00000
    10.1560     8206.00000
    10.1692     8281.00000
    10.1823     8474.00000
    10.1954     8331.00000
    10.2086     8067.00000
    10.2217     8175.00000
    10.2348     8130.00000
    10.2479     8101.00000
    10.2611     7954.00000
    10.2742     8187.00000
    10.2873     8132.00000
    10.3005     7881.00000
    10.3136     8152.00000
    10.3267     8205.00000
    10.3399     8007.00000
    10.3530     8032.00000
    10.3661     7871.00000
    10.3792     7982.00000
    10.3924     8016.00000
    10.4055     8196.00000
    10.4186     8143.00000
    10.4318     7982.00000
    10.4449     8147.00000
    10.4580     7844.00000
    10.4712     7989.00000
    10.4843     7934.00000
    10.4974     7944.00000
    10.5105     7983.00000
    10.5237     8057.00000
    10.5368     8103.00000
    10.5499     8033.00000
    10.5631     8087.00000
    10.5762     8060.00000
    10.5893     8104.00000
    10.6025     7965.00000
    10.6156     7961.00000
    10.6287     7975.00000
    10.6418     7980.00000
    10.6550     7988.00000
    10.6681     8043.00000
    10.6812     8080.00000
    10.6944     7983.00000
    10.7075     7813.00000
    10.7206     8095.00000
    10.7338     8053.00000
    10.7469     8044.00000
    10.7600     8139.00000
    10.7732     8046.00000
    10.7863     8002.00000
    10.7994     7863.00000
    10.8125     7918.00000
    10.8257     8034.00000
    10.8388     8193.00000
    10.8519     8075.00000
    10.8651     8285.00000
    10.8782     8528.00000
    10.8913     8321.00000
    10.9045     8286.00000
    10.9176     8343.00000
    10.9307     8395.00000
    10.9438     8355.00000
    10.9570     8453.00000
    10.9701     8603.00000
    10.9832     8493.00000
    10.9964     8660.00000
    11.0095     8817.00000
    11.0226     8765.00000
    11.0358     8870.00000
    11.0489     9014.00000
    11.0620     9154.00000
    11.0751     9162.00000
    11.0883     9460.00000
    11.1014     9722.00000
    11.1145    10118.00000
    11.1277    10941.00000
    11.1408    11443.00000
    11.1539    12794.00000
    11.1671    14267.00000
    11.1802    16837.00000
    11.1933    20968.00000
    11.2065    27084.00000
    11.2196    37506.00000
    11.2327    51597.00000
    11.2458    67155.00000
    11.2590    78057.00000
    11.2721    78598.00000
    11.2852    70165.00000
    11.2984    54886.00000
    11.3115    39965.00000
    11.3246    27481.00000
    11.3378    18769.00000
    11.3509    13936.00000
    11.3640    11354.00000
    11.3771    10046.00000
    11.3903     9213.00000
    11.4034     9112.00000
    11.4165     8790.00000
    11.4297     8797.00000
    11.4428     8772.00000
    11.4559     8493.00000
    11.4691     8361.00000
    11.4822     8374.00000
    11.4953     8324.00000
    11.5084     8436.00000
    11.5216     8219.00000
    11.5347     8160.00000
    11.5478     7989.00000
    11.5610     8111.00000
    11.5741     8052.00000
    11.5872     8152.00000
    11.6004     7961.00000
    11.6135     8214.00000
    11.6266     7847.00000
    11.6398     8090.00000
    11.6529     7911.00000
    11.6660     8086.00000
    11.6791     8199.00000
    11.6923     8135.00000
    11.7054     8056.00000
    11.7185     8073.00000
    11.7317     8090.00000
    11.7448     8248.00000
    11.7579     8127.00000
    11.7711     8248.00000
    11.7842     8267.00000
    11.7973     8231.00000
    11.8104     8006.00000
    11.8236     8083.00000
    11.8367     8334.00000
    11.8498     8310.00000
    11.8630     8485.00000
    11.8761     8245.00000
    11.8892     8125.00000
    11.9024     8266.00000
    11.9155     8283.00000
    11.9286     8333.00000
    11.9417     8433.00000
    11.9549     8170.00000
    11.9680     8179.00000
    11.9811     8197.00000
    11.9943     8408.00000
    12.0074     8419.00000
    12.0205     8439.00000
    12.0337     8336.00000
    12.0468     8316.00000
    12.0599     8139.00000
    12.0731     8472.00000
    12.0862     8329.00000
    12.0993     8365.00000
    12.1124     8354.00000
    12.1256     8488.00000
    12.1387     8462.00000
    12.1518     8266.00000
    12.1650     8284.00000
    12.1781     8384.00000
    12.1912     8261.00000
    12.2044     8297.00000
    12.2175     8502.00000
    12.2306     8512.00000
    12.2437     8342.00000
    12.2569     8370.00000
    12.2700     8451.00000
    12.2831     8453.00000
    12.2963     8364.00000
    12.3094     8432.00000
    12.3225     8432.00000
    12.3357     8461.00000
    12.3488     8453.00000
    12.3619     8484.00000
    12.3750     8436.00000
    12.3882     8390.00000
    12.4013     8368.00000
    12.4144     8513.00000
    12.4276     8265.00000
    12.4407     8418.00000
    12.4538     8287.00000
    12.4670     8496.00000
    12.4801     8467.00000
    12.4932     8372.00000
    12.5063     8408.00000
    12.5195     8508.00000
    12.5326     8301.00000
    12.5457     8463.00000
    12.5589     8359.00000
    12.5720     8440.00000
    12.5851     8285.00000
    12.5983     8416.00000
    12.6114     8305.00000
    12.6245     8355.00000
    12.6377     8129.00000
    12.6508     8395.00000
    12.6639     8401.00000
    12.6770     8353.00000
    12.6902     8234.00000
    12.7033     8203.00000
    12.7164     8359.00000
    12.7296     8222.00000
    12.7427     8066.00000
    12.7558     8197.00000
    12.7690     8353.00000
    12.7821     8462.00000
    12.7952     8289.00000
    12.8083     8255.00000
    12.8215     8338.00000
    12.8346     8340.00000
    12.8477     8213.00000
    12.8609     8125.00000
    12.8740     8316.00000
    12.8871     8165.00000
    12.9003     8406.00000
    12.9134     8473.00000
    12.9265     8383.00000
    12.9396     8164.00000
    12.9528     8275.00000
    12.9659     8288.00000
    12.9790     8177.00000
    12.9922     8127.00000
    13.0053     8082.00000
    13.0184     8378.00000
    13.0316     8195.00000
    13.0447     8351.00000
    13.0578     8436.00000
    13.0710     8174.00000
    13.0841     8088.00000
    13.0972     8193.00000
    13.1103     8139.00000
    13.1235     8061.00000
    13.1366     8161.00000
    13.1497     8203.00000
    13.1629     8122.00000
    13.1760     8285.00000
    13.1891     8198.00000
    13.2023     8320.00000
    13.2154     8286.00000
    13.2285     8220.00000
    13.2416     8210.00000
    13.2548     8177.00000
    13.2679     8341.00000
    13.2810     8233.00000
    13.2942     8192.00000
    13.3073     8202.00000
    13.3204     8345.00000
    13.3336     8217.00000
    13.3467     8277.00000
    13.3598     8116.00000
    13.3729     8057.00000
    13.3861     8069.00000
    13.3992     8064.00000
    13.4123     7975.00000
    13.4255     8117.00000
    13.4386     8220.00000
    13.4517     7856.00000
    13.4649     8007.00000
    13.4780     7941.00000
    13.4911     8154.00000
    13.5043     8214.00000
    13.5174     8068.00000
    13.5305     7968.00000
    13.5436     8139.00000
    13.5568     8226.00000
    13.5699     8103.00000
    13.5830     8047.00000
    13.5962     8161.00000
    13.6093     8213.00000
    13.6224     8005.00000
    13.6356     8133.00000
    13.6487     8059.00000
    13.6618     8209.00000
    13.6749     8226.00000
    13.6881     8209.00000
    13.7012     8177.00000
    13.7143     8178.00000
    13.7275     8259.00000
    13.7406     8328.00000
    13.7537     8251.00000
    13.7669     8139.00000
    13.7800     8204.00000
    13.7931     8145.00000
    13.8062     8111.00000
    13.8194     8188.00000
    13.8325     8136.00000
    13.8456     8293.00000
    13.8588     7990.00000
    13.8719     7967.00000
    13.8850     8120.00000
    13.8982     7953.00000
    13.9113     8108.00000
    13.9244     8247.00000
    13.9376     7972.00000
    13.9507     8025.00000
    13.9638     8013.00000
    13.9769     8024.00000
    13.9901     8076.00000
    14.0032     8088.00000
    14.0163     8159.00000
    14.0295     8108.00000
    14.0426     8085.00000
    14.0557     8091.00000
    14.0689     8101.00000
    14.0820     7933.00000
    14.0951     8234.00000
    14.1082     8105.00000
    14.1214     8206.00000
    14.1345     8103.00000
    14.1476     8187.00000
    14.1608     8078.00000
    14.1739     8051.00000
    14.1870     7992.00000
    14.2002     8308.00000
    14.2133     8282.00000
    14.2264     8059.00000
    14.2395     8097.00000
    14.2527     8170.00000
    14.2658     8159.00000
    14.2789     8196.00000
    14.2921     7972.00000
    14.3052     8006.00000
    14.3183     8140.00000
    14.3315     7935.00000
    14.3446     7985.00000
    14.3577     8260.00000
    14.3708     8309.00000
    14.3840     8095.00000
    14.3971     7959.00000
    14.4102     8138.00000
    14.4234     8286.00000
    14.4365     8149.00000
    14.4496     8518.00000
    14.4628     8458.00000
    14.4759     8888.00000
    14.4890     9140.00000
    14.5022     9379.00000
    14.5153     9605.00000
    14.5284     9730.00000
    14.5415     9536.00000
    14.5547     9613.00000
    14.5678     9229.00000
    14.5809     9198.00000
    14.5941     8854.00000
    14.6072     8622.00000
    14.6203     8383.00000
    14.6335     8270.00000
    14.6466     8081.00000
    14.6597     8074.00000
    14.6728     8098.00000
    14.6860     8010.00000
    14.6991     8311.00000
    14.7122     8106.00000
    14.7254     7987.00000
    14.7385     8048.00000
    14.7516     8100.00000
    14.7648     7910.00000
    14.7779     7950.00000
    14.7910     7926.00000
    14.8041     7785.00000
    14.8173     7926.00000
    14.8304     8019.00000
    14.8435     8055.00000
    14.8567     8015.00000
    14.8698     7993.00000
    14.8829     8106.00000
    14.8961     8168.00000
    14.9092     7854.00000
    14.9223     7810.00000
    14.9355     7806.00000
    14.9486     8081.00000
    14.9617     7858.00000
    14.9748     7797.00000
    14.9880     7986.00000
    15.0011     8052.00000
    15.0142     8025.00000
    15.0274     8067.00000
    15.0405     7901.00000
    15.0536     8082.00000
    15.0668     7767.00000
    15.0799     7977.00000
    15.0930     7928.00000
    15.1061     7805.00000
    15.1193     7585.00000
    15.1324     7755.00000
    15.1455     7878.00000
    15.1587     7822.00000
    15.1718     7953.00000
    15.1849     7939.00000
    15.1981     7828.00000
    15.2112     8065.00000
    15.2243     7899.00000
    15.2374     8063.00000
    15.2506     7897.00000
    15.2637     7915.00000
    15.2768     8053.00000
    15.2900     7861.00000
    15.3031     7883.00000
    15.3162     7869.00000
    15.3294     7686.00000
    15.3425     7831.00000
    15.3556     8060.00000
    15.3688     7879.00000
    15.3819     8001.00000
    15.3950     8015.00000
    15.4081     7869.00000
    15.4213     7961.00000
    15.4344     8010.00000
    15.4475     7796.00000
    15.4607     7908.00000
    15.4738     7925.00000
    15.4869     7851.00000
    15.5001     7874.00000
    15.5132     7889.00000
    15.5263     7789.00000
    15.5394     7728.00000
    15.5526     7855.00000
    15.5657     7600.00000
    15.5788     7814.00000
    15.5920     7734.00000
    15.6051     7883.00000
    15.6182     7903.00000
    15.6314     7919.00000
    15.6445     7917.00000
    15.6576     7794.00000
    15.6707     7849.00000
    15.6839     7869.00000
    15.6970     7863.00000
    15.7101     7769.00000
    15.7233     7737.00000
    15.7364     7911.00000
    15.7495     7849.00000
    15.7627     7925.00000
    15.7758     7873.00000
    15.7889     7846.00000
    15.8021     7853.00000
    15.8152     8033.00000
    15.8283     7803.00000
    15.8414     7900.00000
    15.8546     7635.00000
    15.8677     7726.00000
    15.8808     7821.00000
    15.8940     7798.00000
    15.9071     7624.00000
    15.9202     7763.00000
    15.9334     7813.00000
    15.9465     7688.00000
    15.9596     7700.00000
    15.9727     7815.00000
    15.9859     8007.00000
    15.9990     7929.00000
    16.0121     7848.00000
    16.0253     7761.00000
    16.0384     8064.00000
    16.0515     8032.00000
    16.0647     7917.00000
    16.0778     7779.00000
    16.0909     7773.00000
    16.1040     8053.00000
    16.1172     7910.00000
    16.1303     7826.00000
    16.1434     7790.00000
    16.1566     7915.00000
    16.1697     7861.00000
    16.1828     7862.00000
    16.1960     7619.00000
    16.2091     7742.00000
    16.2222     7871.00000
    16.2353     7893.00000
    16.2485     7743.00000
    16.2616     7560.00000
    16.2747     7798.00000
    16.2879     7822.00000
    16.3010     7698.00000
    16.3141     7702.00000
    16.3273     7680.00000
    16.3404     7723.00000
    16.3535     7750.00000
    16.3667     7823.00000
    16.3798     7888.00000
    16.3929     7905.00000
    16.4060     7667.00000
    16.4192     7679.00000
    16.4323     7883.00000
    16.4454     7753.00000
    16.4586     7766.00000
    16.4717     7692.00000
    16.4848     7909.00000
    16.4980     7917.00000
    16.5111     7898.00000
    16.5242     7859.00000
    16.5373     7804.00000
    16.5505     7846.00000
    16.5636     7765.00000
    16.5767     7552.00000
    16.5899     7690.00000
    16.6030     7617.00000
    16.6161     7776.00000
    16.6293     7861.00000
    16.6424     7668.00000
    16.6555     7798.00000
    16.6686     7836.00000
    16.6818     7754.00000
    16.6949     7767.00000
    16.7080     7773.00000
    16.7212     7836.00000
    16.7343     7703.00000
    16.7474     8067.00000
    16.7606     7963.00000
    16.7737     8007.00000
    16.7868     8034.00000
    16.8000     8417.00000
    16.8131     8177.00000
    16.8262     8123.00000
    16.8393     8060.00000
    16.8525     7955.00000
    16.8656     7847.00000
    16.8787     7895.00000
    16.8919     7837.00000
    16.9050     7733.00000
    16.9181     7878.00000
    16.9313     7703.00000
    16.9444     7640.00000
    16.9575     7731.00000
    16.9706     7621.00000
    16.9838     7859.00000
    16.9969     7772.00000
    17.0100     7544.00000
    17.0232     7580.00000
    17.0363     7438.00000
    17.0494     7643.00000
    17.0626     7527.00000
    17.0757     7558.00000
    17.0888     7711.00000
    17.1019     7760.00000
    17.1151     7849.00000
    17.1282     7592.00000
    17.1413     7646.00000
    17.1545     7648.00000
    17.1676     7668.00000
    17.1807     7624.00000
    17.1939     7716.00000
    17.2070     7539.00000
    17.2201     7742.00000
    17.2333     7696.00000
    17.2464     7793.00000
    17.2595     7662.00000
    17.2726     7422.00000
    17.2858     7489.00000
    17.2989     7693.00000
    17.3120     7525.00000
    17.3252     7599.00000
    17.3383     7453.00000
    17.3514     7475.00000
    17.3646     7678.00000
    17.3777     7631.00000
    17.3908     7643.00000
    17.4039     7557.00000
    17.4171     7413.00000
    17.4302     7462.00000
    17.4433     7443.00000
    17.4565     7717.00000
    17.4696     7526.00000
    17.4827     7686.00000
    17.4959     7679.00000
    17.5090     7417.00000
    17.5221     7450.00000
    17.5352     7631.00000
    17.5484     7672.00000
    17.5615     7668.00000
    17.5746     7607.00000
    17.5878     7607.00000
    17.6009     7644.00000
    17.6140     7558.00000
    17.6272     7517.00000
    17.6403     7506.00000
    17.6534     7584.00000
    17.6666     7406.00000
    17.6797     7599.00000
    17.6928     7515.00000
    17.7059     7525.00000
    17.7191     7569.00000
    17.7322     7530.00000
    17.7453     7506.00000
    17.7585     7555.00000
    17.7716     7580.00000
    17.7847     7568.00000
    17.7979     7617.00000
    17.8110     7429.00000
    17.8241     7373.00000
    17.8372     7532.00000
    17.8504     7575.00000
    17.8635     7458.00000
    17.8766     7530.00000
    17.8898     7477.00000
    17.9029     7621.00000
    17.9160     7877.00000
    17.9292     7600.00000
    17.9423     7687.00000
    17.9554     7710.00000
    17.9685     7809.00000
    17.9817     7836.00000
    17.9948     7593.00000
    18.0079     7545.00000
    18.0211     7456.00000
    18.0342     7422.00000
    18.0473     7513.00000
    18.0605     7457.00000
    18.0736     7457.00000
    18.0867     7310.00000
    18.0998     7359.00000
    18.1130     7427.00000
    18.1261     7468.00000
    18.1392     7380.00000
    18.1524     7326.00000
    18.1655     7420.00000
    18.1786     7385.00000
    18.1918     7411.00000
    18.2049     7493.00000
    18.2180     7386.00000
    18.2312     7459.00000
    18.2443     7368.00000
    18.2574     7484.00000
    18.2705     7597.00000
    18.2837     7433.00000
    18.2968     7469.00000
    18.3099     7335.00000
    18.3231     7273.00000
    18.3362     7269.00000
    18.3493     7421.00000
    18.3625     7353.00000
    18.3756     7511.00000
    18.3887     7289.00000
    18.4018     7372.00000
    18.4150     7469.00000
    18.4281     7398.00000
    18.4412     7485.00000
    18.4544     7301.00000
    18.4675     7212.00000
    18.4806     7298.00000
    18.4938     7442.00000
    18.5069     7198.00000
    18.5200     7483.00000
    18.5331     7445.00000
    18.5463     7449.00000
    18.5594     7424.00000
    18.5725     7410.00000
    18.5857     7249.00000
    18.5988     7392.00000
    18.6119     7305.00000
    18.6251     7275.00000
    18.6382     7311.00000
    18.6513     7279.00000
    18.6645     7428.00000
    18.6776     7308.00000
    18.6907     7407.00000
    18.7038     7534.00000
    18.7170     7511.00000
    18.7301     7385.00000
    18.7432     7295.00000
    18.7564     7539.00000
    18.7695     7228.00000
    18.7826     7397.00000
    18.7958     7527.00000
    18.8089     7301.00000
    18.8220     7309.00000
    18.8351     7230.00000
    18.8483     7449.00000
    18.8614     7323.00000
    18.8745     7298.00000
    18.8877     7330.00000
    18.9008     7197.00000
    18.9139     7305.00000
    18.9271     7392.00000
    18.9402     7327.00000
    18.9533     7425.00000
    18.9664     7341.00000
    18.9796     7249.00000
    18.9927     7288.00000
    19.0058     7213.00000
    19.0190     7485.00000
    19.0321     7347.00000
    19.0452     7248.00000
    19.0584     7306.00000
    19.0715     7348.00000
    19.0846     7278.00000
    19.0978     7256.00000
    19.1109     7372.00000
    19.1240     7280.00000
    19.1371     7433.00000
    19.1503     7541.00000
    19.1634     7527.00000
    19.1765     7359.00000
    19.1897     7435.00000
    19.2028     7592.00000
    19.2159     7927.00000
    19.2291     7603.00000
    19.2422     7859.00000
    19.2553     7745.00000
    19.2684     7723.00000
    19.2816     7660.00000
    19.2947     7711.00000
    19.3078     7679.00000
    19.3210     7845.00000
    19.3341     7868.00000
    19.3472     7781.00000
    19.3604     7617.00000
    19.3735     7723.00000
    19.3866     7889.00000
    19.3997     7679.00000
    19.4129     7522.00000
    19.4260     7534.00000
    19.4391     7831.00000
    19.4523     7765.00000
    19.4654     7718.00000
    19.4785     7857.00000
    19.4917     7792.00000
    19.5048     7571.00000
    19.5179     7665.00000
    19.5311     7810.00000
    19.5442     7705.00000
    19.5573     7844.00000
    19.5704     8044.00000
    19.5836     7955.00000
    19.5967     8052.00000
    19.6098     8086.00000
    19.6230     8128.00000
    19.6361     8275.00000
    19.6492     8327.00000
    19.6624     8416.00000
    19.6755     8460.00000
    19.6886     8793.00000
    19.7017     8910.00000
    19.7149     9050.00000
    19.7280     9274.00000
    19.7411     9717.00000
    19.7543    10348.00000
    19.7674    11338.00000
    19.7805    12665.00000
    19.7937    14955.00000
    19.8068    18319.00000
    19.8199    23710.00000
    19.8330    32553.00000
    19.8462    45659.00000
    19.8593    60912.00000
    19.8724    76834.00000
    19.8856    90441.00000
    19.8987    92531.00000
    19.9118    84792.00000
    19.9250    74732.00000
    19.9381    64376.00000
    19.9512    51212.00000
    19.9643    38628.00000
    19.9775    27591.00000
    19.9906    20417.00000
    20.0037    15084.00000
    20.0169    12461.00000
    20.0300    10889.00000
    20.0431     9888.00000
    20.0563     9504.00000
    20.0694     9139.00000
    20.0825     8884.00000
    20.0957     8920.00000
    20.1088     8622.00000
    20.1219     8396.00000
    20.1350     8199.00000
    20.1482     8133.00000
    20.1613     8196.00000
    20.1744     8054.00000
    20.1876     8017.00000
    20.2007     8137.00000
    20.2138     8000.00000
    20.2270     8014.00000
    20.2401     8007.00000
    20.2532     7923.00000
    20.2663     7989.00000
    20.2795     7771.00000
    20.2926     7768.00000
    20.3057     7628.00000
    20.3189     7627.00000
    20.3320     7653.00000
    20.3451     7829.00000
    20.3583     7705.00000
    20.3714     7760.00000
    20.3845     7796.00000
    20.3976     7677.00000
    20.4108     7567.00000
    20.4239     7574.00000
    20.4370     7643.00000
    20.4502     7633.00000
    20.4633     7665.00000
    20.4764     7659.00000
    20.4896     7601.00000
    20.5027     7596.00000
    20.5158     7596.00000
    20.5290     7626.00000
    20.5421     7488.00000
    20.5552     7483.00000
    20.5683     7508.00000
    20.5815     7408.00000
    20.5946     7460.00000
    20.6077     7611.00000
    20.6209     7614.00000
    20.6340     7489.00000
    20.6471     7493.00000
    20.6603     7588.00000
    20.6734     7421.00000
    20.6865     7605.00000
    20.6996     7776.00000
    20.7128     7512.00000
    20.7259     7429.00000
    20.7390     7432.00000
    20.7522     7655.00000
    20.7653     7599.00000
    20.7784     7583.00000
    20.7916     7597.00000
    20.8047     7420.00000
    20.8178     7480.00000
    20.8309     7643.00000
    20.8441     7607.00000
    20.8572     7585.00000
    20.8703     7549.00000
    20.8835     7598.00000
    20.8966     7649.00000
    20.9097     7564.00000
    20.9229     7640.00000
    20.9360     7439.00000
    20.9491     7559.00000
    20.9623     7398.00000
    20.9754     7442.00000
    20.9885     7512.00000
    21.0016     7351.00000
    21.0148     7527.00000
    21.0279     7582.00000
    21.0410     7550.00000
    21.0542     7430.00000
    21.0673     7472.00000
    21.0804     7295.00000
    21.0936     7492.00000
    21.1067     7644.00000
    21.1198     7550.00000
    21.1329     7426.00000
    21.1461     7459.00000
    21.1592     7414.00000
    21.1723     7462.00000
    21.1855     7477.00000
    21.1986     7538.00000
    21.2117     7426.00000
    21.2249     7409.00000
    21.2380     7390.00000
    21.2511     7594.00000
    21.2642     7512.00000
    21.2774     7509.00000
    21.2905     7363.00000
    21.3036     7701.00000
    21.3168     7751.00000
    21.3299     7563.00000
    21.3430     7532.00000
    21.3562     7556.00000
    21.3693     7519.00000
    21.3824     7466.00000
    21.3956     7550.00000
    21.4087     7543.00000
    21.4218     7629.00000
    21.4349     7613.00000
    21.4481     7667.00000
    21.4612     7572.00000
    21.4743     7500.00000
    21.4875     7472.00000
    21.5006     7673.00000
    21.5137     7528.00000
    21.5269     7549.00000
    21.5400     7346.00000
    21.5531     7410.00000
    21.5662     7470.00000
    21.5794     7454.00000
    21.5925     7430.00000
    21.6056     7685.00000
    21.6188     7552.00000
    21.6319     7679.00000
    21.6450     7542.00000
    21.6582     7522.00000
    21.6713     7722.00000
    21.6844     7486.00000
    21.6975     7511.00000
    21.7107     7451.00000
    21.7238     7437.00000
    21.7369     7392.00000
    21.7501     7614.00000
    21.7632     7551.00000
    21.7763     7447.00000
    21.7895     7603.00000
    21.8026     7452.00000
    21.8157     7726.00000
    21.8288     7619.00000
    21.8420     7592.00000
    21.8551     7481.00000
    21.8682     7442.00000
    21.8814     7444.00000
    21.8945     7502.00000
    21.9076     7610.00000
    21.9208     7538.00000
    21.9339     7698.00000
    21.9470     7686.00000
    21.9602     7843.00000
    21.9733     7691.00000
    21.9864     7737.00000
    21.9995     7609.00000
    22.0127     7716.00000
    22.0258     7488.00000
    22.0389     7585.00000
    22.0521     7606.00000
    22.0652     7586.00000
    22.0783     7491.00000
    22.0915     7385.00000
    22.1046     7339.00000
    22.1177     7385.00000
    22.1308     7358.00000
    22.1440     7533.00000
    22.1571     7429.00000
    22.1702     7401.00000
    22.1834     7425.00000
    22.1965     7557.00000
    22.2096     7511.00000
    22.2228     7545.00000
    22.2359     7638.00000
    22.2490     7511.00000
    22.2621     7494.00000
    22.2753     7446.00000
    22.2884     7490.00000
    22.3015     7519.00000
    22.3147     7434.00000
    22.3278     7677.00000
    22.3409     7739.00000
    22.3541     7485.00000
    22.3672     7516.00000
    22.3803     7645.00000
    22.3935     7489.00000
    22.4066     7556.00000
    22.4197     7635.00000
    22.4328     7761.00000
    22.4460     7866.00000
    22.4591     7879.00000
    22.4722     7871.00000
    22.4854     7953.00000
    22.4985     8082.00000
    22.5116     8390.00000
    22.5248     8457.00000
    22.5379     9043.00000
    22.5510     9248.00000
    22.5641    10093.00000
    22.5773    11548.00000
    22.5904    14460.00000
    22.6035    18622.00000
    22.6167    25212.00000
    22.6298    31018.00000
    22.6429    33875.00000
    22.6561    32936.00000
    22.6692    30177.00000
    22.6823    27046.00000
    22.6954    24764.00000
    22.7086    21358.00000
    22.7217    17913.00000
    22.7348    14312.00000
    22.7480    11601.00000
    22.7611     9773.00000
    22.7742     8832.00000
    22.7874     8198.00000
    22.8005     8316.00000
    22.8136     8033.00000
    22.8268     7874.00000
    22.8399     7955.00000
    22.8530     7811.00000
    22.8661     7760.00000
    22.8793     7679.00000
    22.8924     7554.00000
    22.9055     7732.00000
    22.9187     7527.00000
    22.9318     7449.00000
    22.9449     7593.00000
    22.9581     7503.00000
    22.9712     7554.00000
    22.9843     7580.00000
    22.9974     7551.00000
    23.0106     7522.00000
    23.0237     7560.00000
    23.0368     7572.00000
    23.0500     7479.00000
    23.0631     7588.00000
    23.0762     7477.00000
    23.0894     7585.00000
    23.1025     7525.00000
    23.1156     7644.00000
    23.1287     7606.00000
    23.1419     7412.00000
    23.1550     7670.00000
    23.1681     7477.00000
    23.1813     7398.00000
    23.1944     7436.00000
    23.2075     7579.00000
    23.2207     7596.00000
    23.2338     7434.00000
    23.2469     7438.00000
    23.2601     7627.00000
    23.2732     7638.00000
    23.2863     7561.00000
    23.2994     7560.00000
    23.3126     7592.00000
    23.3257     7441.00000
    23.3388     7773.00000
    23.3520     7563.00000
    23.3651     7543.00000
    23.3782     7634.00000
    23.3914     7538.00000
    23.4045     7437.00000
    23.4176     7765.00000
    23.4307     7763.00000
    23.4439     7614.00000
    23.4570     7749.00000
    23.4701     7443.00000
    23.4833     7724.00000
    23.4964     7641.00000
    23.5095     7583.00000
    23.5227     7393.00000
    23.5358     7534.00000
    23.5489     7684.00000
    23.5620     7770.00000
    23.5752     7622.00000
    23.5883     7644.00000
    23.6014     7678.00000
    23.6146     7831.00000
    23.6277     7858.00000
    23.6408     7698.00000
    23.6540     7867.00000
    23.6671     7934.00000
    23.6802     8059.00000
    23.6933     8204.00000
    23.7065     8328.00000
    23.7196     8702.00000
    23.7327     8883.00000
    23.7459     9707.00000
    23.7590    11629.00000
    23.7721    14272.00000
    23.7853    18068.00000
    23.7984    23892.00000
    23.8115    28755.00000
    23.8247    29961.00000
    23.8378    28019.00000
    23.8509    25553.00000
    23.8640    23737.00000
    23.8772    21908.00000
    23.8903    19113.00000
    23.9034    16338.00000
    23.9166    13692.00000
    23.9297    11434.00000
    23.9428     9718.00000
    23.9560     9314.00000
    23.9691     8748.00000
    23.9822     8473.00000
    23.9953     8618.00000
    24.0085     8682.00000
    24.0216     8940.00000
    24.0347     8901.00000
    24.0479     9132.00000
    24.0610     9425.00000
    24.0741    10230.00000
    24.0873    11402.00000
    24.1004    14184.00000
    24.1135    18754.00000
    24.1266    25438.00000
    24.1398    32649.00000
    24.1529    37332.00000
    24.1660    35873.00000
    24.1792    31186.00000
    24.1923    28561.00000
    24.2054    27203.00000
    24.2186    24484.00000
    24.2317    20662.00000
    24.2448    16125.00000
    24.2580    13236.00000
    24.2711    10842.00000
    24.2842     9366.00000
    24.2973     8743.00000
    24.3105     8515.00000
    24.3236     8288.00000
    24.3367     8219.00000
    24.3499     8037.00000
    24.3630     7997.00000
    24.3761     8145.00000
    24.3893     8059.00000
    24.4024     8184.00000
    24.4155     8033.00000
    24.4286     8064.00000
    24.4418     8043.00000
    24.4549     8056.00000
    24.4680     7789.00000
    24.4812     7695.00000
    24.4943     7668.00000
    24.5074     7786.00000
    24.5206     7703.00000
    24.5337     7637.00000
    24.5468     7576.00000
    24.5599     7503.00000
    24.5731     7537.00000
    24.5862     7637.00000
    24.5993     7484.00000
    24.6125     7474.00000
    24.6256     7378.00000
    24.6387     7463.00000
    24.6519     7546.00000
    24.6650     7605.00000
    24.6781     7568.00000
    24.6913     7531.00000
    24.7044     7430.00000
    24.7175     7537.00000
    24.7306     7562.00000
    24.7438     7503.00000
    24.7569     7550.00000
    24.7700     7589.00000
    24.7832     7417.00000
    24.7963     7418.00000
    24.8094     7435.00000
    24.8226     7434.00000
    24.8357     7591.00000
    24.8488     7307.00000
    24.8619     7469.00000
    24.8751     7525.00000
    24.8882     7285.00000
    24.9013     7488.00000
    24.9145     7486.00000
    24.9276     7329.00000
    24.9407     7325.00000
    24.9539     7349.00000
    24.9670     7245.00000
    24.9801     7292.00000
    24.9932     7430.00000
    25.0064     7326.00000
    25.0195     7475.00000
    25.0326     7399.00000
    25.0458     7399.00000
    25.0589     7550.00000
    25.0720     7344.00000
    25.0852     7316.00000
    25.0983     7335.00000
    25.1114     7463.00000
    25.1246     7499.00000
    25.1377     7609.00000
    25.1508     7425.00000
    25.1639     7535.00000
    25.1771     7418.00000
    25.1902     7539.00000
    25.2033     7360.00000
    25.2165     7248.00000
    25.2296     7577.00000
    25.2427     7355.00000
    25.2559     7527.00000
    25.2690     7661.00000
    25.2821     7583.00000
    25.2952     7681.00000
    25.3084     7748.00000
    25.3215     7487.00000
    25.3346     7465.00000
    25.3478     7574.00000
    25.3609     7429.00000
    25.3740     7168.00000
    25.3872     7375.00000
    25.4003     7118.00000
    25.4134     7367.00000
    25.4265     7372.00000
    25.4397     7283.00000
    25.4528     7259.00000
    25.4659     7455.00000
    25.4791     7416.00000
    25.4922     7378.00000
    25.5053     7411.00000
    25.5185     7471.00000
    25.5316     7447.00000
    25.5447     7438.00000
    25.5579     7311.00000
    25.5710     7150.00000
    25.5841     7262.00000
    25.5972     7383.00000
    25.6104     7241.00000
    25.6235     7476.00000
    25.6366     7260.00000
    25.6498     7183.00000
    25.6629     7438.00000
    25.6760     7237.00000
    25.6892     7378.00000
    25.7023     7237.00000
    25.7154     7363.00000
    25.7285     7445.00000
    25.7417     7418.00000
    25.7548     7312.00000
    25.7679     7406.00000
    25.7811     7360.00000
    25.7942     7317.00000
    25.8073     7442.00000
    25.8205     7488.00000
    25.8336     7202.00000
    25.8467     7398.00000
    25.8598     7337.00000
    25.8730     7423.00000
    25.8861     7266.00000
    25.8992     7209.00000
    25.9124     7336.00000
    25.9255     7424.00000
    25.9386     7361.00000
    25.9518     7291.00000
    25.9649     7465.00000
    25.9780     7339.00000
    25.9911     7310.00000
    26.0043     7403.00000
    26.0174     7818.00000
    26.0305     7441.00000
    26.0437     7451.00000
    26.0568     7439.00000
    26.0699     7370.00000
    26.0831     7355.00000
    26.0962     7530.00000
    26.1093     7223.00000
    26.1225     7385.00000
    26.1356     7381.00000
    26.1487     7428.00000
    26.1618     7515.00000
    26.1750     7360.00000
    26.1881     7330.00000
    26.2012     7430.00000
    26.2144     7204.00000
    26.2275     7298.00000
    26.2406     7457.00000
    26.2538     7296.00000
    26.2669     7137.00000
    26.2800     7288.00000
    26.2931     7299.00000
    26.3063     7296.00000
    26.3194     7260.00000
    26.3325     7301.00000
    26.3457     7171.00000
    26.3588     7355.00000
    26.3719     7344.00000
    26.3851     7436.00000
    26.3982     7207.00000
    26.4113     7359.00000
    26.4244     7306.00000
    26.4376     7248.00000
    26.4507     7088.00000
    26.4638     7220.00000
    26.4770     7290.00000
    26.4901     7180.00000
    26.5032     7208.00000
    26.5164     7120.00000
    26.5295     7075.00000
    26.5426     7185.00000
    26.5558     7165.00000
    26.5689     7153.00000
    26.5820     7143.00000
    26.5951     7296.00000
    26.6083     7148.00000
    26.6214     7204.00000
    26.6345     7055.00000
    26.6477     6996.00000
    26.6608     7162.00000
    26.6739     7054.00000
    26.6871     7020.00000
    26.7002     7006.00000
    26.7133     7173.00000
    26.7264     7071.00000
    26.7396     7186.00000
    26.7527     7182.00000
    26.7658     7274.00000
    26.7790     7055.00000
    26.7921     7167.00000
    26.8052     7136.00000
    26.8184     7271.00000
    26.8315     7295.00000
    26.8446     7089.00000
    26.8577     7302.00000
    26.8709     7197.00000
    26.8840     7082.00000
    26.8971     7019.00000
    26.9103     7310.00000
    26.9234     7090.00000
    26.9365     7200.00000
    26.9497     7257.00000
    26.9628     7007.00000
    26.9759     7237.00000
    26.9891     7173.00000
    27.0022     7167.00000
    27.0153     7333.00000
    27.0284     7197.00000
    27.0416     7317.00000
    27.0547     7380.00000
    27.0678     7366.00000
    27.0810     7514.00000
    27.0941     7570.00000
    27.1072     7388.00000
    27.1204     7488.00000
    27.1335     7461.00000
    27.1466     7572.00000
    27.1597     7562.00000
    27.1729     7378.00000
    27.1860     7491.00000
    27.1991     7437.00000
    27.2123     7527.00000
    27.2254     7318.00000
    27.2385     7547.00000
    27.2517     7500.00000
    27.2648     7245.00000
    27.2779     7291.00000
    27.2910     7271.00000
    27.3042     7392.00000
    27.3173     7458.00000
    27.3304     7577.00000
    27.3436     7544.00000
    27.3567     7501.00000
    27.3698     7405.00000
    27.3830     7348.00000
    27.3961     7303.00000
    27.4092     7378.00000
    27.4224     7393.00000
    27.4355     7456.00000
    27.4486     7312.00000
    27.4617     7447.00000
    27.4749     7409.00000
    27.4880     7537.00000
    27.5011     7459.00000
    27.5143     7620.00000
    27.5274     7488.00000
    27.5405     7493.00000
    27.5537     7571.00000
    27.5668     7499.00000
    27.5799     7612.00000
    27.5930     7609.00000
    27.6062     7300.00000
    27.6193     7273.00000
    27.6324     7555.00000
    27.6456     7459.00000
    27.6587     7416.00000
    27.6718     7527.00000
    27.6850     7531.00000
    27.6981     7523.00000
    27.7112     7825.00000
    27.7243     7943.00000
    27.7375     7933.00000
    27.7506     8112.00000
    27.7637     8143.00000
    27.7769     8066.00000
    27.7900     8315.00000
    27.8031     8606.00000
    27.8163     8940.00000
    27.8294     8796.00000
    27.8425     9020.00000
    27.8556     9144.00000
    27.8688     9357.00000
    27.8819     9756.00000
    27.8950    10218.00000
    27.9082    10819.00000
    27.9213    11514.00000
    27.9344    12328.00000
    27.9476    13890.00000
    27.9607    16258.00000
    27.9738    20345.00000
    27.9870    26277.00000
    28.0001    36186.00000
    28.0132    50203.00000
    28.0263    67128.00000
    28.0395    81905.00000
    28.0526    88203.00000
    28.0657    84242.00000
    28.0789    76234.00000
    28.0920    67249.00000
    28.1051    61892.00000
    28.1183    56877.00000
    28.1314    50529.00000
    28.1445    41817.00000
    28.1576    32264.00000
    28.1708    24329.00000
    28.1839    18106.00000
    28.1970    14664.00000
    28.2102    12450.00000
    28.2233    11344.00000
    28.2364    10420.00000
    28.2496     9741.00000
    28.2627     9541.00000
    28.2758     9159.00000
    28.2889     9010.00000
    28.3021     8833.00000
    28.3152     8454.00000
    28.3283     8269.00000
    28.3415     8174.00000
    28.3546     8102.00000
    28.3677     7863.00000
    28.3809     7834.00000
    28.3940     8049.00000
    28.4071     7734.00000
    28.4203     7815.00000
    28.4334     7766.00000
    28.4465     7912.00000
    28.4596     7966.00000
    28.4728     8159.00000
    28.4859     8187.00000
    28.4990     8535.00000
    28.5122     8681.00000
    28.5253     8796.00000
    28.5384     8761.00000
    28.5516     8818.00000
    28.5647     8417.00000
    28.5778     8624.00000
    28.5909     8430.00000
    28.6041     8486.00000
    28.6172     8093.00000
    28.6303     7949.00000
    28.6435     7918.00000
    28.6566     7783.00000
    28.6697     7852.00000
    28.6829     7728.00000
    28.6960     7685.00000
    28.7091     7549.00000
    28.7222     7579.00000
    28.7354     7642.00000
    28.7485     7547.00000
    28.7616     7617.00000
    28.7748     7543.00000
    28.7879     7565.00000
    28.8010     7656.00000
    28.8142     7921.00000
    28.8273     7784.00000
    28.8404     7921.00000
    28.8536     8028.00000
    28.8667     8082.00000
    28.8798     8220.00000
    28.8929     8358.00000
    28.9061     8628.00000
    28.9192     8863.00000
    28.9323     9432.00000
    28.9455    10344.00000
    28.9586    12271.00000
    28.9717    15665.00000
    28.9849    21866.00000
    28.9980    30544.00000
    29.0111    38903.00000
    29.0242    40885.00000
    29.0374    36023.00000
    29.0505    30081.00000
    29.0636    26654.00000
    29.0768    26176.00000
    29.0899    25995.00000
    29.1030    24409.00000
    29.1162    20137.00000
    29.1293    15962.00000
    29.1424    12678.00000
    29.1555    10821.00000
    29.1687     9454.00000
    29.1818     9139.00000
    29.1949     8762.00000
    29.2081     8889.00000
    29.2212     8999.00000
    29.2343     9064.00000
    29.2475     9776.00000
    29.2606    10421.00000
    29.2737    11520.00000
    29.2869    12723.00000
    29.3000    13781.00000
    29.3131    14266.00000
    29.3262    14723.00000
    29.3394    15376.00000
    29.3525    16004.00000
    29.3656    16806.00000
    29.3788    16216.00000
    29.3919    14672.00000
    29.4050    13214.00000
    29.4182    12245.00000
    29.4313    11471.00000
    29.4444    11092.00000
    29.4575    10478.00000
    29.4707     9504.00000
    29.4838     8730.00000
    29.4969     8226.00000
    29.5101     7831.00000
    29.5232     7754.00000
    29.5363     7850.00000
    29.5495     7673.00000
    29.5626     7374.00000
    29.5757     7385.00000
    29.5888     7460.00000
    29.6020     7375.00000
    29.6151     7304.00000
    29.6282     7393.00000
    29.6414     7253.00000
    29.6545     7200.00000
    29.6676     7183.00000
    29.6808     7281.00000
    29.6939     7062.00000
    29.7070     7069.00000
    29.7201     7243.00000
    29.7333     7350.00000
    29.7464     7507.00000
    29.7595     7347.00000
    29.7727     7123.00000
    29.7858     7241.00000
    29.7989     7271.00000
    29.8121     7240.00000
    29.8252     7315.00000
    29.8383     7211.00000
    29.8515     7230.00000
    29.8646     7276.00000
    29.8777     6994.00000
    29.8908     7150.00000
    29.9040     7076.00000
    29.9171     7207.00000
    29.9302     7058.00000
    29.9434     7036.00000
    29.9565     7065.00000
    29.9696     7142.00000
    29.9828     7153.00000
    29.9959     6977.00000
    30.0090     7048.00000
    30.0221     7064.00000
    30.0353     7131.00000
    30.0484     7308.00000
    30.0615     7242.00000
    30.0747     7035.00000
    30.0878     7049.00000
    30.1009     7069.00000
    30.1141     7059.00000
    30.1272     6933.00000
    30.1403     7091.00000
    30.1535     6844.00000
    30.1666     6931.00000
    30.1797     7069.00000
    30.1928     7069.00000
    30.2060     7009.00000
    30.2191     7122.00000
    30.2322     6979.00000
    30.2454     7095.00000
    30.2585     7237.00000
    30.2716     7244.00000
    30.2848     6908.00000
    30.2979     6940.00000
    30.3110     6947.00000
    30.3241     6968.00000
    30.3373     7136.00000
    30.3504     7105.00000
    30.3635     7075.00000
    30.3767     6953.00000
    30.3898     7032.00000
    30.4029     7089.00000
    30.4161     7156.00000
    30.4292     7187.00000
    30.4423     7015.00000
    30.4554     7016.00000
    30.4686     6989.00000
    30.4817     7025.00000
    30.4948     7077.00000
    30.5080     6987.00000
    30.5211     7074.00000
    30.5342     6998.00000
    30.5474     6987.00000
    30.5605     6820.00000
    30.5736     7148.00000
    30.5868     7136.00000
    30.5999     6906.00000
    30.6130     7050.00000
    30.6261     6968.00000
    30.6393     6880.00000
    30.6524     6945.00000
    30.6655     6919.00000
    30.6787     7033.00000
    30.6918     6802.00000
    30.7049     6951.00000
    30.7181     6920.00000
    30.7312     7083.00000
    30.7443     6919.00000
    30.7574     7140.00000
    30.7706     6834.00000
    30.7837     6776.00000
    30.7968     6968.00000
    30.8100     6809.00000
    30.8231     6872.00000
    30.8362     6864.00000
    30.8494     6740.00000
    30.8625     6882.00000
    30.8756     6891.00000
    30.8887     7079.00000
    30.9019     7002.00000
    30.9150     7155.00000
    30.9281     6708.00000
    30.9413     6827.00000
    30.9544     7019.00000
    30.9675     6960.00000
    30.9807     7059.00000
    30.9938     7065.00000
    31.0069     7181.00000
    31.0200     6937.00000
    31.0332     6940.00000
    31.0463     7057.00000
    31.0594     6888.00000
    31.0726     6958.00000
    31.0857     6850.00000
    31.0988     6931.00000
    31.1120     6970.00000
    31.1251     7055.00000
    31.1382     6848.00000
    31.1514     6788.00000
    31.1645     6896.00000
    31.1776     6898.00000
    31.1907     6923.00000
    31.2039     6896.00000
    31.2170     6970.00000
    31.2301     6817.00000
    31.2433     6967.00000
    31.2564     7013.00000
    31.2695     7025.00000
    31.2827     6893.00000
    31.2958     7009.00000
    31.3089     6890.00000
    31.3220     6928.00000
    31.3352     7058.00000
    31.3483     6986.00000
    31.3614     6824.00000
    31.3746     6794.00000
    31.3877     6890.00000
    31.4008     6935.00000
    31.4140     6863.00000
    31.4271     6734.00000
    31.4402     6723.00000
    31.4533     6883.00000
    31.4665     6909.00000
    31.4796     6871.00000
    31.4927     6933.00000
    31.5059     7001.00000
    31.5190     7044.00000
    31.5321     6952.00000
    31.5453     6872.00000
    31.5584     6877.00000
    31.5715     6969.00000
    31.5847     6766.00000
    31.5978     6970.00000
    31.6109     6954.00000
    31.6240     6755.00000
    31.6372     6980.00000
    31.6503     6846.00000
    31.6634     6745.00000
    31.6766     6792.00000
    31.6897     6752.00000
    31.7028     6912.00000
    31.7160     6889.00000
    31.7291     6840.00000
    31.7422     6900.00000
    31.7553     6772.00000
    31.7685     6779.00000
    31.7816     6887.00000
    31.7947     6915.00000
    31.8079     6797.00000
    31.8210     6889.00000
    31.8341     6932.00000
    31.8473     6846.00000
    31.8604     6788.00000
    31.8735     6678.00000
    31.8866     6815.00000
    31.8998     6829.00000
    31.9129     6846.00000
    31.9260     6887.00000
    31.9392     6680.00000
    31.9523     7031.00000
    31.9654     6917.00000
    31.9786     6762.00000
    31.9917     6742.00000
    32.0048     6713.00000
    32.0180     6740.00000
    32.0311     6815.00000
    32.0442     6878.00000
    32.0573     7020.00000
    32.0705     6954.00000
    32.0836     6900.00000
    32.0967     6871.00000
    32.1099     6870.00000
    32.1230     6900.00000
    32.1361     6977.00000
    32.1493     6820.00000
    32.1624     7005.00000
    32.1755     6927.00000
    32.1886     6794.00000
    32.2018     6662.00000
    32.2149     6770.00000
    32.2280     6811.00000
    32.2412     7130.00000
    32.2543     6947.00000
    32.2674     7009.00000
    32.2806     7006.00000
    32.2937     6964.00000
    32.3068     6908.00000
    32.3199     6842.00000
    32.3331     6856.00000
    32.3462     6929.00000
    32.3593     6910.00000
    32.3725     6956.00000
    32.3856     7033.00000
    32.3987     6932.00000
    32.4119     6899.00000
    32.4250     7012.00000
    32.4381     6884.00000
    32.4512     6993.00000
    32.4644     7004.00000
    32.4775     7127.00000
    32.4906     6909.00000
    32.5038     6868.00000
    32.5169     7058.00000
    32.5300     6957.00000
    32.5432     7002.00000
    32.5563     6957.00000
    32.5694     6724.00000
    32.5826     6849.00000
    32.5957     6947.00000
    32.6088     6935.00000
    32.6219     6765.00000
    32.6351     6738.00000
    32.6482     6813.00000
    32.6613     6954.00000
    32.6745     6925.00000
    32.6876     7002.00000
    32.7007     6885.00000
    32.7139     6944.00000
    32.7270     7141.00000
    32.7401     7141.00000
    32.7532     6925.00000
    32.7664     7162.00000
    32.7795     7076.00000
    32.7926     7288.00000
    32.8058     7139.00000
    32.8189     7187.00000
    32.8320     7134.00000
    32.8452     7457.00000
    32.8583     7473.00000
    32.8714     7345.00000
    32.8845     7528.00000
    32.8977     7623.00000
    32.9108     7769.00000
    32.9239     7878.00000
    32.9371     8045.00000
    32.9502     8814.00000
    32.9633     9641.00000
    32.9765    11606.00000
    32.9896    14614.00000
    33.0027    19057.00000
    33.0159    23238.00000
    33.0290    26647.00000
    33.0421    26628.00000
    33.0552    23947.00000
    33.0684    20694.00000
    33.0815    18535.00000
    33.0946    17789.00000
    33.1078    18174.00000
    33.1209    17798.00000
    33.1340    16274.00000
    33.1472    13847.00000
    33.1603    11553.00000
    33.1734     9930.00000
    33.1865     8911.00000
    33.1997     8217.00000
    33.2128     7717.00000
    33.2259     7580.00000
    33.2391     7368.00000
    33.2522     7353.00000
    33.2653     7223.00000
    33.2785     6991.00000
    33.2916     7086.00000
    33.3047     7036.00000
    33.3178     7001.00000
    33.3310     6864.00000
    33.3441     7062.00000
    33.3572     7029.00000
    33.3704     6879.00000
    33.3835     6840.00000
    33.3966     6922.00000
    33.4098     6868.00000
    33.4229     7028.00000
    33.4360     6838.00000
    33.4492     7024.00000
    33.4623     6840.00000
    33.4754     6899.00000
    33.4885     6810.00000
    33.5017     6968.00000
    33.5148     6925.00000
    33.5279     6778.00000
    33.5411     6885.00000
    33.5542     6785.00000
    33.5673     6907.00000
    33.5805     7067.00000
    33.5936     7000.00000
    33.6067     6941.00000
    33.6198     7199.00000
    33.6330     7062.00000
    33.6461     7170.00000
    33.6592     7285.00000
    33.6724     7476.00000
    33.6855     7428.00000
    33.6986     7720.00000
    33.7118     7971.00000
    33.7249     8767.00000
    33.7380     9698.00000
    33.7511    10823.00000
    33.7643    12874.00000
    33.7774    14417.00000
    33.7905    15197.00000
    33.8037    14986.00000
    33.8168    13813.00000
    33.8299    12181.00000
    33.8431    11263.00000
    33.8562    11203.00000
    33.8693    11375.00000
    33.8825    11233.00000
    33.8956    10669.00000
    33.9087     9589.00000
    33.9218     8861.00000
    33.9350     8320.00000
    33.9481     8045.00000
    33.9612     8002.00000
    33.9744     7730.00000
    33.9875     8033.00000
    34.0006     7928.00000
    34.0138     7740.00000
    34.0269     7551.00000
    34.0400     7767.00000
    34.0531     7489.00000
    34.0663     7432.00000
    34.0794     7434.00000
    34.0925     7313.00000
    34.1057     7369.00000
    34.1188     7318.00000
    34.1319     7197.00000
    34.1451     7184.00000
    34.1582     7238.00000
    34.1713     7360.00000
    34.1844     7706.00000
    34.1976     8076.00000
    34.2107     9095.00000
    34.2238    10536.00000
    34.2370    12614.00000
    34.2501    13831.00000
    34.2632    13581.00000
    34.2764    12924.00000
    34.2895    11484.00000
    34.3026    10457.00000
    34.3158    10188.00000
    34.3289    10531.00000
    34.3420    10406.00000
    34.3551    10082.00000
    34.3683     9406.00000
    34.3814     8625.00000
    34.3945     7948.00000
    34.4077     7509.00000
    34.4208     7016.00000
    34.4339     6993.00000
    34.4471     6849.00000
    34.4602     6937.00000
    34.4733     6797.00000
    34.4864     6813.00000
    34.4996     6797.00000
    34.5127     6748.00000
    34.5258     6799.00000
    34.5390     6637.00000
    34.5521     6627.00000
    34.5652     6697.00000
    34.5784     6817.00000
    34.5915     6787.00000
    34.6046     6929.00000
    34.6177     6907.00000
    34.6309     6893.00000
    34.6440     6568.00000
    34.6571     6714.00000
    34.6703     6773.00000
    34.6834     6712.00000
    34.6965     6697.00000
    34.7097     6891.00000
    34.7228     6694.00000
    34.7359     6841.00000
    34.7491     6891.00000
    34.7622     6807.00000
    34.7753     6780.00000
    34.7884     6756.00000
    34.8016     6921.00000
    34.8147     6863.00000
    34.8278     6756.00000
    34.8410     6720.00000
    34.8541     6918.00000
    34.8672     6875.00000
    34.8804     7116.00000
    34.8935     7167.00000
    34.9066     7179.00000
    34.9197     7526.00000
    34.9329     7905.00000
    34.9460     8560.00000
    34.9591     9715.00000
    34.9723    10576.00000
    34.9854    11384.00000
    34.9985    11651.00000
    35.0117    11166.00000
    35.0248    10628.00000
    35.0379     9854.00000
    35.0510     9514.00000
    35.0642     9636.00000
    35.0773     9504.00000
    35.0904     9411.00000
    35.1036     9104.00000
    35.1167     8349.00000
    35.1298     8038.00000
    35.1430     7681.00000
    35.1561     7347.00000
    35.1692     7571.00000
    35.1824     7734.00000
    35.1955     7577.00000
    35.2086     7716.00000
    35.2217     7534.00000
    35.2349     7252.00000
    35.2480     7217.00000
    35.2611     7270.00000
    35.2743     7361.00000
    35.2874     7036.00000
    35.3005     7089.00000
    35.3137     6921.00000
    35.3268     6813.00000
    35.3399     6668.00000
    35.3530     6745.00000
    35.3662     6582.00000
    35.3793     6844.00000
    35.3924     6682.00000
    35.4056     6545.00000
    35.4187     6713.00000
    35.4318     6835.00000
    35.4450     6602.00000
    35.4581     6748.00000
    35.4712     6806.00000
    35.4843     6683.00000
    35.4975     6680.00000
    35.5106     6556.00000
    35.5237     6550.00000
    35.5369     6504.00000
    35.5500     6637.00000
    35.5631     6615.00000
    35.5763     6577.00000
    35.5894     6676.00000
    35.6025     6735.00000
    35.6156     6579.00000
    35.6288     6453.00000
    35.6419     6745.00000
    35.6550     6592.00000
    35.6682     6744.00000
    35.6813     6519.00000
    35.6944     6708.00000
    35.7076     6642.00000
    35.7207     6396.00000
    35.7338     6615.00000
    35.7470     6645.00000
    35.7601     6537.00000
    35.7732     6707.00000
    35.7863     6629.00000
    35.7995     6491.00000
    35.8126     6639.00000
    35.8257     6732.00000
    35.8389     6677.00000
    35.8520     6753.00000
    35.8651     6579.00000
    35.8783     6537.00000
    35.8914     6481.00000
    35.9045     6749.00000
    35.9176     6567.00000
    35.9308     6596.00000
    35.9439     6563.00000
    35.9570     6646.00000
    35.9702     6509.00000
    35.9833     6438.00000
    35.9964     6564.00000
    36.0096     6553.00000
    36.0227     6370.00000
    36.0358     6387.00000
    36.0489     6538.00000
    36.0621     6519.00000
    36.0752     6585.00000
    36.0883     6651.00000
    36.1015     6557.00000
    36.1146     6569.00000
    36.1277     6620.00000
    36.1409     6633.00000
    36.1540     6744.00000
    36.1671     6639.00000
    36.1802     6579.00000
    36.1934     6511.00000
    36.2065     6696.00000
    36.2196     6713.00000
    36.2328     6657.00000
    36.2459     6659.00000
    36.2590     6809.00000
    36.2722     6689.00000
    36.2853     6743.00000
    36.2984     6668.00000
    36.3116     6711.00000
    36.3247     6507.00000
    36.3378     6702.00000
    36.3509     6882.00000
    36.3641     6752.00000
    36.3772     6598.00000
    36.3903     6772.00000
    36.4035     6646.00000
    36.4166     6791.00000
    36.4297     6854.00000
    36.4429     7365.00000
    36.4560     7874.00000
    36.4691     8732.00000
    36.4822     9618.00000
    36.4954    10012.00000
    36.5085     9847.00000
    36.5216     9235.00000
    36.5348     8466.00000
    36.5479     8245.00000
    36.5610     8277.00000
    36.5742     8307.00000
    36.5873     8428.00000
    36.6004     8125.00000
    36.6135     7760.00000
    36.6267     7271.00000
    36.6398     6981.00000
    36.6529     7006.00000
    36.6661     6684.00000
    36.6792     6740.00000
    36.6923     6684.00000
    36.7055     6591.00000
    36.7186     6568.00000
    36.7317     6692.00000
    36.7449     6958.00000
    36.7580     6862.00000
    36.7711     6714.00000
    36.7842     6614.00000
    36.7974     6496.00000
    36.8105     6534.00000
    36.8236     6623.00000
    36.8368     6731.00000
    36.8499     6633.00000
    36.8630     6432.00000
    36.8762     6519.00000
    36.8893     6378.00000
    36.9024     6486.00000
    36.9155     6569.00000
    36.9287     6621.00000
    36.9418     6492.00000
    36.9549     6546.00000
    36.9681     6655.00000
    36.9812     6581.00000
    36.9943     6524.00000
    37.0075     6603.00000
    37.0206     6644.00000
    37.0337     6564.00000
    37.0468     6580.00000
    37.0600     6718.00000
    37.0731     6557.00000
    37.0862     6426.00000
    37.0994     6518.00000
    37.1125     6539.00000
    37.1256     6539.00000
    37.1388     6659.00000
    37.1519     6528.00000
    37.1650     6599.00000
    37.1782     6554.00000
    37.1913     6549.00000
    37.2044     6734.00000
    37.2175     6484.00000
    37.2307     6608.00000
    37.2438     6592.00000
    37.2569     6554.00000
    37.2701     6524.00000
    37.2832     6611.00000
    37.2963     6655.00000
    37.3095     6577.00000
    37.3226     6584.00000
    37.3357     6578.00000
    37.3488     6757.00000
    37.3620     6513.00000
    37.3751     6757.00000
    37.3882     6543.00000
    37.4014     6721.00000
    37.4145     6530.00000
    37.4276     6589.00000
    37.4408     6594.00000
    37.4539     6311.00000
    37.4670     6524.00000
    37.4801     6580.00000
    37.4933     6616.00000
    37.5064     6711.00000
    37.5195     6661.00000
    37.5327     6719.00000
    37.5458     6714.00000
    37.5589     6777.00000
    37.5721     6959.00000
    37.5852     7081.00000
    37.5983     7194.00000
    37.6115     7340.00000
    37.6246     7358.00000
    37.6377     7653.00000
    37.6508     7580.00000
    37.6640     7462.00000
    37.6771     7518.00000
    37.6902     7492.00000
    37.7034     7568.00000
    37.7165     7632.00000
    37.7296     8188.00000
    37.7428     8451.00000
    37.7559     9236.00000
    37.7690    10034.00000
    37.7821    11197.00000
    37.7953    12156.00000
    37.8084    12560.00000
    37.8215    12675.00000
    37.8347    11969.00000
    37.8478    12140.00000
    37.8609    12056.00000
    37.8741    12163.00000
    37.8872    11959.00000
    37.9003    11607.00000
    37.9134    10762.00000
    37.9266    10058.00000
    37.9397     9514.00000
    37.9528     9091.00000
    37.9660     8782.00000
    37.9791     8387.00000
    37.9922     7911.00000
    38.0054     7665.00000
    38.0185     7418.00000
    38.0316     6929.00000
    38.0448     6817.00000
    38.0579     6886.00000
    38.0710     6813.00000
    38.0841     6793.00000
    38.0973     6662.00000
    38.1104     6649.00000
    38.1235     6760.00000
    38.1367     6721.00000
    38.1498     6728.00000
    38.1629     6574.00000
    38.1761     6565.00000
    38.1892     6698.00000
    38.2023     6631.00000
    38.2154     6636.00000
    38.2286     6524.00000
    38.2417     6404.00000
    38.2548     6514.00000
    38.2680     6318.00000
    38.2811     6604.00000
    38.2942     6507.00000
    38.3074     6611.00000
    38.3205     6637.00000
    38.3336     6598.00000
    38.3467     6421.00000
    38.3599     6470.00000
    38.3730     6581.00000
    38.3861     6490.00000
    38.3993     6481.00000
    38.4124     6513.00000
    38.4255     6316.00000
    38.4387     6218.00000
    38.4518     6484.00000
    38.4649     6498.00000
    38.4781     6366.00000
    38.4912     6522.00000
    38.5043     6582.00000
    38.5174     6424.00000
    38.5306     6600.00000
    38.5437     6606.00000
    38.5568     6569.00000
    38.5700     6480.00000
    38.5831     6395.00000
    38.5962     6563.00000
    38.6094     6534.00000
    38.6225     6599.00000
    38.6356     6494.00000
    38.6487     6474.00000
    38.6619     6529.00000
    38.6750     6428.00000
    38.6881     6416.00000
    38.7013     6522.00000
    38.7144     6370.00000
    38.7275     6411.00000
    38.7407     6529.00000
    38.7538     6414.00000
    38.7669     6431.00000
    38.7800     6441.00000
    38.7932     6588.00000
    38.8063     6449.00000
    38.8194     6292.00000
    38.8326     6422.00000
    38.8457     6505.00000
    38.8588     6614.00000
    38.8720     6530.00000
    38.8851     6407.00000
    38.8982     6442.00000
    38.9114     6225.00000
    38.9245     6318.00000
    38.9376     6623.00000
    38.9507     6582.00000
    38.9639     6591.00000
    38.9770     6446.00000
    38.9901     6577.00000
    39.0033     6570.00000
    39.0164     6304.00000
    39.0295     6240.00000
    39.0427     6486.00000
    39.0558     6429.00000
    39.0689     6391.00000
    39.0820     6529.00000
    39.0952     6661.00000
    39.1083     6552.00000
    39.1214     6521.00000
    39.1346     6504.00000
    39.1477     6501.00000
    39.1608     6678.00000
    39.1740     6807.00000
    39.1871     6730.00000
    39.2002     6745.00000
    39.2133     6826.00000
    39.2265     7016.00000
    39.2396     7482.00000
    39.2527     7961.00000
    39.2659     8747.00000
    39.2790     9488.00000
    39.2921     9755.00000
    39.3053     9160.00000
    39.3184     8403.00000
    39.3315     8029.00000
    39.3446     7716.00000
    39.3578     7765.00000
    39.3709     7757.00000
    39.3840     8183.00000
    39.3972     8094.00000
    39.4103     7808.00000
    39.4234     7208.00000
    39.4366     6959.00000
    39.4497     6816.00000
    39.4628     6697.00000
    39.4760     6490.00000
    39.4891     6608.00000
    39.5022     6566.00000
    39.5153     6601.00000
    39.5285     6484.00000
    39.5416     6470.00000
    39.5547     6451.00000
    39.5679     6447.00000
    39.5810     6614.00000
    39.5941     6504.00000
    39.6073     6429.00000
    39.6204     6399.00000
    39.6335     6378.00000
    39.6466     6317.00000
    39.6598     6334.00000
    39.6729     6492.00000
    39.6860     6578.00000
    39.6992     6317.00000
    39.7123     6219.00000
    39.7254     6346.00000
    39.7386     6381.00000
    39.7517     6391.00000
    39.7648     6509.00000
    39.7779     6414.00000
    39.7911     6421.00000
    39.8042     6652.00000
    39.8173     6441.00000
    39.8305     6509.00000
    39.8436     6419.00000
    39.8567     6483.00000
    39.8699     6418.00000
    39.8830     6529.00000
    39.8961     6438.00000
    39.9092     6598.00000
    39.9224     6512.00000
    39.9355     6484.00000
    39.9486     6556.00000
    39.9618     6486.00000
    39.9749     6481.00000
    39.9880     6651.00000
    40.0012     6498.00000
    40.0143     6637.00000
    40.0274     6516.00000
    40.0406     6573.00000
    40.0537     6512.00000
    40.0668     6519.00000
    40.0799     6529.00000
    40.0931     6412.00000
    40.1062     6429.00000
    40.1193     6548.00000
    40.1325     6352.00000
    40.1456     6623.00000
    40.1587     6735.00000
    40.1719     6738.00000
    40.1850     6752.00000
    40.1981     7145.00000
    40.2112     7251.00000
    40.2244     7390.00000
    40.2375     7456.00000
    40.2506     7205.00000
    40.2638     7014.00000
    40.2769     7068.00000
    40.2900     6961.00000
    40.3032     7112.00000
    40.3163     7220.00000
    40.3294     7114.00000
    40.3425     7313.00000
    40.3557     7432.00000
    40.3688     7704.00000
    40.3819     8032.00000
    40.3951     8727.00000
    40.4082     9128.00000
    40.4213     9399.00000
    40.4345     9318.00000
    40.4476     8983.00000
    40.4607     8361.00000
    40.4739     8255.00000
    40.4870     7790.00000
    40.5001     8024.00000
    40.5132     8157.00000
    40.5264     8025.00000
    40.5395     7947.00000
    40.5526     7609.00000
    40.5658     7292.00000
    40.5789     7215.00000
    40.5920     6905.00000
    40.6052     6705.00000
    40.6183     6509.00000
    40.6314     6605.00000
    40.6445     6445.00000
    40.6577     6464.00000
    40.6708     6597.00000
    40.6839     6446.00000
    40.6971     6657.00000
    40.7102     6568.00000
    40.7233     6308.00000
    40.7365     6359.00000
    40.7496     6567.00000
    40.7627     6455.00000
    40.7758     6598.00000
    40.7890     6456.00000
    40.8021     6311.00000
    40.8152     6508.00000
    40.8284     6587.00000
    40.8415     6627.00000
    40.8546     6569.00000
    40.8678     6305.00000
    40.8809     6204.00000
    40.8940     6449.00000
    40.9072     6628.00000
    40.9203     6327.00000
    40.9334     6379.00000
    40.9465     6460.00000
    40.9597     6431.00000
    40.9728     6362.00000
    40.9859     6433.00000
    40.9991     6497.00000
    41.0122     6550.00000
    41.0253     6434.00000
    41.0385     6604.00000
    41.0516     6930.00000
    41.0647     6818.00000
    41.0778     7157.00000
    41.0910     7237.00000
    41.1041     7714.00000
    41.1172     7978.00000
    41.1304     8265.00000
    41.1435     8133.00000
    41.1566     7950.00000
    41.1698     7721.00000
    41.1829     7595.00000
    41.1960     8045.00000
    41.2091     8475.00000
    41.2223     8901.00000
    41.2354     9679.00000
    41.2485    10755.00000
    41.2617    11385.00000
    41.2748    11839.00000
    41.2879    11858.00000
    41.3011    11690.00000
    41.3142    11516.00000
    41.3273    11536.00000
    41.3405    11219.00000
    41.3536    11007.00000
    41.3667    10578.00000
    41.3798    10029.00000
    41.3930     9767.00000
    41.4061     9472.00000
    41.4192     9099.00000
    41.4324     8773.00000
    41.4455     8617.00000
    41.4586     8171.00000
    41.4718     7810.00000
    41.4849     7382.00000
    41.4980     7168.00000
    41.5111     6848.00000
    41.5243     6802.00000
    41.5374     6671.00000
    41.5505     6758.00000
    41.5637     6529.00000
    41.5768     6621.00000
    41.5899     6462.00000
    41.6031     6633.00000
    41.6162     6575.00000
    41.6293     6447.00000
    41.6424     6459.00000
    41.6556     6323.00000
    41.6687     6413.00000
    41.6818     6432.00000
    41.6950     6427.00000
    41.7081     6227.00000
    41.7212     6439.00000
    41.7344     6438.00000
    41.7475     6417.00000
    41.7606     6546.00000
    41.7738     6580.00000
    41.7869     6390.00000
    41.8000     6428.00000
    41.8131     6487.00000
    41.8263     6433.00000
    41.8394     6324.00000
    41.8525     6553.00000
    41.8657     6522.00000
    41.8788     6521.00000
    41.8919     6447.00000
    41.9051     6326.00000
    41.9182     6547.00000
    41.9313     6609.00000
    41.9444     6380.00000
    41.9576     6428.00000
    41.9707     6439.00000
    41.9838     6472.00000
    41.9970     6520.00000
    42.0101     6434.00000
    42.0232     6369.00000
    42.0364     6298.00000
    42.0495     6412.00000
    42.0626     6359.00000
    42.0757     6544.00000
    42.0889     6589.00000
    42.1020     6574.00000
    42.1151     6485.00000
    42.1283     6362.00000
    42.1414     6422.00000
    42.1545     6469.00000
    42.1677     6526.00000
    42.1808     6383.00000
    42.1939     6251.00000
    42.2071     6181.00000
    42.2202     6471.00000
    42.2333     6527.00000
    42.2464     6443.00000
    42.2596     6575.00000
    42.2727     6508.00000
    42.2858     6489.00000
    42.2990     6424.00000
    42.3121     6344.00000
    42.3252     6473.00000
    42.3384     6379.00000
    42.3515     6449.00000
    42.3646     6305.00000
    42.3777     6279.00000
    42.3909     6284.00000
    42.4040     6267.00000
    42.4171     6450.00000
    42.4303     6416.00000
    42.4434     6536.00000
    42.4565     6244.00000
    42.4697     6182.00000
    42.4828     6355.00000
    42.4959     6364.00000
    42.5090     6334.00000
    42.5222     6280.00000
    42.5353     6296.00000
    42.5484     6359.00000
    42.5616     6290.00000
    42.5747     6225.00000
    42.5878     6356.00000
    42.6010     6273.00000
    42.6141     6316.00000
    42.6272     6400.00000
    42.6404     6412.00000
    42.6535     6438.00000
    42.6666     6335.00000
    42.6797     6462.00000
    42.6929     6327.00000
    42.7060     6355.00000
    42.7191     6368.00000
    42.7323     6271.00000
    42.7454     6352.00000
    42.7585     6429.00000
    42.7717     6399.00000
    42.7848     6382.00000
    42.7979     6312.00000
    42.8110     6314.00000
    42.8242     6233.00000
    42.8373     6289.00000
    42.8504     6390.00000
    42.8636     6298.00000
    42.8767     6276.00000
    42.8898     6318.00000
    42.9030     6403.00000
    42.9161     6525.00000
    42.9292     6387.00000
    42.9423     6188.00000
    42.9555     6278.00000
    42.9686     6159.00000
    42.9817     6474.00000
    42.9949     6418.00000
    43.0080     6301.00000
    43.0211     6463.00000
    43.0343     6354.00000
    43.0474     6402.00000
    43.0605     6356.00000
    43.0736     6271.00000
    43.0868     6373.00000
    43.0999     6268.00000
    43.1130     6310.00000
    43.1262     6526.00000
    43.1393     6396.00000
    43.1524     6243.00000
    43.1656     6401.00000
    43.1787     6231.00000
    43.1918     6505.00000
    43.2050     6424.00000
    43.2181     6411.00000
    43.2312     6309.00000
    43.2443     6337.00000
    43.2575     6494.00000
    43.2706     6385.00000
    43.2837     6419.00000
    43.2969     6294.00000
    43.3100     6303.00000
    43.3231     6235.00000
    43.3363     6208.00000
    43.3494     6424.00000
    43.3625     6450.00000
    43.3756     6279.00000
    43.3888     6365.00000
    43.4019     6481.00000
    43.4150     6336.00000
    43.4282     6275.00000
    43.4413     6324.00000
    43.4544     6490.00000
    43.4676     6495.00000
    43.4807     6233.00000
    43.4938     6283.00000
    43.5069     6458.00000
    43.5201     6427.00000
    43.5332     6534.00000
    43.5463     6601.00000
    43.5595     6445.00000
    43.5726     6408.00000
    43.5857     6412.00000
    43.5989     6622.00000
    43.6120     6656.00000
    43.6251     6821.00000
    43.6383     7294.00000
    43.6514     7412.00000
    43.6645     7641.00000
    43.6776     7861.00000
    43.6908     8130.00000
    43.7039     7911.00000
    43.7170     7667.00000
    43.7302     7400.00000
    43.7433     7101.00000
    43.7564     6938.00000
    43.7696     7068.00000
    43.7827     7117.00000
    43.7958     7378.00000
    43.8089     7091.00000
    43.8221     7168.00000
    43.8352     7046.00000
    43.8483     6804.00000
    43.8615     6637.00000
    43.8746     6395.00000
    43.8877     6501.00000
    43.9009     6361.00000
    43.9140     6479.00000
    43.9271     6316.00000
    43.9402     6350.00000
    43.9534     6257.00000
    43.9665     6492.00000
    43.9796     6494.00000
    43.9928     6366.00000
    44.0059     6491.00000
    44.0190     6274.00000
    44.0322     6416.00000
    44.0453     6427.00000
    44.0584     6366.00000
    44.0715     6322.00000
    44.0847     6466.00000
    44.0978     6336.00000
    44.1109     6472.00000
    44.1241     6347.00000
    44.1372     6273.00000
    44.1503     6529.00000
    44.1635     6715.00000
    44.1766     6604.00000
    44.1897     6651.00000
    44.2029     6624.00000
    44.2160     6583.00000
    44.2291     6569.00000
    44.2422     6590.00000
    44.2554     6464.00000
    44.2685     6658.00000
    44.2816     6611.00000
    44.2948     6582.00000
    44.3079     6420.00000
    44.3210     6427.00000
    44.3342     6394.00000
    44.3473     6574.00000
    44.3604     6548.00000
    44.3735     6419.00000
    44.3867     6432.00000
    44.3998     6437.00000
    44.4129     6474.00000
    44.4261     6415.00000
    44.4392     6263.00000
    44.4523     6325.00000
    44.4655     6502.00000
    44.4786     6501.00000
    44.4917     6484.00000
    44.5048     6437.00000
    44.5180     6635.00000
    44.5311     6726.00000
    44.5442     6657.00000
    44.5574     6744.00000
    44.5705     6661.00000
    44.5836     6886.00000
    44.5968     6907.00000
    44.6099     7008.00000
    44.6230     7067.00000
    44.6362     7064.00000
    44.6493     7122.00000
    44.6624     7245.00000
    44.6755     7295.00000
    44.6887     7617.00000
    44.7018     8186.00000
    44.7149     8950.00000
    44.7281     9729.00000
    44.7412    10970.00000
    44.7543    12400.00000
    44.7675    13278.00000
    44.7806    13163.00000
    44.7937    12796.00000
    44.8068    11620.00000
    44.8200    10541.00000
    44.8331     9706.00000
    44.8462     9425.00000
    44.8594     9725.00000
    44.8725     9689.00000
    44.8856     9879.00000
    44.8988     9793.00000
    44.9119     9561.00000
    44.9250     8890.00000
    44.9381     8180.00000
    44.9513     7487.00000
    44.9644     7385.00000
    44.9775     7115.00000
    44.9907     6889.00000
    45.0038     6881.00000
    45.0169     6698.00000
    45.0301     6454.00000
    45.0432     6461.00000
    45.0563     6512.00000
    45.0695     6484.00000
    45.0826     6390.00000
    45.0957     6344.00000
    45.1088     6517.00000
    45.1220     6530.00000
    45.1351     6310.00000
    45.1482     6477.00000
    45.1614     6465.00000
    45.1745     6371.00000
    45.1876     6469.00000
    45.2008     6331.00000
    45.2139     6278.00000
    45.2270     6473.00000
    45.2401     6461.00000
    45.2533     6380.00000
    45.2664     6349.00000
    45.2795     6414.00000
    45.2927     6425.00000
    45.3058     6174.00000
    45.3189     6273.00000
    45.3321     6466.00000
    45.3452     6335.00000
    45.3583     6235.00000
    45.3714     6222.00000
    45.3846     6331.00000
    45.3977     6309.00000
    45.4108     6246.00000
    45.4240     6441.00000
    45.4371     6436.00000
    45.4502     6198.00000
    45.4634     6383.00000
    45.4765     6469.00000
    45.4896     6323.00000
    45.5028     6506.00000
    45.5159     6349.00000
    45.5290     6451.00000
    45.5421     6327.00000
    45.5553     6349.00000
    45.5684     6437.00000
    45.5815     6354.00000
    45.5947     6318.00000
    45.6078     6416.00000
    45.6209     6372.00000
    45.6341     6325.00000
    45.6472     6458.00000
    45.6603     6502.00000
    45.6734     6383.00000
    45.6866     6246.00000
    45.6997     6371.00000
    45.7128     6278.00000
    45.7260     6283.00000
    45.7391     6439.00000
    45.7522     6352.00000
    45.7654     6307.00000
    45.7785     6258.00000
    45.7916     6262.00000
    45.8047     6514.00000
    45.8179     6403.00000
    45.8310     6269.00000
    45.8441     6267.00000
    45.8573     6346.00000
    45.8704     6314.00000
    45.8835     6342.00000
    45.8967     6542.00000
    45.9098     6468.00000
    45.9229     6604.00000
    45.9361     6454.00000
    45.9492     6508.00000
    45.9623     6586.00000
    45.9754     6807.00000
    45.9886     6649.00000
    46.0017     6646.00000
    46.0148     6693.00000
    46.0280     6680.00000
    46.0411     6615.00000
    46.0542     7060.00000
    46.0674     6953.00000
    46.0805     7057.00000
    46.0936     7087.00000
    46.1067     7056.00000
    46.1199     7288.00000
    46.1330     7368.00000
    46.1461     7638.00000
    46.1593     8083.00000
    46.1724     8518.00000
    46.1855    10064.00000
    46.1987    11751.00000
    46.2118    14824.00000
    46.2249    17591.00000
    46.2380    19593.00000
    46.2512    19920.00000
    46.2643    19015.00000
    46.2774    16849.00000
    46.2906    14814.00000
    46.3037    12927.00000
    46.3168    12064.00000
    46.3300    12541.00000
    46.3431    12830.00000
    46.3562    13625.00000
    46.3694    13854.00000
    46.3825    13258.00000
    46.3956    12126.00000
    46.4087    10821.00000
    46.4219     9415.00000
    46.4350     8710.00000
    46.4481     7992.00000
    46.4613     7546.00000
    46.4744     7366.00000
    46.4875     7157.00000
    46.5007     7080.00000
    46.5138     6563.00000
    46.5269     6783.00000
    46.5400     6806.00000
    46.5532     6700.00000
    46.5663     6698.00000
    46.5794     6652.00000
    46.5926     6752.00000
    46.6057     6490.00000
    46.6188     6317.00000
    46.6320     6433.00000
    46.6451     6433.00000
    46.6582     6383.00000
    46.6713     6460.00000
    46.6845     6394.00000
    46.6976     6292.00000
    46.7107     6276.00000
    46.7239     6360.00000
    46.7370     6505.00000
    46.7501     6446.00000
    46.7633     6301.00000
    46.7764     6430.00000
    46.7895     6516.00000
    46.8027     6587.00000
    46.8158     6472.00000
    46.8289     6417.00000
    46.8420     6577.00000
    46.8552     6171.00000
    46.8683     6406.00000
    46.8814     6223.00000
    46.8946     6577.00000
    46.9077     6382.00000
    46.9208     6396.00000
    46.9340     6292.00000
    46.9471     6322.00000
    46.9602     6182.00000
    46.9733     6262.00000
    46.9865     6322.00000
    46.9996     6491.00000
    47.0127     6323.00000
    47.0259     6328.00000
    47.0390     6379.00000
    47.0521     6385.00000
    47.0653     6237.00000
    47.0784     6337.00000
    47.0915     6379.00000
    47.1046     6309.00000
    47.1178     6238.00000
    47.1309     6408.00000
    47.1440     6379.00000
    47.1572     6269.00000
    47.1703     6565.00000
    47.1834     6539.00000
    47.1966     6270.00000
    47.2097     6375.00000
    47.2228     6388.00000
    47.2359     6461.00000
    47.2491     6459.00000
    47.2622     6452.00000
    47.2753     6416.00000
    47.2885     6435.00000
    47.3016     6413.00000
    47.3147     6511.00000
    47.3279     6446.00000
    47.3410     6559.00000
    47.3541     6630.00000
    47.3673     6551.00000
    47.3804     6599.00000
    47.3935     6552.00000
    47.4066     6540.00000
    47.4198     6617.00000
    47.4329     6790.00000
    47.4460     6600.00000
    47.4592     6694.00000
    47.4723     6677.00000
    47.4854     6686.00000
    47.4986     6657.00000
    47.5117     6952.00000
    47.5248     7120.00000
    47.5379     7074.00000
    47.5511     7179.00000
    47.5642     7717.00000
    47.5773     8443.00000
    47.5905     9291.00000
    47.6036    10580.00000
    47.6167    12180.00000
    47.6299    13943.00000
    47.6430    15240.00000
    47.6561    14817.00000
    47.6692    13080.00000
    47.6824    11348.00000
    47.6955     9610.00000
    47.7086     9075.00000
    47.7218     9152.00000
    47.7349     9663.00000
    47.7480    10162.00000
    47.7612    10768.00000
    47.7743    10840.00000
    47.7874    10409.00000
    47.8005     9399.00000
    47.8137     8469.00000
    47.8268     7740.00000
    47.8399     7211.00000
    47.8531     7182.00000
    47.8662     7148.00000
    47.8793     7015.00000
    47.8925     6935.00000
    47.9056     6838.00000
    47.9187     6990.00000
    47.9319     6884.00000
    47.9450     7033.00000
    47.9581     6624.00000
    47.9712     6797.00000
    47.9844     6787.00000
    47.9975     6723.00000
    48.0106     6928.00000
    48.0238     7094.00000
    48.0369     6645.00000
    48.0500     6815.00000
    48.0632     6969.00000
    48.0763     6957.00000
    48.0894     6976.00000
    48.1025     6941.00000
    48.1157     7064.00000
    48.1288     7189.00000
    48.1419     7125.00000
    48.1551     7208.00000
    48.1682     7287.00000
    48.1813     7445.00000
    48.1945     7674.00000
    48.2076     7890.00000
    48.2207     8261.00000
    48.2338     8741.00000
    48.2470     9602.00000
    48.2601    10495.00000
    48.2732    12215.00000
    48.2864    13497.00000
    48.2995    15623.00000
    48.3126    17385.00000
    48.3258    17979.00000
    48.3389    17732.00000
    48.3520    16550.00000
    48.3652    15146.00000
    48.3783    13575.00000
    48.3914    12663.00000
    48.4045    12558.00000
    48.4177    12337.00000
    48.4308    12433.00000
    48.4439    12618.00000
    48.4571    12545.00000
    48.4702    12548.00000
    48.4833    11630.00000
    48.4965    10634.00000
    48.5096     9556.00000
    48.5227     8918.00000
    48.5358     8195.00000
    48.5490     7667.00000
    48.5621     7545.00000
    48.5752     7257.00000
    48.5884     7140.00000
    48.6015     6962.00000
    48.6146     7116.00000
    48.6278     6903.00000
    48.6409     6949.00000
    48.6540     6784.00000
    48.6671     6793.00000
    48.6803     7033.00000
    48.6934     6947.00000
    48.7065     6933.00000
    48.7197     7063.00000
    48.7328     7515.00000
    48.7459     7875.00000
    48.7591     7817.00000
    48.7722     7903.00000
    48.7853     7823.00000
    48.7985     7961.00000
    48.8116     7720.00000
    48.8247     7867.00000
    48.8378     7815.00000
    48.8510     7815.00000
    48.8641     7844.00000
    48.8772     7817.00000
    48.8904     7792.00000
    48.9035     7872.00000
    48.9166     7743.00000
    48.9298     7412.00000
    48.9429     7234.00000
    48.9560     7036.00000
    48.9691     7147.00000
    48.9823     7272.00000
    48.9954     6918.00000
    49.0085     6955.00000
    49.0217     6820.00000
    49.0348     6980.00000
    49.0479     6885.00000
    49.0611     6775.00000
    49.0742     6809.00000
    49.0873     6736.00000
    49.1004     6828.00000
    49.1136     6800.00000
    49.1267     6756.00000
    49.1398     6938.00000
    49.1530     6906.00000
    49.1661     6864.00000
    49.1792     6945.00000
    49.1924     7167.00000
    49.2055     7151.00000
    49.2186     7160.00000
    49.2318     7421.00000
    49.2449     7585.00000
    49.2580     7691.00000
    49.2711     8045.00000
    49.2843     8295.00000
    49.2974     8744.00000
    49.3105     9619.00000
    49.3237    10815.00000
    49.3368    12450.00000
    49.3499    14287.00000
    49.3631    15620.00000
    49.3762    16263.00000
    49.3893    15596.00000
    49.4024    14506.00000
    49.4156    13638.00000
    49.4287    12670.00000
    49.4418    12277.00000
    49.4550    12597.00000
    49.4681    13454.00000
    49.4812    14374.00000
    49.4944    14778.00000
    49.5075    14315.00000
    49.5206    13256.00000
    49.5337    11898.00000
    49.5469    10754.00000
    49.5600     9789.00000
    49.5731     9107.00000
    49.5863     8901.00000
    49.5994     8591.00000
    49.6125     8828.00000
    49.6257     8623.00000
    49.6388     8308.00000
    49.6519     7905.00000
    49.6651     7557.00000
    49.6782     7235.00000
    49.6913     7048.00000
    49.7044     7121.00000
    49.7176     7053.00000
    49.7307     6964.00000
    49.7438     6800.00000
    49.7570     6787.00000
    49.7701     6899.00000
    49.7832     6959.00000
    49.7964     6843.00000
    49.8095     6848.00000
    49.8226     7010.00000
    49.8357     6920.00000
    49.8489     7017.00000
    49.8620     7126.00000
    49.8751     7098.00000
    49.8883     7240.00000
    49.9014     7263.00000
    49.9145     7565.00000
    49.9277     7858.00000
    49.9408     8091.00000
    49.9539     8700.00000
    49.9670     9676.00000
    49.9802    11046.00000
    49.9933    12856.00000
    50.0064    15484.00000
    50.0196    17470.00000
    50.0327    18986.00000
    50.0458    19158.00000
    50.0590    17770.00000
    50.0721    15540.00000
    50.0852    13580.00000
    50.0984    11884.00000
    50.1115    11379.00000
    50.1246    11208.00000
    50.1377    11868.00000
    50.1509    12820.00000
    50.1640    13156.00000
    50.1771    13215.00000
    50.1903    12431.00000
    50.2034    11333.00000
    50.2165    10121.00000
    50.2297     9164.00000
    50.2428     8434.00000
    50.2559     7685.00000
    50.2690     7479.00000
    50.2822     7456.00000
    50.2953     7135.00000
    50.3084     6926.00000
    50.3216     6860.00000
    50.3347     6703.00000
    50.3478     6790.00000
    50.3610     6700.00000
    50.3741     6767.00000
    50.3872     6727.00000
    50.4003     6860.00000
    50.4135     6495.00000
    50.4266     6591.00000
    50.4397     6565.00000
    50.4529     6526.00000
    50.4660     6451.00000
    50.4791     6607.00000
    50.4923     6457.00000
    50.5054     6480.00000
    50.5185     6642.00000
    50.5317     6476.00000
    50.5448     6641.00000
    50.5579     6574.00000
    50.5710     6593.00000
    50.5842     6539.00000
    50.5973     6654.00000
    50.6104     6852.00000
    50.6236     6903.00000
    50.6367     7206.00000
    50.6498     7436.00000
    50.6630     7853.00000
    50.6761     8241.00000
    50.6892     8815.00000
    50.7023     9110.00000
    50.7155     8793.00000
    50.7286     8569.00000
    50.7417     8174.00000
    50.7549     7724.00000
    50.7680     7459.00000
    50.7811     7530.00000
    50.7943     7568.00000
    50.8074     7703.00000
    50.8205     8197.00000
    50.8336     8393.00000
    50.8468     8444.00000
    50.8599     8510.00000
    50.8730     8807.00000
    50.8862     9024.00000
    50.8993     9094.00000
    50.9124     9392.00000
    50.9256     9316.00000
    50.9387     9084.00000
    50.9518     8787.00000
    50.9649     8433.00000
    50.9781     8008.00000
    50.9912     7712.00000
    51.0043     7580.00000
    51.0175     7419.00000
    51.0306     7625.00000
    51.0437     7719.00000
    51.0569     7791.00000
    51.0700     7886.00000
    51.0831     7687.00000
    51.0963     7427.00000
    51.1094     7155.00000
    51.1225     7091.00000
    51.1356     6761.00000
    51.1488     6664.00000
    51.1619     6685.00000
    51.1750     6489.00000
    51.1882     6642.00000
    51.2013     6628.00000
    51.2144     6525.00000
    51.2276     6581.00000
    51.2407     6475.00000
    51.2538     6662.00000
    51.2669     6409.00000
    51.2801     6480.00000
    51.2932     6425.00000
    51.3063     6395.00000
    51.3195     6465.00000
    51.3326     6560.00000
    51.3457     6272.00000
    51.3589     6535.00000
    51.3720     6333.00000
    51.3851     6404.00000
    51.3982     6470.00000
    51.4114     6407.00000
    51.4245     6492.00000
    51.4376     6663.00000
    51.4508     6419.00000
    51.4639     6397.00000
    51.4770     6474.00000
    51.4902     6530.00000
    51.5033     6470.00000
    51.5164     6466.00000
    51.5296     6577.00000
    51.5427     6485.00000
    51.5558     6578.00000
    51.5689     6624.00000
    51.5821     6426.00000
    51.5952     6537.00000
    51.6083     6595.00000
    51.6215     6567.00000
    51.6346     6697.00000
    51.6477     6867.00000
    51.6609     6944.00000
    51.6740     7148.00000
    51.6871     7098.00000
    51.7002     7488.00000
    51.7134     8238.00000
    51.7265     9143.00000
    51.7396    10619.00000
    51.7528    12240.00000
    51.7659    14175.00000
    51.7790    14163.00000
    51.7922    13274.00000
    51.8053    11313.00000
    51.8184    10320.00000
    51.8315     9585.00000
    51.8447     9250.00000
    51.8578     9465.00000
    51.8709    10216.00000
    51.8841    11031.00000
    51.8972    12075.00000
    51.9103    11961.00000
    51.9235    11923.00000
    51.9366    10681.00000
    51.9497     9449.00000
    51.9628     8794.00000
    51.9760     8562.00000
    51.9891     8295.00000
    52.0022     8421.00000
    52.0154     8566.00000
    52.0285     8824.00000
    52.0416     8683.00000
    52.0548     8417.00000
    52.0679     7931.00000
    52.0810     7497.00000
    52.0942     7210.00000
    52.1073     7059.00000
    52.1204     6873.00000
    52.1335     6915.00000
    52.1467     7063.00000
    52.1598     7021.00000
    52.1729     7162.00000
    52.1861     6957.00000
    52.1992     6874.00000
    52.2123     6802.00000
    52.2255     6687.00000
    52.2386     6694.00000
    52.2517     6483.00000
    52.2648     6378.00000
    52.2780     6451.00000
    52.2911     6217.00000
    52.3042     6675.00000
    52.3174     6504.00000
    52.3305     6421.00000
    52.3436     6535.00000
    52.3568     6465.00000
    52.3699     6373.00000
    52.3830     6278.00000
    52.3961     6540.00000
    52.4093     6413.00000
    52.4224     6414.00000
    52.4355     6263.00000
    52.4487     6303.00000
    52.4618     6495.00000
    52.4749     6553.00000
    52.4881     6352.00000
    52.5012     6360.00000
    52.5143     6243.00000
    52.5275     6431.00000
    52.5406     6239.00000
    52.5537     6467.00000
    52.5668     6441.00000
    52.5800     6483.00000
    52.5931     6461.00000
    52.6062     6538.00000
    52.6194     6714.00000
    52.6325     6808.00000
    52.6456     7023.00000
    52.6588     7187.00000
    52.6719     7557.00000
    52.6850     8120.00000
    52.6981     7948.00000
    52.7113     7775.00000
    52.7244     7559.00000
    52.7375     7149.00000
    52.7507     6684.00000
    52.7638     6867.00000
    52.7769     6698.00000
    52.7901     6777.00000
    52.8032     6873.00000
    52.8163     7048.00000
    52.8294     7246.00000
    52.8426     7095.00000
    52.8557     7050.00000
    52.8688     6879.00000
    52.8820     6754.00000
    52.8951     6199.00000
    52.9082     6476.00000
    52.9214     6354.00000
    52.9345     6380.00000
    52.9476     6450.00000
    52.9608     6361.00000
    52.9739     6404.00000
    52.9870     6353.00000
    53.0001     6455.00000
    53.0133     6456.00000
    53.0264     6477.00000
    53.0395     6408.00000
    53.0527     6403.00000
    53.0658     6300.00000
    53.0789     6344.00000
    53.0921     6322.00000
    53.1052     6336.00000
    53.1183     6241.00000
    53.1314     6204.00000
    53.1446     6342.00000
    53.1577     6174.00000
    53.1708     6242.00000
    53.1840     6376.00000
    53.1971     6169.00000
    53.2102     6260.00000
    53.2234     6239.00000
    53.2365     6276.00000
    53.2496     6217.00000
    53.2627     6220.00000
    53.2759     6072.00000
    53.2890     6430.00000
    53.3021     6328.00000
    53.3153     6252.00000
    53.3284     6265.00000
    53.3415     6303.00000
    53.3547     6533.00000
    53.3678     6364.00000
    53.3809     6438.00000
    53.3941     6364.00000
    53.4072     6347.00000
    53.4203     6352.00000
    53.4334     6431.00000
    53.4466     6465.00000
    53.4597     6335.00000
    53.4728     6378.00000
    53.4860     6356.00000
    53.4991     6399.00000
    53.5122     6291.00000
    53.5254     6323.00000
    53.5385     6399.00000
    53.5516     6402.00000
    53.5647     6274.00000
    53.5779     6235.00000
    53.5910     6336.00000
    53.6041     6229.00000
    53.6173     6179.00000
    53.6304     6112.00000
    53.6435     6340.00000
    53.6567     6187.00000
    53.6698     6325.00000
    53.6829     6198.00000
    53.6960     6244.00000
    53.7092     6205.00000
    53.7223     6241.00000
    53.7354     6272.00000
    53.7486     6173.00000
    53.7617     6181.00000
    53.7748     6355.00000
    53.7880     6090.00000
    53.8011     6257.00000
    53.8142     6090.00000
    53.8274     6129.00000
    53.8405     6179.00000
    53.8536     6093.00000
    53.8667     6283.00000
    53.8799     6283.00000
    53.8930     6201.00000
    53.9061     6250.00000
    53.9193     6298.00000
    53.9324     6200.00000
    53.9455     6326.00000
    53.9587     6400.00000
    53.9718     6232.00000
    53.9849     6384.00000
    53.9980     6391.00000
    54.0112     6513.00000
    54.0243     6472.00000
    54.0374     6459.00000
    54.0506     6424.00000
    54.0637     6296.00000
    54.0768     6295.00000
    54.0900     6222.00000
    54.1031     6475.00000
    54.1162     6357.00000
    54.1293     6235.00000
    54.1425     6248.00000
    54.1556     6325.00000
    54.1687     6314.00000
    54.1819     6285.00000
    54.1950     6295.00000
    54.2081     6311.00000
    54.2213     6426.00000
    54.2344     6354.00000
    54.2475     6267.00000
    54.2607     6219.00000
    54.2738     6234.00000
    54.2869     6239.00000
    54.3000     6241.00000
    54.3132     6170.00000
    54.3263     6285.00000
    54.3394     6216.00000
    54.3526     6221.00000
    54.3657     6406.00000
    54.3788     6171.00000
    54.3920     6114.00000
    54.4051     6183.00000
    54.4182     6021.00000
    54.4313     6238.00000
    54.4445     6292.00000
    54.4576     6222.00000
    54.4707     6210.00000
    54.4839     6271.00000
    54.4970     6281.00000
    54.5101     6309.00000
    54.5233     6194.00000
    54.5364     6232.00000
    54.5495     6253.00000
    54.5626     6134.00000
    54.5758     6129.00000
    54.5889     6245.00000
    54.6020     6191.00000
    54.6152     6126.00000
    54.6283     6178.00000
    54.6414     6249.00000
    54.6546     6432.00000
    54.6677     6267.00000
    54.6808     6280.00000
    54.6940     6133.00000
    54.7071     6329.00000
    54.7202     6262.00000
    54.7333     6309.00000
    54.7465     6341.00000
    54.7596     6198.00000
    54.7727     6052.00000
    54.7859     6062.00000
    54.7990     6374.00000
    54.8121     6286.00000
    54.8253     6144.00000
    54.8384     6296.00000
    54.8515     6308.00000
    54.8646     6288.00000
    54.8778     6308.00000
    54.8909     6299.00000
    54.9040     6248.00000
    54.9172     6151.00000
    54.9303     6231.00000
    54.9434     6374.00000
    54.9566     6230.00000
    54.9697     6296.00000
    54.9828     6293.00000
    54.9959     6393.00000
    55.0091     6340.00000
    55.0222     6169.00000
    55.0353     6305.00000
    55.0485     6265.00000
    55.0616     6231.00000
    55.0747     6271.00000
    55.0879     6255.00000
    55.1010     6292.00000
    55.1141     6185.00000
    55.1272     6391.00000
    55.1404     6437.00000
    55.1535     6355.00000
    55.1666     6251.00000
    55.1798     6232.00000
    55.1929     6196.00000
    55.2060     6335.00000
    55.2192     6362.00000
    55.2323     6174.00000
    55.2454     6321.00000
    55.2586     6474.00000
    55.2717     6345.00000
    55.2848     6237.00000
    55.2979     6328.00000
    55.3111     6473.00000
    55.3242     6416.00000
    55.3373     6259.00000
    55.3505     6154.00000
    55.3636     6189.00000
    55.3767     6294.00000
    55.3899     6436.00000
    55.4030     6411.00000
    55.4161     6404.00000
    55.4292     6184.00000
    55.4424     6604.00000
    55.4555     6703.00000
    55.4686     6733.00000
    55.4818     6752.00000
    55.4949     6991.00000
    55.5080     7358.00000
    55.5212     7723.00000
    55.5343     8107.00000
    55.5474     8251.00000
    55.5605     8468.00000
    55.5737     7878.00000
    55.5868     7340.00000
    55.5999     7195.00000
    55.6131     6889.00000
    55.6262     6881.00000
    55.6393     6852.00000
    55.6525     6925.00000
    55.6656     7165.00000
    55.6787     7338.00000
    55.6918     7433.00000
    55.7050     7532.00000
    55.7181     7359.00000
    55.7312     7246.00000
    55.7444     7014.00000
    55.7575     7174.00000
    55.7706     6875.00000
    55.7838     6876.00000
    55.7969     6890.00000
    55.8100     6847.00000
    55.8232     6912.00000
    55.8363     7112.00000
    55.8494     7092.00000
    55.8625     7407.00000
    55.8757     7634.00000
    55.8888     7842.00000
    55.9019     8273.00000
    55.9151     8538.00000
    55.9282     9146.00000
    55.9413     9904.00000
    55.9545    10585.00000
    55.9676    11596.00000
    55.9807    12120.00000
    55.9938    12639.00000
    56.0070    12403.00000
    56.0201    11726.00000
    56.0332    11015.00000
    56.0464     9889.00000
    56.0595     9409.00000
    56.0726     9014.00000
    56.0858     8895.00000
    56.0989     8860.00000
    56.1120     8995.00000
    56.1251     9312.00000
    56.1383     9400.00000
    56.1514     9507.00000
    56.1645     9281.00000
    56.1777     9018.00000
    56.1908     8346.00000
    56.2039     8011.00000
    56.2171     7786.00000
    56.2302     7201.00000
    56.2433     7060.00000
    56.2565     7321.00000
    56.2696     7221.00000
    56.2827     7145.00000
    56.2958     7192.00000
    56.3090     7153.00000
    56.3221     6853.00000
    56.3352     6829.00000
    56.3484     6786.00000
    56.3615     6805.00000
    56.3746     6922.00000
    56.3878     6892.00000
    56.4009     6740.00000
    56.4140     6814.00000
    56.4271     6949.00000
    56.4403     6893.00000
    56.4534     7062.00000
    56.4665     7111.00000
    56.4797     7306.00000
    56.4928     7484.00000
    56.5059     8010.00000
    56.5191     8617.00000
    56.5322     8897.00000
    56.5453     9524.00000
    56.5584     9402.00000
    56.5716     9053.00000
    56.5847     8529.00000
    56.5978     7975.00000
    56.6110     7517.00000
    56.6241     7316.00000
    56.6372     7133.00000
    56.6504     7559.00000
    56.6635     7430.00000
    56.6766     7895.00000
    56.6898     8196.00000
    56.7029     8411.00000
    56.7160     8230.00000
    56.7291     8100.00000
    56.7423     7852.00000
    56.7554     7603.00000
    56.7685     7563.00000
    56.7817     7422.00000
    56.7948     7715.00000
    56.8079     8005.00000
    56.8211     8510.00000
    56.8342     9116.00000
    56.8473     9854.00000
    56.8604    10458.00000
    56.8736    10594.00000
    56.8867    10390.00000
    56.8998     9779.00000
    56.9130     8782.00000
    56.9261     8294.00000
    56.9392     7724.00000
    56.9524     7684.00000
    56.9655     7406.00000
    56.9786     7693.00000
    56.9917     8120.00000
    57.0049     8477.00000
    57.0180     8435.00000
    57.0311     8389.00000
    57.0443     8319.00000
    57.0574     8006.00000
    57.0705     7819.00000
    57.0837     7375.00000
    57.0968     7120.00000
    57.1099     7112.00000
    57.1231     7203.00000
    57.1362     7140.00000
    57.1493     6999.00000
    57.1624     7224.00000
    57.1756     6928.00000
    57.1887     7072.00000
    57.2018     7048.00000
    57.2150     6793.00000
    57.2281     6842.00000
    57.2412     6650.00000
    57.2544     6883.00000
    57.2675     6668.00000
    57.2806     6567.00000
    57.2937     6794.00000
    57.3069     6793.00000
    57.3200     6822.00000
    57.3331     6464.00000
    57.3463     6409.00000
    57.3594     6576.00000
    57.3725     6514.00000
    57.3857     6614.00000
    57.3988     6522.00000
    57.4119     6479.00000
    57.4250     6418.00000
    57.4382     6463.00000
    57.4513     6460.00000
    57.4644     6558.00000
    57.4776     6367.00000
    57.4907     6375.00000
    57.5038     6337.00000
    57.5170     6437.00000
    57.5301     6348.00000
    57.5432     6361.00000
    57.5564     6368.00000
    57.5695     6337.00000
    57.5826     6316.00000
    57.5957     6142.00000
    57.6089     6202.00000
    57.6220     6369.00000
    57.6351     6360.00000
    57.6483     6437.00000
    57.6614     6329.00000
    57.6745     6442.00000
    57.6877     6416.00000
    57.7008     6314.00000
    57.7139     6487.00000
    57.7270     6410.00000
    57.7402     6391.00000
    57.7533     6528.00000
    57.7664     6435.00000
    57.7796     6450.00000
    57.7927     6677.00000
    57.8058     6489.00000
    57.8190     6678.00000
    57.8321     6674.00000
    57.8452     6717.00000
    57.8583     7132.00000
    57.8715     7201.00000
    57.8846     7240.00000
    57.8977     7519.00000
    57.9109     7637.00000
    57.9240     8159.00000
    57.9371     8496.00000
    57.9503     8926.00000
    57.9634     9508.00000
    57.9765     9834.00000
    57.9897    10517.00000
    58.0028    10884.00000
    58.0159    10958.00000
    58.0290    10879.00000
    58.0422    11036.00000
    58.0553    10935.00000
    58.0684    10604.00000
    58.0816    10265.00000
    58.0947     9945.00000
    58.1078     9568.00000
    58.1210     9224.00000
    58.1341     9248.00000
    58.1472     9147.00000
    58.1603     8997.00000
    58.1735     8766.00000
    58.1866     8882.00000
    58.1997     8773.00000
    58.2129     8577.00000
    58.2260     8376.00000
    58.2391     8240.00000
    58.2523     8021.00000
    58.2654     7455.00000
    58.2785     7143.00000
    58.2916     7078.00000
    58.3048     6718.00000
    58.3179     6658.00000
    58.3310     6605.00000
    58.3442     6477.00000
    58.3573     6469.00000
    58.3704     6345.00000
    58.3836     6334.00000
    58.3967     6344.00000
    58.4098     6398.00000
    58.4230     6329.00000
    58.4361     6407.00000
    58.4492     6394.00000
    58.4623     6063.00000
    58.4755     6333.00000
    58.4886     6251.00000
    58.5017     6373.00000
    58.5149     6324.00000
    58.5280     6332.00000
    58.5411     6397.00000
    58.5543     6375.00000
    58.5674     6484.00000
    58.5805     6319.00000
    58.5936     6330.00000
    58.6068     6447.00000
    58.6199     6428.00000
    58.6330     6254.00000
    58.6462     6215.00000
    58.6593     6486.00000
    58.6724     6442.00000
    58.6856     6479.00000
    58.6987     6369.00000
    58.7118     6629.00000
    58.7249     6621.00000
    58.7381     6536.00000
    58.7512     6759.00000
    58.7643     6955.00000
    58.7775     7301.00000
    58.7906     7137.00000
    58.8037     7376.00000
    58.8169     7582.00000
    58.8300     7560.00000
    58.8431     7612.00000
    58.8562     7520.00000
    58.8694     7434.00000
    58.8825     7627.00000
    58.8956     7488.00000
    58.9088     7397.00000
    58.9219     7473.00000
    58.9350     7808.00000
    58.9482     8179.00000
    58.9613     8544.00000
    58.9744     8850.00000
    58.9876     9460.00000
    59.0007     9461.00000
    59.0138     9343.00000
    59.0269     9095.00000
    59.0401     8875.00000
    59.0532     8621.00000
    59.0663     8395.00000
    59.0795     8245.00000
    59.0926     8257.00000
    59.1057     8491.00000
    59.1189     8943.00000
    59.1320     9409.00000
    59.1451    10315.00000
    59.1582    11025.00000
    59.1714    11659.00000
    59.1845    12271.00000
    59.1976    12377.00000
    59.2108    11893.00000
    59.2239    11106.00000
    59.2370    10327.00000
    59.2502     9309.00000
    59.2633     8755.00000
    59.2764     8595.00000
    59.2895     8478.00000
    59.3027     8420.00000
    59.3158     8590.00000
    59.3289     9058.00000
    59.3421     9019.00000
    59.3552     9232.00000
    59.3683     9367.00000
    59.3815     9143.00000
    59.3946     8842.00000
    59.4077     8484.00000
    59.4208     8783.00000
    59.4340     9077.00000
    59.4471     9381.00000
    59.4602     9993.00000
    59.4734    10007.00000
    59.4865     9704.00000
    59.4996     9641.00000
    59.5128     9053.00000
    59.5259     8655.00000
    59.5390     8139.00000
    59.5522     7845.00000
    59.5653     7593.00000
    59.5784     7258.00000
    59.5915     7613.00000
    59.6047     7666.00000
    59.6178     7799.00000
    59.6309     7837.00000
    59.6441     7840.00000
    59.6572     8053.00000
    59.6703     7873.00000
    59.6835     7755.00000
    59.6966     7229.00000
    59.7097     7138.00000
    59.7228     6781.00000
    59.7360     6563.00000
    59.7491     6433.00000
    59.7622     6482.00000
    59.7754     6533.00000
    59.7885     6423.00000
    59.8016     6611.00000
    59.8148     6364.00000
    59.8279     6373.00000
    59.8410     6442.00000
    59.8541     6295.00000
    59.8673     6511.00000
    59.8804     6592.00000
    59.8935     6578.00000
    59.9067     6465.00000
    59.9198     6381.00000
    59.9329     6434.00000
    59.9461     6448.00000
    59.9592     6550.00000
    59.9723     6534.00000
    59.9855     6783.00000
    59.9986     6804.00000
    60.0117     7099.00000
    60.0248     7143.00000
    60.0380     7652.00000
    60.0511     8410.00000
    60.0642     8976.00000
    60.0774    10061.00000
    60.0905    11026.00000
    60.1036    12094.00000
    60.1168    12319.00000
    60.1299    12339.00000
    60.1430    11346.00000
    60.1561    10275.00000
    60.1693     9386.00000
    60.1824     8619.00000
    60.1955     8048.00000
    60.2087     7966.00000
    60.2218     7868.00000
    60.2349     8207.00000
    60.2481     8650.00000
    60.2612     9102.00000
    60.2743     9509.00000
    60.2874     9464.00000
    60.3006     8847.00000
    60.3137     8561.00000
    60.3268     8058.00000
    60.3400     7587.00000
    60.3531     7170.00000
    60.3662     6895.00000
    60.3794     6699.00000
    60.3925     6586.00000
    60.4056     6537.00000
    60.4188     6467.00000
    60.4319     6388.00000
    60.4450     6417.00000
    60.4581     6459.00000
    60.4713     6440.00000
    60.4844     6534.00000
    60.4975     6516.00000
    60.5107     6285.00000
    60.5238     6399.00000
    60.5369     6249.00000
    60.5501     6354.00000
    60.5632     6357.00000
    60.5763     6404.00000
    60.5894     6286.00000
    60.6026     6525.00000
    60.6157     6250.00000
    60.6288     6436.00000
    60.6420     6368.00000
    60.6551     6580.00000
    60.6682     6519.00000
    60.6814     6437.00000
    60.6945     6672.00000
    60.7076     6870.00000
    60.7207     6985.00000
    60.7339     7230.00000
    60.7470     7611.00000
    60.7601     7985.00000
    60.7733     8504.00000
    60.7864     8960.00000
    60.7995     9099.00000
    60.8127     8810.00000
    60.8258     8215.00000
    60.8389     7773.00000
    60.8521     7332.00000
    60.8652     7142.00000
    60.8783     6854.00000
    60.8914     7092.00000
    60.9046     7532.00000
    60.9177     7413.00000
    60.9308     7685.00000
    60.9440     8090.00000
    60.9571     8070.00000
    60.9702     8011.00000
    60.9834     7620.00000
    60.9965     7325.00000
    61.0096     6899.00000
    61.0227     6822.00000
    61.0359     6637.00000
    61.0490     6715.00000
    61.0621     6684.00000
    61.0753     6631.00000
    61.0884     6484.00000
    61.1015     6470.00000
    61.1147     6439.00000
    61.1278     6540.00000
    61.1409     6448.00000
    61.1540     6442.00000
    61.1672     6596.00000
    61.1803     6506.00000
    61.1934     6479.00000
    61.2066     6446.00000
    61.2197     6378.00000
    61.2328     6596.00000
    61.2460     6565.00000
    61.2591     6520.00000
    61.2722     6518.00000
    61.2854     6541.00000
    61.2985     6569.00000
    61.3116     6725.00000
    61.3247     6787.00000
    61.3379     6850.00000
    61.3510     7135.00000
    61.3641     7153.00000
    61.3773     7510.00000
    61.3904     7891.00000
    61.4035     8305.00000
    61.4167     9070.00000
    61.4298    10224.00000
    61.4429    11041.00000
    61.4560    11980.00000
    61.4692    12428.00000
    61.4823    13232.00000
    61.4954    13197.00000
    61.5086    12719.00000
    61.5217    12494.00000
    61.5348    11570.00000
    61.5480    11098.00000
    61.5611    10553.00000
    61.5742     9975.00000
    61.5873     9945.00000
    61.6005     9798.00000
    61.6136     9930.00000
    61.6267    10213.00000
    61.6399    10282.00000
    61.6530    10498.00000
    61.6661    10814.00000
    61.6793    10829.00000
    61.6924    10911.00000
    61.7055    10421.00000
    61.7187     9848.00000
    61.7318     9216.00000
    61.7449     8470.00000
    61.7580     8133.00000
    61.7712     7734.00000
    61.7843     7316.00000
    61.7974     6991.00000
    61.8106     6821.00000
    61.8237     6899.00000
    61.8368     7027.00000
    61.8500     7066.00000
    61.8631     7139.00000
    61.8762     7088.00000
    61.8893     7084.00000
    61.9025     7012.00000
    61.9156     6621.00000
    61.9287     6499.00000
    61.9419     6536.00000
    61.9550     6564.00000
    61.9681     6276.00000
    61.9813     6263.00000
    61.9944     6408.00000
    62.0075     6094.00000
    62.0206     6051.00000
    62.0338     5991.00000
    62.0469     6396.00000
    62.0600     6253.00000
    62.0732     6349.00000
    62.0863     6086.00000
    62.0994     6082.00000
    62.1126     5995.00000
    62.1257     6020.00000
    62.1388     6147.00000
    62.1520     6063.00000
    62.1651     6122.00000
    62.1782     6102.00000
    62.1913     6007.00000
    62.2045     6024.00000
    62.2176     6229.00000
    62.2307     6099.00000
    62.2439     5996.00000
    62.2570     6116.00000
    62.2701     6212.00000
    62.2833     6094.00000
    62.2964     5994.00000
    62.3095     5972.00000
    62.3226     5990.00000
    62.3358     6161.00000
    62.3489     6111.00000
    62.3620     6129.00000
    62.3752     6104.00000
    62.3883     6040.00000
    62.4014     5995.00000
    62.4146     6133.00000
    62.4277     6102.00000
    62.4408     6129.00000
    62.4539     6201.00000
    62.4671     6124.00000
    62.4802     6060.00000
    62.4933     6039.00000
    62.5065     6105.00000
    62.5196     5957.00000
    62.5327     5962.00000
    62.5459     5960.00000
    62.5590     6045.00000
    62.5721     5923.00000
    62.5852     6096.00000
    62.5984     6041.00000
    62.6115     5888.00000
    62.6246     5999.00000
    62.6378     6086.00000
    62.6509     6129.00000
    62.6640     6140.00000
    62.6772     6072.00000
    62.6903     5978.00000
    62.7034     6127.00000
    62.7166     6050.00000
    62.7297     6160.00000
    62.7428     6055.00000
    62.7559     6052.00000
    62.7691     5997.00000
    62.7822     6158.00000
    62.7953     6077.00000
    62.8085     6124.00000
    62.8216     6019.00000
    62.8347     6179.00000
    62.8479     6093.00000
    62.8610     5970.00000
    62.8741     6190.00000
    62.8872     6298.00000
    62.9004     6083.00000
    62.9135     6234.00000
    62.9266     6017.00000
    62.9398     5977.00000
    62.9529     6083.00000
    62.9660     6182.00000
    62.9792     6095.00000
    62.9923     6217.00000
    63.0054     6060.00000
    63.0185     6218.00000
    63.0317     6080.00000
    63.0448     6061.00000
    63.0579     6010.00000
    63.0711     6145.00000
    63.0842     5903.00000
    63.0973     6057.00000
    63.1105     6036.00000
    63.1236     6201.00000
    63.1367     6080.00000
    63.1499     6050.00000
    63.1630     6089.00000
    63.1761     6167.00000
    63.1892     6036.00000
    63.2024     6101.00000
    63.2155     6057.00000
    63.2286     6391.00000
    63.2418     6229.00000
    63.2549     6243.00000
    63.2680     5976.00000
    63.2812     6241.00000
    63.2943     6222.00000
    63.3074     6293.00000
    63.3205     6050.00000
    63.3337     6059.00000
    63.3468     6259.00000
    63.3599     6107.00000
    63.3731     6195.00000
    63.3862     6160.00000
    63.3993     6090.00000
    63.4125     6294.00000
    63.4256     6294.00000
    63.4387     6247.00000
    63.4518     6202.00000
    63.4650     6362.00000
    63.4781     6646.00000
    63.4912     6599.00000
    63.5044     6955.00000
    63.5175     7239.00000
    63.5306     7612.00000
    63.5438     7761.00000
    63.5569     8200.00000
    63.5700     8381.00000
    63.5831     8695.00000
    63.5963     8664.00000
    63.6094     8883.00000
    63.6225     8496.00000
    63.6357     8107.00000
    63.6488     7592.00000
    63.6619     7307.00000
    63.6751     7090.00000
    63.6882     7044.00000
    63.7013     7063.00000
    63.7145     7190.00000
    63.7276     7325.00000
    63.7407     7305.00000
    63.7538     7438.00000
    63.7670     7504.00000
    63.7801     7511.00000
    63.7932     7443.00000
    63.8064     7282.00000
    63.8195     7072.00000
    63.8326     6754.00000
    63.8458     6786.00000
    63.8589     6644.00000
    63.8720     6494.00000
    63.8851     6513.00000
    63.8983     6508.00000
    63.9114     6354.00000
    63.9245     6292.00000
    63.9377     6411.00000
    63.9508     6261.00000
    63.9639     6172.00000
    63.9771     6149.00000
    63.9902     6105.00000
    64.0033     6005.00000
    64.0164     6239.00000
    64.0296     6240.00000
    64.0427     6063.00000
    64.0558     6267.00000
    64.0690     6179.00000
    64.0821     6159.00000
    64.0952     6100.00000
    64.1084     6038.00000
    64.1215     6112.00000
    64.1346     6204.00000
    64.1478     6076.00000
    64.1609     6048.00000
    64.1740     6004.00000
    64.1871     6050.00000
    64.2003     6044.00000
    64.2134     5846.00000
    64.2265     5914.00000
    64.2397     5763.00000
    64.2528     6047.00000
    64.2659     6062.00000
    64.2791     6065.00000
    64.2922     5998.00000
    64.3053     5954.00000
    64.3184     6027.00000
    64.3316     6216.00000
    64.3447     6030.00000
    64.3578     5824.00000
    64.3710     5994.00000
    64.3841     5938.00000
    64.3972     6116.00000
    64.4104     6063.00000
    64.4235     6080.00000
    64.4366     5865.00000
    64.4498     6011.00000
    64.4629     6123.00000
    64.4760     6280.00000
    64.4891     6061.00000
    64.5023     6185.00000
    64.5154     6169.00000
    64.5285     6176.00000
    64.5417     6352.00000
    64.5548     6430.00000
    64.5679     6465.00000
    64.5811     6560.00000
    64.5942     6671.00000
    64.6073     6868.00000
    64.6204     7108.00000
    64.6336     7109.00000
    64.6467     7071.00000
    64.6598     7202.00000
    64.6730     6953.00000
    64.6861     6956.00000
    64.6992     6827.00000
    64.7124     6789.00000
    64.7255     6593.00000
    64.7386     6453.00000
    64.7517     6572.00000
    64.7649     6538.00000
    64.7780     6608.00000
    64.7911     6636.00000
    64.8043     6546.00000
    64.8174     6655.00000
    64.8305     6832.00000
    64.8437     6648.00000
    64.8568     6514.00000
    64.8699     6595.00000
    64.8830     6338.00000
    64.8962     6151.00000
    64.9093     6134.00000
    64.9224     6184.00000
    64.9356     6095.00000
    64.9487     6101.00000
    64.9618     6062.00000
    64.9750     5984.00000
    64.9881     6097.00000
    65.0012     6238.00000
    65.0144     6140.00000
    65.0275     6125.00000
    65.0406     6033.00000
    65.0537     5995.00000
    65.0669     6242.00000
    65.0800     6054.00000
    65.0931     5878.00000
    65.1063     6016.00000
    65.1194     5835.00000
    65.1325     5869.00000
    65.1457     6083.00000
    65.1588     5979.00000
    65.1719     6036.00000
    65.1850     5955.00000
    65.1982     6038.00000
    65.2113     5938.00000
    65.2244     6160.00000
    65.2376     6035.00000
    65.2507     5919.00000
    65.2638     6081.00000
    65.2770     6062.00000
    65.2901     6036.00000
    65.3032     6387.00000
    65.3163     6225.00000
    65.3295     6036.00000
    65.3426     5987.00000
    65.3557     5994.00000
    65.3689     6146.00000
    65.3820     5997.00000
    65.3951     6096.00000
    65.4083     6042.00000
    65.4214     5823.00000
    65.4345     5900.00000
    65.4476     6077.00000
    65.4608     6034.00000
    65.4739     6294.00000
    65.4870     5990.00000
    65.5002     6249.00000
    65.5133     6076.00000
    65.5264     6074.00000
    65.5396     6195.00000
    65.5527     6084.00000
    65.5658     6142.00000
    65.5790     6099.00000
    65.5921     6105.00000
    65.6052     6031.00000
    65.6183     5924.00000
    65.6315     6099.00000
    65.6446     6168.00000
    65.6577     6056.00000
    65.6709     6000.00000
    65.6840     6054.00000
    65.6971     6134.00000
    65.7103     6315.00000
    65.7234     6223.00000
    65.7365     6080.00000
    65.7496     6047.00000
    65.7628     6030.00000
    65.7759     5994.00000
    65.7890     5940.00000
    65.8022     5919.00000
    65.8153     6064.00000
    65.8284     5966.00000
    65.8416     5822.00000
    65.8547     5702.00000
    65.8678     5779.00000
    65.8810     6070.00000
    65.8941     5952.00000
    65.9072     5892.00000
    65.9203     5819.00000
    65.9335     5811.00000
    65.9466     5870.00000
    65.9597     5973.00000
    65.9729     5880.00000
    65.9860     5923.00000
    65.9991     6110.00000
    66.0123     5892.00000
    66.0254     5990.00000
    66.0385     5930.00000
    66.0516     5776.00000
    66.0648     5819.00000
    66.0779     5831.00000
    66.0910     5797.00000
    66.1042     5914.00000
    66.1173     5971.00000
    66.1304     6097.00000
    66.1436     5966.00000
    66.1567     5895.00000
    66.1698     5864.00000
    66.1829     5763.00000
    66.1961     5997.00000
    66.2092     5909.00000
    66.2223     6041.00000
    66.2355     6041.00000
    66.2486     5969.00000
    66.2617     5886.00000
    66.2749     6145.00000
    66.2880     6030.00000
    66.3011     6101.00000
    66.3142     5844.00000
    66.3274     6030.00000
    66.3405     6020.00000
    66.3536     6006.00000
    66.3668     6122.00000
    66.3799     6019.00000
    66.3930     6066.00000
    66.4062     6153.00000
    66.4193     6133.00000
    66.4324     6018.00000
    66.4455     6081.00000
    66.4587     6041.00000
    66.4718     6099.00000
    66.4849     5860.00000
    66.4981     6025.00000
    66.5112     6072.00000
    66.5243     6086.00000
    66.5375     5916.00000
    66.5506     6023.00000
    66.5637     6158.00000
    66.5769     6412.00000
    66.5900     6235.00000
    66.6031     6149.00000
    66.6162     6041.00000
    66.6294     6136.00000
    66.6425     6014.00000
    66.6556     6142.00000
    66.6688     5998.00000
    66.6819     5997.00000
    66.6950     5849.00000
    66.7082     5874.00000
    66.7213     5915.00000
    66.7344     6016.00000
    66.7476     6053.00000
    66.7607     5863.00000
    66.7738     6015.00000
    66.7869     6104.00000
    66.8001     6083.00000
    66.8132     6297.00000
    66.8263     6034.00000
    66.8395     6146.00000
    66.8526     5996.00000
    66.8657     6058.00000
    66.8789     5930.00000
    66.8920     5896.00000
    66.9051     5939.00000
    66.9182     5970.00000
    66.9314     5853.00000
    66.9445     5925.00000
    66.9576     5848.00000
    66.9708     5918.00000
    66.9839     5910.00000
    66.9970     5898.00000
    67.0102     5999.00000
    67.0233     5881.00000
    67.0364     5995.00000
    67.0495     5828.00000
    67.0627     5913.00000
    67.0758     5882.00000
    67.0889     5812.00000
    67.1021     5770.00000
    67.1152     6079.00000
    67.1283     6014.00000
    67.1415     5827.00000
    67.1546     5899.00000
    67.1677     5948.00000
    67.1808     6034.00000
    67.1940     6010.00000
    67.2071     5886.00000
    67.2202     5919.00000
    67.2334     5708.00000
    67.2465     5904.00000
    67.2596     5901.00000
    67.2728     5914.00000
    67.2859     6025.00000
    67.2990     5851.00000
    67.3121     5948.00000
    67.3253     5830.00000
    67.3384     5999.00000
    67.3515     5981.00000
    67.3647     6004.00000
    67.3778     5968.00000
    67.3909     6192.00000
    67.4041     6074.00000
    67.4172     6107.00000
    67.4303     6049.00000
    67.4435     6191.00000
    67.4566     5962.00000
    67.4697     5889.00000
    67.4828     6095.00000
    67.4960     6022.00000
    67.5091     6152.00000
    67.5222     5919.00000
    67.5354     5946.00000
    67.5485     5964.00000
    67.5616     6029.00000
    67.5748     5946.00000
    67.5879     6047.00000
    67.6010     5973.00000
    67.6142     5944.00000
    67.6273     6093.00000
    67.6404     6167.00000
    67.6535     5942.00000
    67.6667     5908.00000
    67.6798     5818.00000
    67.6929     6009.00000
    67.7061     5877.00000
    67.7192     6035.00000
    67.7323     5942.00000
    67.7455     5849.00000
    67.7586     5900.00000
    67.7717     5973.00000
    67.7848     5829.00000
    67.7980     5897.00000
    67.8111     5879.00000
    67.8242     5970.00000
    67.8374     6073.00000
    67.8505     5983.00000
    67.8636     6106.00000
    67.8768     6268.00000
    67.8899     6077.00000
    67.9030     6026.00000
    67.9161     6036.00000
    67.9293     6017.00000
    67.9424     5835.00000
    67.9555     5941.00000
    67.9687     6134.00000
    67.9818     6011.00000
    67.9949     6003.00000
    68.0081     6020.00000
    68.0212     6093.00000
    68.0343     6083.00000
    68.0474     5868.00000
    68.0606     6029.00000
    68.0737     5824.00000
    68.0868     6000.00000
    68.1000     5959.00000
    68.1131     5940.00000
    68.1262     6043.00000
    68.1394     5941.00000
    68.1525     5998.00000
    68.1656     6160.00000
    68.1787     6043.00000
    68.1919     5840.00000
    68.2050     6071.00000
    68.2181     6125.00000
    68.2313     6043.00000
    68.2444     6067.00000
    68.2575     6198.00000
    68.2707     5980.00000
    68.2838     5954.00000
    68.2969     5987.00000
    68.3101     5902.00000
    68.3232     5902.00000
    68.3363     6093.00000
    68.3494     5942.00000
    68.3626     5866.00000
    68.3757     5858.00000
    68.3888     6006.00000
    68.4020     6082.00000
    68.4151     6102.00000
    68.4282     5997.00000
    68.4414     6059.00000
    68.4545     5904.00000
    68.4676     6062.00000
    68.4807     5925.00000
    68.4939     6070.00000
    68.5070     6014.00000
    68.5201     5906.00000
    68.5333     6065.00000
    68.5464     6159.00000
    68.5595     6068.00000
    68.5727     6084.00000
    68.5858     5959.00000
    68.5989     5767.00000
    68.6120     5885.00000
    68.6252     5868.00000
    68.6383     5815.00000
    68.6514     5946.00000
    68.6646     5979.00000
    68.6777     6022.00000
    68.6908     5903.00000
    68.7040     5884.00000
    68.7171     5695.00000
    68.7302     5971.00000
    68.7434     6216.00000
    68.7565     5859.00000
    68.7696     5980.00000
    68.7827     5898.00000
    68.7959     5943.00000
    68.8090     5992.00000
    68.8221     6006.00000
    68.8353     5980.00000
    68.8484     5942.00000
    68.8615     5924.00000
    68.8747     5958.00000
    68.8878     5882.00000
    68.9009     5969.00000
    68.9140     6016.00000
    68.9272     6118.00000
    68.9403     5934.00000
    68.9534     5892.00000
    68.9666     6123.00000
    68.9797     6069.00000
    68.9928     6101.00000
    69.0060     5998.00000
    69.0191     5993.00000
    69.0322     6189.00000
    69.0453     6276.00000
    69.0585     6147.00000
    69.0716     6229.00000
    69.0847     6277.00000
    69.0979     6454.00000
    69.1110     6459.00000
    69.1241     6496.00000
    69.1373     6717.00000
    69.1504     6676.00000
    69.1635     6670.00000
    69.1767     6806.00000
    69.1898     6594.00000
    69.2029     6635.00000
    69.2160     7006.00000
    69.2292     7245.00000
    69.2423     7334.00000
    69.2554     7629.00000
    69.2686     8014.00000
    69.2817     8207.00000
    69.2948     8527.00000
    69.3080     8692.00000
    69.3211     8821.00000
    69.3342     8963.00000
    69.3473     8711.00000
    69.3605     8403.00000
    69.3736     7826.00000
    69.3867     7497.00000
    69.3999     7256.00000
    69.4130     7169.00000
    69.4261     6931.00000
    69.4393     7058.00000
    69.4524     6936.00000
    69.4655     7280.00000
    69.4786     7313.00000
    69.4918     7324.00000
    69.5049     7533.00000
    69.5180     7573.00000
    69.5312     7264.00000
    69.5443     7614.00000
    69.5574     7510.00000
    69.5706     7427.00000
    69.5837     7288.00000
    69.5968     7262.00000
    69.6099     7309.00000
    69.6231     7290.00000
    69.6362     7254.00000
    69.6493     7117.00000
    69.6625     6967.00000
    69.6756     7067.00000
    69.6887     7092.00000
    69.7019     6960.00000
    69.7150     7258.00000
    69.7281     7243.00000
    69.7413     7399.00000
    69.7544     7660.00000
    69.7675     7772.00000
    69.7806     7761.00000
    69.7938     7777.00000
    69.8069     7757.00000
    69.8200     7695.00000
    69.8332     7770.00000
    69.8463     7800.00000
    69.8594     7917.00000
    69.8726     8031.00000
    69.8857     8280.00000
    69.8988     8254.00000
    69.9119     7942.00000
    69.9251     7745.00000
    69.9382     7470.00000
    69.9513     7620.00000
    69.9645     7334.00000
    69.9776     7149.00000
    69.9907     7038.00000
    70.0039     6813.00000
    70.0170     6460.00000
    70.0301     6679.00000
    70.0433     6539.00000
    70.0564     6811.00000
    70.0695     6665.00000
    70.0826     6829.00000
    70.0958     7000.00000
    70.1089     6617.00000
    70.1220     6779.00000
    70.1352     6458.00000
    70.1483     6222.00000
    70.1614     6206.00000
    70.1746     6107.00000
    70.1877     6137.00000
    70.2008     6058.00000
    70.2139     6169.00000
    70.2271     5954.00000
    70.2402     6087.00000
    70.2533     5986.00000
    70.2665     5946.00000
    70.2796     5994.00000
    70.2927     6015.00000
    70.3059     6004.00000
    70.3190     6082.00000
    70.3321     6036.00000
    70.3452     5996.00000
    70.3584     6030.00000
    70.3715     5915.00000
    70.3846     6148.00000
    70.3978     5860.00000
    70.4109     5935.00000
    70.4240     6050.00000
    70.4372     6047.00000
    70.4503     6162.00000
    70.4634     6157.00000
    70.4765     6199.00000
    70.4897     6108.00000
    70.5028     5929.00000
    70.5159     6106.00000
    70.5291     5950.00000
    70.5422     6130.00000
    70.5553     6162.00000
    70.5685     6173.00000
    70.5816     6081.00000
    70.5947     6043.00000
    70.6078     6146.00000
    70.6210     5979.00000
    70.6341     6155.00000
    70.6472     6245.00000
    70.6604     6281.00000
    70.6735     6341.00000
    70.6866     6092.00000
    70.6998     6050.00000
    70.7129     5997.00000
    70.7260     6180.00000
    70.7392     6198.00000
    70.7523     6021.00000
    70.7654     6135.00000
    70.7785     6058.00000
    70.7917     6367.00000
    70.8048     6510.00000
    70.8179     6461.00000
    70.8311     6553.00000
    70.8442     6561.00000
    70.8573     6715.00000
    70.8705     6611.00000
    70.8836     6777.00000
    70.8967     6816.00000
    70.9099     6731.00000
    70.9230     6722.00000
    70.9361     6486.00000
    70.9492     6446.00000
    70.9624     6592.00000
    70.9755     6449.00000
    70.9886     6283.00000
    71.0018     6254.00000
    71.0149     6329.00000
    71.0280     6482.00000
    71.0412     6574.00000
    71.0543     6499.00000
    71.0674     6486.00000
    71.0805     6593.00000
    71.0937     6381.00000
    71.1068     6516.00000
    71.1199     6448.00000
    71.1331     6450.00000
    71.1462     6278.00000
    71.1593     6485.00000
    71.1725     6339.00000
    71.1856     6296.00000
    71.1987     6306.00000
    71.2118     6248.00000
    71.2250     6262.00000
    71.2381     6158.00000
    71.2512     6227.00000
    71.2644     6339.00000
    71.2775     6134.00000
    71.2906     6341.00000
    71.3038     6423.00000
    71.3169     6175.00000
    71.3300     6224.00000
    71.3431     6205.00000
    71.3563     6258.00000
    71.3694     5985.00000
    71.3825     6111.00000
    71.3957     5984.00000
    71.4088     5990.00000
    71.4219     6043.00000
    71.4351     6134.00000
    71.4482     6116.00000
    71.4613     6217.00000
    71.4744     6184.00000
    71.4876     6349.00000
    71.5007     6188.00000
    71.5138     6177.00000
    71.5270     6056.00000
    71.5401     6023.00000
    71.5532     5785.00000
    71.5664     5959.00000
    71.5795     5970.00000
    71.5926     6119.00000
    71.6058     6043.00000
    71.6189     6057.00000
    71.6320     5942.00000
    71.6451     6112.00000
    71.6583     6046.00000
    71.6714     6064.00000
    71.6845     5906.00000
    71.6977     5921.00000
    71.7108     6009.00000
    71.7239     6089.00000
    71.7371     5891.00000
    71.7502     6007.00000
    71.7633     6047.00000
    71.7764     6110.00000
    71.7896     6083.00000
    71.8027     5959.00000
    71.8158     6045.00000
    71.8290     6120.00000
    71.8421     6086.00000
    71.8552     6025.00000
    71.8684     6198.00000
    71.8815     6129.00000
    71.8946     6338.00000
    71.9078     6393.00000
    71.9209     6483.00000
    71.9340     6443.00000
    71.9471     6418.00000
    71.9603     6634.00000
    71.9734     6403.00000
    71.9865     6483.00000
    71.9997     6357.00000
    72.0128     6384.00000
    72.0259     6427.00000
    72.0391     6524.00000
    72.0522     6676.00000
    72.0653     6744.00000
    72.0784     6837.00000
    72.0916     6824.00000
    72.1047     7014.00000
    72.1178     7342.00000
    72.1310     7487.00000
    72.1441     7907.00000
    72.1572     8080.00000
    72.1704     8423.00000
    72.1835     8696.00000
    72.1966     8532.00000
    72.2097     8410.00000
    72.2229     8299.00000
    72.2360     7885.00000
    72.2491     7915.00000
    72.2623     7542.00000
    72.2754     7247.00000
    72.2885     7052.00000
    72.3017     6866.00000
    72.3148     6921.00000
    72.3279     6890.00000
    72.3410     6897.00000
    72.3542     7065.00000
    72.3673     7084.00000
    72.3804     7250.00000
    72.3936     7082.00000
    72.4067     7280.00000
    72.4198     7138.00000
    72.4330     7013.00000
    72.4461     7089.00000
    72.4592     6746.00000
    72.4724     6532.00000
    72.4855     6340.00000
    72.4986     6280.00000
    72.5117     6320.00000
    72.5249     6196.00000
    72.5380     6139.00000
    72.5511     5961.00000
    72.5643     6086.00000
    72.5774     6038.00000
    72.5905     6053.00000
    72.6037     5971.00000
    72.6168     5966.00000
    72.6299     5876.00000
    72.6430     6045.00000
    72.6562     5991.00000
    72.6693     5930.00000
    72.6824     6094.00000
    72.6956     6049.00000
    72.7087     6057.00000
    72.7218     5981.00000
    72.7350     6068.00000
    72.7481     6199.00000
    72.7612     6204.00000
    72.7743     6381.00000
    72.7875     6361.00000
    72.8006     6575.00000
    72.8137     6510.00000
    72.8269     6639.00000
    72.8400     6421.00000
    72.8531     6369.00000
    72.8663     6181.00000
    72.8794     6248.00000
    72.8925     6144.00000
    72.9057     6185.00000
    72.9188     6214.00000
    72.9319     6120.00000
    72.9450     5984.00000
    72.9582     6085.00000
    72.9713     6033.00000
    72.9844     6050.00000
    72.9976     6099.00000
    73.0107     6238.00000
    73.0238     6297.00000
    73.0370     6225.00000
    73.0501     6186.00000
    73.0632     5984.00000
    73.0763     6280.00000
    73.0895     6143.00000
    73.1026     5996.00000
    73.1157     5869.00000
    73.1289     5933.00000
    73.1420     6085.00000
    73.1551     6140.00000
    73.1683     6072.00000
    73.1814     6029.00000
    73.1945     6078.00000
    73.2076     6087.00000
    73.2208     6131.00000
    73.2339     5976.00000
    73.2470     6058.00000
    73.2602     6072.00000
    73.2733     6140.00000
    73.2864     6171.00000
    73.2996     6198.00000
    73.3127     6211.00000
    73.3258     6197.00000
    73.3390     6079.00000
    73.3521     5981.00000
    73.3652     6029.00000
    73.3783     6119.00000
    73.3915     6080.00000
    73.4046     6074.00000
    73.4177     5909.00000
    73.4309     5941.00000
    73.4440     6064.00000
    73.4571     6056.00000
    73.4703     6121.00000
    73.4834     6301.00000
    73.4965     6191.00000
    73.5096     6372.00000
    73.5228     6400.00000
    73.5359     6538.00000
    73.5490     6464.00000
    73.5622     6527.00000
    73.5753     6522.00000
    73.5884     6856.00000
    73.6016     6994.00000
    73.6147     7254.00000
    73.6278     7196.00000
    73.6409     7337.00000
    73.6541     7335.00000
    73.6672     7344.00000
    73.6803     7165.00000
    73.6935     7194.00000
    73.7066     6959.00000
    73.7197     6575.00000
    73.7329     6764.00000
    73.7460     6761.00000
    73.7591     6469.00000
    73.7722     6565.00000
    73.7854     6473.00000
    73.7985     6527.00000
    73.8116     6573.00000
    73.8248     6648.00000
    73.8379     6660.00000
    73.8510     6885.00000
    73.8642     6717.00000
    73.8773     6711.00000
    73.8904     6741.00000
    73.9035     6583.00000
    73.9167     6675.00000
    73.9298     6689.00000
    73.9429     6457.00000
    73.9561     6319.00000
    73.9692     6236.00000
    73.9823     5979.00000
    73.9955     6269.00000
    74.0086     6126.00000
    74.0217     6193.00000
    74.0349     6005.00000
    74.0480     5938.00000
    74.0611     6020.00000
    74.0742     5945.00000
    74.0874     6033.00000
    74.1005     6112.00000
    74.1136     6023.00000
    74.1268     6058.00000
    74.1399     6033.00000
    74.1530     6059.00000
    74.1662     6049.00000
    74.1793     6155.00000
    74.1924     6254.00000
    74.2056     6108.00000
    74.2187     6149.00000
    74.2318     6444.00000
    74.2449     6199.00000
    74.2581     6101.00000
    74.2712     6020.00000
    74.2843     6051.00000
    74.2975     6015.00000
    74.3106     6130.00000
    74.3237     6107.00000
    74.3369     6131.00000
    74.3500     6172.00000
    74.3631     6441.00000
    74.3762     6421.00000
    74.3894     6453.00000
    74.4025     6764.00000
    74.4156     6720.00000
    74.4288     6730.00000
    74.4419     6813.00000
    74.4550     6858.00000
    74.4682     6690.00000
    74.4813     6878.00000
    74.4944     6958.00000
    74.5075     6696.00000
    74.5207     6915.00000
    74.5338     7132.00000
    74.5469     7384.00000
    74.5601     7598.00000
    74.5732     7933.00000
    74.5863     8054.00000
    74.5995     8018.00000
    74.6126     7655.00000
    74.6257     7668.00000
    74.6388     7384.00000
    74.6520     7346.00000
    74.6651     6855.00000
    74.6782     6659.00000
    74.6914     6508.00000
    74.7045     6657.00000
    74.7176     6557.00000
    74.7308     6594.00000
    74.7439     6550.00000
    74.7570     6655.00000
    74.7701     6657.00000
    74.7833     6861.00000
    74.7964     6830.00000
    74.8095     6869.00000
    74.8227     6910.00000
    74.8358     6736.00000
    74.8489     6543.00000
    74.8621     6634.00000
    74.8752     6331.00000
    74.8883     6274.00000
    74.9015     6292.00000
    74.9146     6252.00000
    74.9277     6090.00000
    74.9408     6165.00000
    74.9540     5997.00000
    74.9671     6113.00000
    74.9802     6010.00000
    74.9934     6039.00000
    75.0065     5919.00000
    75.0196     6141.00000
    75.0328     6102.00000
    75.0459     6054.00000
    75.0590     5970.00000
    75.0722     5984.00000
    75.0853     6113.00000
    75.0984     5954.00000
    75.1115     5963.00000
    75.1247     5929.00000
    75.1378     5909.00000
    75.1509     5846.00000
    75.1641     5964.00000
    75.1772     5850.00000
    75.1903     5740.00000
    75.2035     6041.00000
    75.2166     6074.00000
    75.2297     5947.00000
    75.2428     5862.00000
    75.2560     5728.00000
    75.2691     5825.00000
    75.2822     5911.00000
    75.2954     5840.00000
    75.3085     6110.00000
    75.3216     6064.00000
    75.3348     5811.00000
    75.3479     5881.00000
    75.3610     5979.00000
    75.3741     5738.00000
    75.3873     5833.00000
    75.4004     5717.00000
    75.4135     5662.00000
    75.4267     5935.00000
    75.4398     6015.00000
    75.4529     5826.00000
    75.4661     5941.00000
    75.4792     5875.00000
    75.4923     5966.00000
    75.5054     5943.00000
    75.5186     5990.00000
    75.5317     5951.00000
    75.5448     5941.00000
    75.5580     5773.00000
    75.5711     5824.00000
    75.5842     5844.00000
    75.5974     5731.00000
    75.6105     5801.00000
    75.6236     5818.00000
    75.6367     5863.00000
    75.6499     5881.00000
    75.6630     5848.00000
    75.6761     5905.00000
    75.6893     5791.00000
    75.7024     5884.00000
    75.7155     5831.00000
    75.7287     5781.00000
    75.7418     5719.00000
    75.7549     5843.00000
    75.7681     5826.00000
    75.7812     5861.00000
    75.7943     5778.00000
    75.8074     5870.00000
    75.8206     5959.00000
    75.8337     5921.00000
    75.8468     5997.00000
    75.8600     5975.00000
    75.8731     5867.00000
    75.8862     6036.00000
    75.8994     5968.00000
    75.9125     6195.00000
    75.9256     6197.00000
    75.9387     6085.00000
    75.9519     6213.00000
    75.9650     6196.00000
    75.9781     6316.00000
    75.9913     6200.00000
    76.0044     6111.00000
    76.0175     5993.00000
    76.0307     6093.00000
    76.0438     5692.00000
    76.0569     5923.00000
    76.0701     6095.00000
    76.0832     5967.00000
    76.0963     5988.00000
    76.1094     5950.00000
    76.1226     5912.00000
    76.1357     6073.00000
    76.1488     6051.00000
    76.1620     6003.00000
    76.1751     6096.00000
    76.1882     6143.00000
    76.2014     6253.00000
    76.2145     6228.00000
    76.2276     6150.00000
    76.2407     6056.00000
    76.2539     5956.00000
    76.2670     5903.00000
    76.2801     6112.00000
    76.2933     5935.00000
    76.3064     5919.00000
    76.3195     5877.00000
    76.3327     5871.00000
    76.3458     5887.00000
    76.3589     5945.00000
    76.3720     5892.00000
    76.3852     6060.00000
    76.3983     5932.00000
    76.4114     5878.00000
    76.4246     5888.00000
    76.4377     6002.00000
    76.4508     5931.00000
    76.4640     6060.00000
    76.4771     6178.00000
    76.4902     6188.00000
    76.5033     6233.00000
    76.5165     6290.00000
    76.5296     6164.00000
    76.5427     6267.00000
    76.5559     6178.00000
    76.5690     6269.00000
    76.5821     6200.00000
    76.5953     6150.00000
    76.6084     5885.00000
    76.6215     5952.00000
    76.6347     6127.00000
    76.6478     5920.00000
    76.6609     6064.00000
    76.6740     5957.00000
    76.6872     6048.00000
    76.7003     6037.00000
    76.7134     6036.00000
    76.7266     6026.00000
    76.7397     5954.00000
    76.7528     6134.00000
    76.7660     5871.00000
    76.7791     6187.00000
    76.7922     5948.00000
    76.8053     5938.00000
    76.8185     6109.00000
    76.8316     5969.00000
    76.8447     6087.00000
    76.8579     6252.00000
    76.8710     6301.00000
    76.8841     6153.00000
    76.8973     6233.00000
    76.9104     6329.00000
    76.9235     6235.00000
    76.9366     6306.00000
    76.9498     6513.00000
    76.9629     6572.00000
    76.9760     6668.00000
    76.9892     6744.00000
    77.0023     6868.00000
    77.0154     7068.00000
    77.0286     7419.00000
    77.0417     7861.00000
    77.0548     8117.00000
    77.0679     8135.00000
    77.0811     8055.00000
    77.0942     8015.00000
    77.1073     7788.00000
    77.1205     7520.00000
    77.1336     7453.00000
    77.1467     7167.00000
    77.1599     7044.00000
    77.1730     6840.00000
    77.1861     6635.00000
    77.1993     6766.00000
    77.2124     6557.00000
    77.2255     6521.00000
    77.2386     6565.00000
    77.2518     6670.00000
    77.2649     6981.00000
    77.2780     7036.00000
    77.2912     7119.00000
    77.3043     7066.00000
    77.3174     6932.00000
    77.3306     7151.00000
    77.3437     6616.00000
    77.3568     6728.00000
    77.3699     6798.00000
    77.3831     6580.00000
    77.3962     6413.00000
    77.4093     6340.00000
    77.4225     6354.00000
    77.4356     6311.00000
    77.4487     6278.00000
    77.4619     6346.00000
    77.4750     6401.00000
    77.4881     6336.00000
    77.5013     6465.00000
    77.5144     6591.00000
    77.5275     6707.00000
    77.5406     6759.00000
    77.5538     6819.00000
    77.5669     7028.00000
    77.5800     6836.00000
    77.5932     6504.00000
    77.6063     6440.00000
    77.6194     6344.00000
    77.6326     6123.00000
    77.6457     6142.00000
    77.6588     6242.00000
    77.6719     6241.00000
    77.6851     6245.00000
    77.6982     6299.00000
    77.7113     6408.00000
    77.7245     6320.00000
    77.7376     6433.00000
    77.7507     6545.00000
    77.7639     6503.00000
    77.7770     6861.00000
    77.7901     6954.00000
    77.8032     6751.00000
    77.8164     6704.00000
    77.8295     6528.00000
    77.8426     6280.00000
    77.8558     6386.00000
    77.8689     6384.00000
    77.8820     6137.00000
    77.8952     5942.00000
    77.9083     5921.00000
    77.9214     6043.00000
    77.9345     5957.00000
    77.9477     5893.00000
    77.9608     5952.00000
    77.9739     5856.00000
    77.9871     5891.00000
    78.0002     6042.00000
    78.0133     6183.00000
    78.0265     6009.00000
    78.0396     6071.00000
    78.0527     6016.00000
    78.0658     5877.00000
    78.0790     6063.00000
    78.0921     5829.00000
    78.1052     5832.00000
    78.1184     5732.00000
    78.1315     5888.00000
    78.1446     6047.00000
    78.1578     5781.00000
    78.1709     5820.00000
    78.1840     5801.00000
    78.1972     5836.00000
    78.2103     5770.00000
    78.2234     5798.00000
    78.2365     5690.00000
    78.2497     5680.00000
    78.2628     5758.00000
    78.2759     5649.00000
    78.2891     5778.00000
    78.3022     5831.00000
    78.3153     5712.00000
    78.3285     5968.00000
    78.3416     5665.00000
    78.3547     5865.00000
    78.3679     5868.00000
    78.3810     5825.00000
    78.3941     5809.00000
    78.4072     5689.00000
    78.4204     5794.00000
    78.4335     6024.00000
    78.4466     5914.00000
    78.4598     5771.00000
    78.4729     5813.00000
    78.4860     5923.00000
    78.4992     5806.00000
    78.5123     5913.00000
    78.5254     5809.00000
    78.5385     5819.00000
    78.5517     5807.00000
    78.5648     6002.00000
    78.5779     5927.00000
    78.5911     5856.00000
    78.6042     5790.00000
    78.6173     6037.00000
    78.6305     5932.00000
    78.6436     5845.00000
    78.6567     5995.00000
    78.6698     5803.00000
    78.6830     5960.00000
    78.6961     5789.00000
    78.7092     5742.00000
    78.7224     5844.00000
    78.7355     5781.00000
    78.7486     5801.00000
    78.7618     5842.00000
    78.7749     5824.00000
    78.7880     5854.00000
    78.8011     5990.00000
    78.8143     6014.00000
    78.8274     5983.00000
    78.8405     5960.00000
    78.8537     6157.00000
    78.8668     6054.00000
    78.8799     6080.00000
    78.8931     5751.00000
    78.9062     6091.00000
    78.9193     5937.00000
    78.9324     5936.00000
    78.9456     6040.00000
    78.9587     5902.00000
    78.9718     5941.00000
    78.9850     6109.00000
    78.9981     6151.00000
    79.0112     6024.00000
    79.0244     6041.00000
    79.0375     5884.00000
    79.0506     5917.00000
    79.0638     5905.00000
    79.0769     5971.00000
    79.0900     6048.00000
    79.1031     6079.00000
    79.1163     6027.00000
    79.1294     6146.00000
    79.1425     6187.00000
    79.1557     6145.00000
    79.1688     6147.00000
    79.1819     6233.00000
    79.1951     6269.00000
    79.2082     6330.00000
    79.2213     6328.00000
    79.2345     6415.00000
    79.2476     6297.00000
    79.2607     6217.00000
    79.2738     6417.00000
    79.2870     6529.00000
    79.3001     6579.00000
    79.3132     6594.00000
    79.3264     6488.00000
    79.3395     6840.00000
    79.3526     6955.00000
    79.3658     6770.00000
    79.3789     6824.00000
    79.3920     6998.00000
    79.4051     6969.00000
    79.4183     6849.00000
    79.4314     6776.00000
    79.4445     6731.00000
    79.4577     6846.00000
    79.4708     6567.00000
    79.4839     6728.00000
    79.4971     6343.00000
    79.5102     6314.00000
    79.5233     6306.00000
    79.5364     6398.00000
    79.5496     6254.00000
    79.5627     6632.00000
    79.5758     6669.00000
    79.5890     6640.00000
    79.6021     6736.00000
    79.6152     6722.00000
    79.6284     6673.00000
    79.6415     6675.00000
    79.6546     6684.00000
    79.6677     6657.00000
    79.6809     6364.00000
    79.6940     6488.00000
    79.7071     6560.00000
    79.7203     6425.00000
    79.7334     6236.00000
    79.7465     6134.00000
    79.7597     6301.00000
    79.7728     6454.00000
    79.7859     6527.00000
    79.7990     6354.00000
    79.8122     6287.00000
    79.8253     6453.00000
    79.8384     6592.00000
    79.8516     6638.00000
    79.8647     7044.00000
    79.8778     6998.00000
    79.8910     7213.00000
    79.9041     7523.00000
    79.9172     7456.00000
    79.9304     7338.00000
    79.9435     7319.00000
    79.9566     7253.00000
    79.9697     6932.00000
    79.9829     6742.00000
    79.9960     6600.00000
    80.0091     6488.00000
    80.0223     6509.00000
    80.0354     6329.00000
    80.0485     6485.00000
    80.0617     6256.00000
    80.0748     6375.00000
    80.0879     6419.00000
    80.1010     6519.00000
    80.1142     6600.00000
    80.1273     6574.00000
    80.1404     6649.00000
    80.1536     6659.00000
    80.1667     6652.00000
    80.1798     6677.00000
    80.1930     6512.00000
    80.2061     6409.00000
    80.2192     6227.00000
    80.2323     6214.00000
    80.2455     6195.00000
    80.2586     6302.00000
    80.2717     6128.00000
    80.2849     5954.00000
    80.2980     6304.00000
    80.3111     6126.00000
    80.3243     6216.00000
    80.3374     6305.00000
    80.3505     6278.00000
    80.3637     6238.00000
    80.3768     6115.00000
    80.3899     5912.00000
    80.4030     5924.00000
    80.4162     6074.00000
    80.4293     5907.00000
    80.4424     5892.00000
    80.4556     5988.00000
    80.4687     5966.00000
    80.4818     5996.00000
    80.4950     5890.00000
    80.5081     5849.00000
    80.5212     5974.00000
    80.5343     5939.00000
    80.5475     5931.00000
    80.5606     6102.00000
    80.5737     6039.00000
    80.5869     6231.00000
    80.6000     6323.00000
    80.6131     6381.00000
    80.6263     6208.00000
    80.6394     6257.00000
    80.6525     6155.00000
    80.6656     6142.00000
    80.6788     6158.00000
    80.6919     6012.00000
    80.7050     5994.00000
    80.7182     5947.00000
    80.7313     6036.00000
    80.7444     6008.00000
    80.7576     6105.00000
    80.7707     6068.00000
    80.7838     6042.00000
    80.7970     6193.00000
    80.8101     6279.00000
    80.8232     6033.00000
    80.8363     6017.00000
    80.8495     6353.00000
    80.8626     6496.00000
    80.8757     6197.00000
    80.8889     6577.00000
    80.9020     6640.00000
    80.9151     6545.00000
    80.9283     6827.00000
    80.9414     6670.00000
    80.9545     6644.00000
    80.9676     6655.00000
    80.9808     6792.00000
    80.9939     6500.00000
    81.0070     6634.00000
    81.0202     6615.00000
    81.0333     6254.00000
    81.0464     6484.00000
    81.0596     6376.00000
    81.0727     6521.00000
    81.0858     6527.00000
    81.0989     6435.00000
    81.1121     6665.00000
    81.1252     6770.00000
    81.1383     6771.00000
    81.1515     6741.00000
    81.1646     6739.00000
    81.1777     6597.00000
    81.1909     6771.00000
    81.2040     6761.00000
    81.2171     6531.00000
    81.2302     6550.00000
    81.2434     6688.00000
    81.2565     6585.00000
    81.2696     6536.00000
    81.2828     6545.00000
    81.2959     6454.00000
    81.3090     6481.00000
    81.3222     6465.00000
    81.3353     6475.00000
    81.3484     6548.00000
    81.3616     6707.00000
    81.3747     6529.00000
    81.3878     6345.00000
    81.4009     6299.00000
    81.4141     6307.00000
    81.4272     6256.00000
    81.4403     6286.00000
    81.4535     6406.00000
    81.4666     6141.00000
    81.4797     6192.00000
    81.4929     6387.00000
    81.5060     6317.00000
    81.5191     6265.00000
    81.5322     6331.00000
    81.5454     6486.00000
    81.5585     6517.00000
    81.5716     6423.00000
    81.5848     6627.00000
    81.5979     6551.00000
    81.6110     6631.00000
    81.6242     6501.00000
    81.6373     6730.00000
    81.6504     6765.00000
    81.6636     6626.00000
    81.6767     6802.00000
    81.6898     6792.00000
    81.7029     7048.00000
    81.7161     6915.00000
    81.7292     6764.00000
    81.7423     6710.00000
    81.7555     6709.00000
    81.7686     6702.00000
    81.7817     6600.00000
    81.7949     6455.00000
    81.8080     6407.00000
    81.8211     6409.00000
    81.8342     6390.00000
    81.8474     6350.00000
    81.8605     6413.00000
    81.8736     6273.00000
    81.8868     6221.00000
    81.8999     6332.00000
    81.9130     6186.00000
    81.9262     6352.00000
    81.9393     6425.00000
    81.9524     6283.00000
    81.9655     6413.00000
    81.9787     6336.00000
    81.9918     6360.00000
    82.0049     6165.00000
    82.0181     6037.00000
    82.0312     6320.00000
    82.0443     6219.00000
    82.0575     6141.00000
    82.0706     6096.00000
    82.0837     5855.00000
    82.0968     6072.00000
    82.1100     6055.00000
    82.1231     5928.00000
    82.1362     5987.00000
    82.1494     5966.00000
    82.1625     5945.00000
    82.1756     6024.00000
    82.1888     5868.00000
    82.2019     6010.00000
    82.2150     5950.00000
    82.2281     5884.00000
    82.2413     6047.00000
    82.2544     5871.00000
    82.2675     5913.00000
    82.2807     6068.00000
    82.2938     5894.00000
    82.3069     5978.00000
    82.3201     5901.00000
    82.3332     5908.00000
    82.3463     5943.00000
    82.3595     5928.00000
    82.3726     5941.00000
    82.3857     5982.00000
    82.3988     5975.00000
    82.4120     6134.00000
    82.4251     6081.00000
    82.4382     5899.00000
    82.4514     5962.00000
    82.4645     5993.00000
    82.4776     5967.00000
    82.4908     6055.00000
    82.5039     5792.00000
    82.5170     6040.00000
    82.5302     5889.00000
    82.5433     5780.00000
    82.5564     5875.00000
    82.5695     6073.00000
    82.5827     6043.00000
    82.5958     6112.00000
    82.6089     6057.00000
    82.6221     6159.00000
    82.6352     6111.00000
    82.6483     6282.00000
    82.6615     6262.00000
    82.6746     6307.00000
    82.6877     6415.00000
    82.7008     6429.00000
    82.7140     6508.00000
    82.7271     6366.00000
    82.7402     6494.00000
    82.7534     6433.00000
    82.7665     6369.00000
    82.7796     6332.00000
    82.7928     6276.00000
    82.8059     6155.00000
    82.8190     6024.00000
    82.8321     6153.00000
    82.8453     6027.00000
    82.8584     6065.00000
    82.8715     5988.00000
    82.8847     6193.00000
    82.8978     6277.00000
    82.9109     6218.00000
    82.9241     6322.00000
    82.9372     6455.00000
    82.9503     6481.00000
    82.9634     6405.00000
    82.9766     6644.00000
    82.9897     6577.00000
    83.0028     6606.00000
    83.0160     6436.00000
    83.0291     6447.00000
    83.0422     6320.00000
    83.0554     6260.00000
    83.0685     6332.00000
    83.0816     6247.00000
    83.0947     6347.00000
    83.1079     6562.00000
    83.1210     6507.00000
    83.1341     6606.00000
    83.1473     6794.00000
    83.1604     6777.00000
    83.1735     6723.00000
    83.1867     6736.00000
    83.1998     6650.00000
    83.2129     6351.00000
    83.2261     6415.00000
    83.2392     6257.00000
    83.2523     6362.00000
    83.2654     6212.00000
    83.2786     6271.00000
    83.2917     6058.00000
    83.3048     6235.00000
    83.3180     6127.00000
    83.3311     6163.00000
    83.3442     6014.00000
    83.3574     6156.00000
    83.3705     6188.00000
    83.3836     6143.00000
    83.3967     6317.00000
    83.4099     6170.00000
    83.4230     6197.00000
    83.4361     6269.00000
    83.4493     5974.00000
    83.4624     6054.00000
    83.4755     5940.00000
    83.4887     6110.00000
    83.5018     6065.00000
    83.5149     5958.00000
    83.5281     5800.00000
    83.5412     5853.00000
    83.5543     5944.00000
    83.5674     5898.00000
    83.5806     5897.00000
    83.5937     5864.00000
    83.6068     5834.00000
    83.6200     5725.00000
    83.6331     5794.00000
    83.6462     5738.00000
    83.6594     5715.00000
    83.6725     6019.00000
    83.6856     5793.00000
    83.6987     5827.00000
    83.7119     5871.00000
    83.7250     5727.00000
    83.7381     5907.00000
    83.7513     5864.00000
    83.7644     5851.00000
    83.7775     5891.00000
    83.7907     5888.00000
    83.8038     5833.00000
    83.8169     5829.00000
    83.8300     5779.00000
    83.8432     5773.00000
    83.8563     5909.00000
    83.8694     5781.00000
    83.8826     5822.00000
    83.8957     5902.00000
    83.9088     5719.00000
    83.9220     5866.00000
    83.9351     5669.00000
    83.9482     5714.00000
    83.9613     5684.00000
    83.9745     5750.00000
    83.9876     5703.00000
    84.0007     5715.00000
    84.0139     5599.00000
    84.0270     5919.00000
    84.0401     5766.00000
    84.0533     5770.00000
    84.0664     5623.00000
    84.0795     5756.00000
    84.0927     5597.00000
    84.1058     5758.00000
    84.1189     5738.00000
    84.1320     5867.00000
    84.1452     5725.00000
    84.1583     5763.00000
    84.1714     5768.00000
    84.1846     5924.00000
    84.1977     5754.00000
    84.2108     5759.00000
    84.2240     5731.00000
    84.2371     5788.00000
    84.2502     5679.00000
    84.2633     5824.00000
    84.2765     5794.00000
    84.2896     5713.00000
    84.3027     5776.00000
    84.3159     5706.00000
    84.3290     5802.00000
    84.3421     5904.00000
    84.3553     5816.00000
    84.3684     5726.00000
    84.3815     5980.00000
    84.3946     5781.00000
    84.4078     5805.00000
    84.4209     5743.00000
    84.4340     5909.00000
    84.4472     5818.00000
    84.4603     5875.00000
    84.4734     5969.00000
    84.4866     5914.00000
    84.4997     6022.00000
    84.5128     5938.00000
    84.5260     5968.00000
    84.5391     5855.00000
    84.5522     5951.00000
    84.5653     5859.00000
    84.5785     5874.00000
    84.5916     5798.00000
    84.6047     5723.00000
    84.6179     5765.00000
    84.6310     5884.00000
    84.6441     5801.00000
    84.6573     5940.00000
    84.6704     5639.00000
    84.6835     5914.00000
    84.6966     5843.00000
    84.7098     5879.00000
    84.7229     5830.00000
    84.7360     5960.00000
    84.7492     5943.00000
    84.7623     6030.00000
    84.7754     5932.00000
    84.7886     5978.00000
    84.8017     5852.00000
    84.8148     5908.00000
    84.8279     5991.00000
    84.8411     5980.00000
    84.8542     6092.00000
    84.8673     5905.00000
    84.8805     6096.00000
    84.8936     6132.00000
    84.9067     6164.00000
    84.9199     6379.00000
    84.9330     6246.00000
    84.9461     6253.00000
    84.9593     6253.00000
    84.9724     6442.00000
    84.9855     6251.00000
    84.9986     6348.00000
    85.0118     6502.00000
    85.0249     6519.00000
    85.0380     6392.00000
    85.0512     6368.00000
    85.0643     6106.00000
    85.0774     6260.00000
    85.0906     6142.00000
    85.1037     5893.00000
    85.1168     6139.00000
    85.1299     5936.00000
    85.1431     6085.00000
    85.1562     6073.00000
    85.1693     6093.00000
    85.1825     6132.00000
    85.1956     5949.00000
    85.2087     5996.00000
    85.2219     6086.00000
    85.2350     6009.00000
    85.2481     6260.00000
    85.2612     5939.00000
    85.2744     6274.00000
    85.2875     6188.00000
    85.3006     5979.00000
    85.3138     6060.00000
    85.3269     6155.00000
    85.3400     6095.00000
    85.3532     6071.00000
    85.3663     5974.00000
    85.3794     5950.00000
    85.3925     6096.00000
    85.4057     5860.00000
    85.4188     5753.00000
    85.4319     5865.00000
    85.4451     5951.00000
    85.4582     5916.00000
    85.4713     5714.00000
    85.4845     5917.00000
    85.4976     5982.00000
    85.5107     5836.00000
    85.5238     5885.00000
    85.5370     5903.00000
    85.5501     5961.00000
    85.5632     5947.00000
    85.5764     5745.00000
    85.5895     5854.00000
    85.6026     5859.00000
    85.6158     5871.00000
    85.6289     5732.00000
    85.6420     5883.00000
    85.6552     5810.00000
    85.6683     5814.00000
    85.6814     5812.00000
    85.6945     5746.00000
    85.7077     5915.00000
    85.7208     5785.00000
    85.7339     5846.00000
    85.7471     5805.00000
    85.7602     5800.00000
    85.7733     5819.00000
    85.7865     5909.00000
    85.7996     6029.00000
    85.8127     5837.00000
    85.8259     5841.00000
    85.8390     6037.00000
    85.8521     5865.00000
    85.8652     5989.00000
    85.8784     6042.00000
    85.8915     6241.00000
    85.9046     5975.00000
    85.9178     6287.00000
    85.9309     6111.00000
    85.9440     6091.00000
    85.9572     5961.00000
    85.9703     5914.00000
    85.9834     5915.00000
    85.9965     5793.00000
    86.0097     5939.00000
    86.0228     5790.00000
    86.0359     5884.00000
    86.0491     5988.00000
    86.0622     5769.00000
    86.0753     5798.00000
    86.0885     5791.00000
    86.1016     5798.00000
    86.1147     5859.00000
    86.1278     5878.00000
    86.1410     5807.00000
    86.1541     5832.00000
    86.1672     5787.00000
    86.1804     5977.00000
    86.1935     6029.00000
    86.2066     5941.00000
    86.2198     5863.00000
    86.2329     5853.00000
    86.2460     5821.00000
    86.2591     5709.00000
    86.2723     5797.00000
    86.2854     5688.00000
    86.2985     5803.00000
    86.3117     5996.00000
    86.3248     5999.00000
    86.3379     5931.00000
    86.3511     5969.00000
    86.3642     5965.00000
    86.3773     5855.00000
    86.3904     5927.00000
    86.4036     5836.00000
    86.4167     5893.00000
    86.4298     5840.00000
    86.4430     5758.00000
    86.4561     5946.00000
    86.4692     5950.00000
    86.4824     6025.00000
    86.4955     5689.00000
    86.5086     5920.00000
    86.5218     5946.00000
    86.5349     5745.00000
    86.5480     5777.00000
    86.5611     6046.00000
    86.5743     5804.00000
    86.5874     6006.00000
    86.6005     5787.00000
    86.6137     5931.00000
    86.6268     5911.00000
    86.6399     5918.00000
    86.6531     6003.00000
    86.6662     5934.00000
    86.6793     6037.00000
    86.6925     6093.00000
    86.7056     6143.00000
    86.7187     6086.00000
    86.7318     5954.00000
    86.7450     6124.00000
    86.7581     6128.00000
    86.7712     6202.00000
    86.7844     6243.00000
    86.7975     6214.00000
    86.8106     6232.00000
    86.8238     6620.00000
    86.8369     6472.00000
    86.8500     6494.00000
    86.8631     6275.00000
    86.8763     6511.00000
    86.8894     6441.00000
    86.9025     6394.00000
    86.9157     6479.00000
    86.9288     6521.00000
    86.9419     6411.00000
    86.9551     6403.00000
    86.9682     6344.00000
    86.9813     6192.00000
    86.9944     6126.00000
    87.0076     6241.00000
    87.0207     6295.00000
    87.0338     6177.00000
    87.0470     6293.00000
    87.0601     6409.00000
    87.0732     6243.00000
    87.0864     6603.00000
    87.0995     6383.00000
    87.1126     6620.00000
    87.1257     6643.00000
    87.1389     6824.00000
    87.1520     6891.00000
    87.1651     6905.00000
    87.1783     6980.00000
    87.1914     6745.00000
    87.2045     6617.00000
    87.2177     6294.00000
    87.2308     6457.00000
    87.2439     6292.00000
    87.2570     6268.00000
    87.2702     6325.00000
    87.2833     6424.00000
    87.2964     6336.00000
    87.3096     6393.00000
    87.3227     6241.00000
    87.3358     6427.00000
    87.3490     6523.00000
    87.3621     6534.00000
    87.3752     6627.00000
    87.3884     6556.00000
    87.4015     6847.00000
    87.4146     6945.00000
    87.4277     6836.00000
    87.4409     6884.00000
    87.4540     6786.00000
    87.4671     6699.00000
    87.4803     6629.00000
    87.4934     6776.00000
    87.5065     6362.00000
    87.5197     6390.00000
    87.5328     6323.00000
    87.5459     6186.00000
    87.5590     6092.00000
    87.5722     6078.00000
    87.5853     6221.00000
    87.5984     6186.00000
    87.6116     6139.00000
    87.6247     6072.00000
    87.6378     6171.00000
    87.6510     5941.00000
    87.6641     5889.00000
    87.6772     6042.00000
    87.6904     6216.00000
    87.7035     6047.00000
    87.7166     6142.00000
    87.7297     6243.00000
    87.7429     6195.00000
    87.7560     6193.00000
    87.7691     6196.00000
    87.7823     6140.00000
    87.7954     6104.00000
    87.8085     6079.00000
    87.8217     5881.00000
    87.8348     6047.00000
    87.8479     5851.00000
    87.8610     5887.00000
    87.8742     5752.00000
    87.8873     5924.00000
    87.9004     5899.00000
    87.9136     5918.00000
    87.9267     5966.00000
    87.9398     5918.00000
    87.9530     5941.00000
    87.9661     6066.00000
    87.9792     5922.00000
    87.9923     5969.00000
    88.0055     6019.00000
    88.0186     5960.00000
    88.0317     6113.00000
    88.0449     6196.00000
    88.0580     6091.00000
    88.0711     5873.00000
    88.0843     6112.00000
    88.0974     6130.00000
    88.1105     5953.00000
    88.1236     6006.00000
    88.1368     5940.00000
    88.1499     5909.00000
    88.1630     6004.00000
    88.1762     6010.00000
    88.1893     5846.00000
    88.2024     6059.00000
    88.2156     5952.00000
    88.2287     6121.00000
    88.2418     5926.00000
    88.2550     5903.00000
    88.2681     6034.00000
    88.2812     5980.00000
    88.2943     6053.00000
    88.3075     6037.00000
    88.3206     6111.00000
    88.3337     6138.00000
    88.3469     6390.00000
    88.3600     6233.00000
    88.3731     6356.00000
    88.3863     6454.00000
    88.3994     6448.00000
    88.4125     6546.00000
    88.4256     6658.00000
    88.4388     6629.00000
    88.4519     6672.00000
    88.4650     6477.00000
    88.4782     6569.00000
    88.4913     6253.00000
    88.5044     6290.00000
    88.5176     6230.00000
    88.5307     6162.00000
    88.5438     5967.00000
    88.5569     6071.00000
    88.5701     5920.00000
    88.5832     5950.00000
    88.5963     6066.00000
    88.6095     6021.00000
    88.6226     6275.00000
    88.6357     6067.00000
    88.6489     6145.00000
    88.6620     6103.00000
    88.6751     6241.00000
    88.6882     6182.00000
    88.7014     6404.00000
    88.7145     6442.00000
    88.7276     6333.00000
    88.7408     6472.00000
    88.7539     6238.00000
    88.7670     6462.00000
    88.7802     6489.00000
    88.7933     6388.00000
    88.8064     6354.00000
    88.8196     6485.00000
    88.8327     6404.00000
    88.8458     6378.00000
    88.8589     6370.00000
    88.8721     6331.00000
    88.8852     6388.00000
    88.8983     6200.00000
    88.9115     5954.00000
    88.9246     6042.00000
    88.9377     5919.00000
    88.9509     6140.00000
    88.9640     6054.00000
    88.9771     5743.00000
    88.9902     5892.00000
    89.0034     6024.00000
    89.0165     6112.00000
    89.0296     6071.00000
    89.0428     6053.00000
    89.0559     6188.00000
    89.0690     6251.00000
    89.0822     6319.00000
    89.0953     6445.00000
    89.1084     6249.00000
    89.1216     6478.00000
    89.1347     6522.00000
    89.1478     6608.00000
    89.1609     6606.00000
    89.1741     6547.00000
    89.1872     6465.00000
    89.2003     6684.00000
    89.2135     6596.00000
    89.2266     6362.00000
    89.2397     6494.00000
    89.2529     6164.00000
    89.2660     6250.00000
    89.2791     6088.00000
    89.2922     6048.00000
    89.3054     6244.00000
    89.3185     5998.00000
    89.3316     6079.00000
    89.3448     6144.00000
    89.3579     6068.00000
    89.3710     5986.00000
    89.3842     6070.00000
    89.3973     6062.00000
    89.4104     6163.00000
    89.4235     6287.00000
    89.4367     6244.00000
    89.4498     6408.00000
    89.4629     6351.00000
    89.4761     6495.00000
    89.4892     6499.00000
    89.5023     6531.00000
    89.5155     6482.00000
    89.5286     6637.00000
    89.5417     6554.00000
    89.5548     6547.00000
    89.5680     6555.00000
    89.5811     6441.00000
    89.5942     6347.00000
    89.6074     6205.00000
    89.6205     6216.00000
    89.6336     6232.00000
    89.6468     6172.00000
    89.6599     6254.00000
    89.6730     6169.00000
    89.6861     6181.00000
    89.6993     6321.00000
    89.7124     6349.00000
    89.7255     6338.00000
    89.7387     6395.00000
    89.7518     6362.00000
    89.7649     6464.00000
    89.7781     6608.00000
    89.7912     6699.00000
    89.8043     6757.00000
    89.8175     6699.00000
    89.8306     6781.00000
    89.8437     6833.00000
    89.8568     7003.00000
    89.8700     6840.00000
    89.8831     6825.00000
    89.8962     6766.00000
    89.9094     6965.00000
    89.9225     6858.00000
    89.9356     6864.00000
    89.9488     6799.00000
    89.9619     6605.00000
    89.9750     6404.00000
    89.9882     6355.00000
    90.0013     6127.00000
    90.0144     6295.00000
    90.0275     6123.00000
    90.0407     6069.00000
    90.0538     6171.00000
    90.0669     6105.00000
    90.0801     6104.00000
    90.0932     6110.00000
    90.1063     6155.00000
    90.1195     6156.00000
    90.1326     6210.00000
    90.1457     6282.00000
    90.1588     6111.00000
    90.1720     6137.00000
    90.1851     6326.00000
    90.1982     6138.00000
    90.2114     6129.00000
    90.2245     6168.00000
    90.2376     6075.00000
    90.2508     6198.00000
    90.2639     6003.00000
    90.2770     5965.00000
    90.2901     5906.00000
    90.3033     5965.00000
    90.3164     5882.00000
    90.3295     6004.00000
    90.3427     5848.00000
    90.3558     5757.00000
    90.3689     5805.00000
    90.3821     5736.00000
    90.3952     5583.00000
    90.4083     5728.00000
    90.4214     5837.00000
    90.4346     5673.00000
    90.4477     5702.00000
    90.4608     5844.00000
    90.4740     5702.00000
    90.4871     5766.00000
    90.5002     5827.00000
    90.5134     5738.00000
    90.5265     5813.00000
    90.5396     5732.00000
    90.5527     5620.00000
    90.5659     5818.00000
    90.5790     5731.00000
    90.5921     5688.00000
    90.6053     5854.00000
    90.6184     5890.00000
    90.6315     5822.00000
    90.6447     5697.00000
    90.6578     5885.00000
    90.6709     5835.00000
    90.6841     5845.00000
    90.6972     5590.00000
    90.7103     5758.00000
    90.7234     5706.00000
    90.7366     5662.00000
    90.7497     5752.00000
    90.7628     5775.00000
    90.7760     5741.00000
    90.7891     5813.00000
    90.8022     5822.00000
    90.8154     5787.00000
    90.8285     5759.00000
    90.8416     5716.00000
    90.8548     5798.00000
    90.8679     6033.00000
    90.8810     5904.00000
    90.8941     5667.00000
    90.9073     5732.00000
    90.9204     5753.00000
    90.9335     5921.00000
    90.9467     5811.00000
    90.9598     5686.00000
    90.9729     5897.00000
    90.9861     5903.00000
    90.9992     5698.00000
    91.0123     5645.00000
    91.0254     5618.00000
    91.0386     5719.00000
    91.0517     5772.00000
    91.0648     5747.00000
    91.0780     5802.00000
    91.0911     5847.00000
    91.1042     5700.00000
    91.1174     5883.00000
    91.1305     5781.00000
    91.1436     5754.00000
    91.1567     5739.00000
    91.1699     5869.00000
    91.1830     5799.00000
    91.1961     5689.00000
    91.2093     5762.00000
    91.2224     5784.00000
    91.2355     5726.00000
    91.2487     5775.00000
    91.2618     5851.00000
    91.2749     5685.00000
    91.2880     5820.00000
    91.3012     5771.00000
    91.3143     5707.00000
    91.3274     5723.00000
    91.3406     5818.00000
    91.3537     5915.00000
    91.3668     5925.00000
    91.3800     5759.00000
    91.3931     5737.00000
    91.4062     5827.00000
    91.4193     5847.00000
    91.4325     5932.00000
    91.4456     5735.00000
    91.4587     5810.00000
    91.4719     5785.00000
    91.4850     5873.00000
    91.4981     5942.00000
    91.5113     5888.00000
    91.5244     5999.00000
    91.5375     6029.00000
    91.5507     5914.00000
    91.5638     6128.00000
    91.5769     6049.00000
    91.5900     6240.00000
    91.6032     5941.00000
    91.6163     6002.00000
    91.6294     6244.00000
    91.6426     6128.00000
    91.6557     6182.00000
    91.6688     6115.00000
    91.6820     6208.00000
    91.6951     6149.00000
    91.7082     6092.00000
    91.7213     6115.00000
    91.7345     6027.00000
    91.7476     5860.00000
    91.7607     5866.00000
    91.7739     6023.00000
    91.7870     6063.00000
    91.8001     6047.00000
    91.8133     6008.00000
    91.8264     5914.00000
    91.8395     5968.00000
    91.8526     6015.00000
    91.8658     6014.00000
    91.8789     5887.00000
    91.8920     6104.00000
    91.9052     6141.00000
    91.9183     6033.00000
    91.9314     6102.00000
    91.9446     6073.00000
    91.9577     6177.00000
    91.9708     5904.00000
    91.9840     6174.00000
    91.9971     6086.00000
    92.0102     6262.00000
    92.0233     5995.00000
    92.0365     6074.00000
    92.0496     6190.00000
    92.0627     6170.00000
    92.0759     6332.00000
    92.0890     6366.00000
    92.1021     6211.00000
    92.1153     6394.00000
    92.1284     6267.00000
    92.1415     6184.00000
    92.1546     6116.00000
    92.1678     5906.00000
    92.1809     6017.00000
    92.1940     5907.00000
    92.2072     6039.00000
    92.2203     5980.00000
    92.2334     6185.00000
    92.2466     6208.00000
    92.2597     6221.00000
    92.2728     6308.00000
    92.2859     6435.00000
    92.2991     6597.00000
    92.3122     6572.00000
    92.3253     6671.00000
    92.3385     6755.00000
    92.3516     6756.00000
    92.3647     6939.00000
    92.3779     6870.00000
    92.3910     6957.00000
    92.4041     6907.00000
    92.4173     6931.00000
    92.4304     7052.00000
    92.4435     7007.00000
    92.4566     7081.00000
    92.4698     6962.00000
    92.4829     6714.00000
    92.4960     6734.00000
    92.5092     6697.00000
    92.5223     6599.00000
    92.5354     6413.00000
    92.5486     6269.00000
    92.5617     6317.00000
    92.5748     6406.00000
    92.5879     6423.00000
    92.6011     6192.00000
    92.6142     6312.00000
    92.6273     6212.00000
    92.6405     6201.00000
    92.6536     6139.00000
    92.6667     6348.00000
    92.6799     6254.00000
    92.6930     6368.00000
    92.7061     6367.00000
    92.7192     6290.00000
    92.7324     6431.00000
    92.7455     6608.00000
    92.7586     6401.00000
    92.7718     6315.00000
    92.7849     6226.00000
    92.7980     6222.00000
    92.8112     6096.00000
    92.8243     6075.00000
    92.8374     6157.00000
    92.8505     6005.00000
    92.8637     6007.00000
    92.8768     5993.00000
    92.8899     5935.00000
    92.9031     5826.00000
    92.9162     5747.00000
    92.9293     5787.00000
    92.9425     5841.00000
    92.9556     5710.00000
    92.9687     5901.00000
    92.9819     5758.00000
    92.9950     5864.00000
    93.0081     5795.00000
    93.0212     5816.00000
    93.0344     5523.00000
    93.0475     5701.00000
    93.0606     5723.00000
    93.0738     5656.00000
    93.0869     5748.00000
    93.1000     5790.00000
    93.1132     5852.00000
    93.1263     5973.00000
    93.1394     5780.00000
    93.1525     5787.00000
    93.1657     5797.00000
    93.1788     5748.00000
    93.1919     5776.00000
    93.2051     5769.00000
    93.2182     5752.00000
    93.2313     5780.00000
    93.2445     5904.00000
    93.2576     5902.00000
    93.2707     5943.00000
    93.2839     6007.00000
    93.2970     5973.00000
    93.3101     5991.00000
    93.3232     6123.00000
    93.3364     5861.00000
    93.3495     5806.00000
    93.3626     5794.00000
    93.3758     5958.00000
    93.3889     5779.00000
    93.4020     6011.00000
    93.4152     5948.00000
    93.4283     5866.00000
    93.4414     5904.00000
    93.4545     5954.00000
    93.4677     5966.00000
    93.4808     5783.00000
    93.4939     5799.00000
    93.5071     5934.00000
    93.5202     5938.00000
    93.5333     5756.00000
    93.5465     5918.00000
    93.5596     5730.00000
    93.5727     5762.00000
    93.5858     5817.00000
    93.5990     5754.00000
    93.6121     5777.00000
    93.6252     5848.00000
    93.6384     5875.00000
    93.6515     5740.00000
    93.6646     5660.00000
    93.6778     5709.00000
    93.6909     5807.00000
    93.7040     5845.00000
    93.7171     5745.00000
    93.7303     5675.00000
    93.7434     5687.00000
    93.7565     5846.00000
    93.7697     5767.00000
    93.7828     5867.00000
    93.7959     5859.00000
    93.8091     5744.00000
    93.8222     5680.00000
    93.8353     5766.00000
    93.8484     5657.00000
    93.8616     5834.00000
    93.8747     5822.00000
    93.8878     5802.00000
    93.9010     5681.00000
    93.9141     5591.00000
    93.9272     5817.00000
    93.9404     5886.00000
    93.9535     5780.00000
    93.9666     5692.00000
    93.9798     5731.00000
    93.9929     5786.00000
    94.0060     5731.00000
    94.0191     5862.00000
    94.0323     5856.00000
    94.0454     5754.00000
    94.0585     5951.00000
    94.0717     5916.00000
    94.0848     5926.00000
    94.0979     5920.00000
    94.1111     5937.00000
    94.1242     5983.00000
    94.1373     6187.00000
    94.1505     6122.00000
    94.1636     6277.00000
    94.1767     6317.00000
    94.1898     6186.00000
    94.2030     6301.00000
    94.2161     6331.00000
    94.2292     6631.00000
    94.2424     6383.00000
    94.2555     6404.00000
    94.2686     6310.00000
    94.2818     6312.00000
    94.2949     6210.00000
    94.3080     6145.00000
    94.3211     6151.00000
    94.3343     6000.00000
    94.3474     5903.00000
    94.3605     5959.00000
    94.3737     6010.00000
    94.3868     5918.00000
    94.3999     5974.00000
    94.4131     5915.00000
    94.4262     5972.00000
    94.4393     5869.00000
    94.4524     5821.00000
    94.4656     5982.00000
    94.4787     5923.00000
    94.4918     6080.00000
    94.5050     6055.00000
    94.5181     6110.00000
    94.5312     5977.00000
    94.5444     6188.00000
    94.5575     6106.00000
    94.5706     6158.00000
    94.5837     6057.00000
    94.5969     5998.00000
    94.6100     6009.00000
    94.6231     6040.00000
    94.6363     6031.00000
    94.6494     5885.00000
    94.6625     5828.00000
    94.6757     5935.00000
    94.6888     5935.00000
    94.7019     5725.00000
    94.7150     5842.00000
    94.7282     5909.00000
    94.7413     6121.00000
    94.7544     6044.00000
    94.7676     5817.00000
    94.7807     5711.00000
    94.7938     5912.00000
    94.8070     5806.00000
    94.8201     5736.00000
    94.8332     6008.00000
    94.8464     5807.00000
    94.8595     5673.00000
    94.8726     5814.00000
    94.8857     5732.00000
    94.8989     5811.00000
    94.9120     5910.00000
    94.9251     6083.00000
    94.9383     5912.00000
    94.9514     6124.00000
    94.9645     6042.00000
    94.9777     5996.00000
    94.9908     6223.00000
    95.0039     6031.00000
    95.0170     6223.00000
    95.0302     6141.00000
    95.0433     6095.00000
    95.0564     6392.00000
    95.0696     6290.00000
    95.0827     6179.00000
    95.0958     6330.00000
    95.1090     6239.00000
    95.1221     6413.00000
    95.1352     6278.00000
    95.1484     6346.00000
    95.1615     6327.00000
    95.1746     6256.00000
    95.1877     6348.00000
    95.2009     6211.00000
    95.2140     6259.00000
    95.2271     6443.00000
    95.2403     6209.00000
    95.2534     6224.00000
    95.2665     6211.00000
    95.2797     6252.00000
    95.2928     6252.00000
    95.3059     6403.00000
    95.3190     6266.00000
    95.3322     6254.00000
    95.3453     6276.00000
    95.3584     6093.00000
    95.3716     6197.00000
    95.3847     6260.00000
    95.3978     6178.00000
    95.4110     6231.00000
    95.4241     6343.00000
    95.4372     6472.00000
    95.4503     6377.00000
    95.4635     6719.00000
    95.4766     6544.00000
    95.4897     6444.00000
    95.5029     6474.00000
    95.5160     6455.00000
    95.5291     6450.00000
    95.5423     6321.00000
    95.5554     6381.00000
    95.5685     6248.00000
    95.5816     6101.00000
    95.5948     6098.00000
    95.6079     6078.00000
    95.6210     6098.00000
    95.6342     6019.00000
    95.6473     6170.00000
    95.6604     6311.00000
    95.6736     6237.00000
    95.6867     6437.00000
    95.6998     6341.00000
    95.7130     6449.00000
    95.7261     6360.00000
    95.7392     6453.00000
    95.7523     6464.00000
    95.7655     6331.00000
    95.7786     5992.00000
    95.7917     6030.00000
    95.8049     5950.00000
    95.8180     6119.00000
    95.8311     6111.00000
    95.8443     6086.00000
    95.8574     5961.00000
    95.8705     6121.00000
    95.8836     6035.00000
    95.8968     5942.00000
    95.9099     5852.00000
    95.9230     6025.00000
    95.9362     6017.00000
    95.9493     6154.00000
    95.9624     5939.00000
    95.9756     5921.00000
    95.9887     6004.00000
    96.0018     5983.00000
    96.0149     5993.00000
    96.0281     6181.00000
    96.0412     6239.00000
    96.0543     6259.00000
    96.0675     6334.00000
    96.0806     6383.00000
    96.0937     6242.00000
    96.1069     6305.00000
    96.1200     6288.00000
    96.1331     6379.00000
    96.1463     6312.00000
    96.1594     6146.00000
    96.1725     6065.00000
    96.1856     6060.00000
    96.1988     6084.00000
    96.2119     6026.00000
    96.2250     5992.00000
    96.2382     5977.00000
    96.2513     5846.00000
    96.2644     5864.00000
    96.2776     5834.00000
    96.2907     5886.00000
    96.3038     5888.00000
    96.3169     5937.00000
    96.3301     5808.00000
    96.3432     5856.00000
    96.3563     5867.00000
    96.3695     6010.00000
    96.3826     5925.00000
    96.3957     5861.00000
    96.4089     5977.00000
    96.4220     6027.00000
    96.4351     6025.00000
    96.4482     5962.00000
    96.4614     5990.00000
    96.4745     6013.00000
    96.4876     5901.00000
    96.5008     5833.00000
    96.5139     5931.00000
    96.5270     5796.00000
    96.5402     5812.00000
    96.5533     5989.00000
    96.5664     5772.00000
    96.5796     5831.00000
    96.5927     5769.00000
    96.6058     5742.00000
    96.6189     5824.00000
    96.6321     5776.00000
    96.6452     5684.00000
    96.6583     5720.00000
    96.6715     5797.00000
    96.6846     5878.00000
    96.6977     5806.00000
    96.7109     5805.00000
    96.7240     5643.00000
    96.7371     5520.00000
    96.7502     5643.00000
    96.7634     5760.00000
    96.7765     5723.00000
    96.7896     5653.00000
    96.8028     5646.00000
    96.8159     5673.00000
    96.8290     5805.00000
    96.8422     5550.00000
    96.8553     5643.00000
    96.8684     5621.00000
    96.8815     5661.00000
    96.8947     5734.00000
    96.9078     5787.00000
    96.9209     5595.00000
    96.9341     5757.00000
    96.9472     5881.00000
    96.9603     5773.00000
    96.9735     5708.00000
    96.9866     5574.00000
    96.9997     5710.00000
    97.0128     5709.00000
    97.0260     5731.00000
    97.0391     5641.00000
    97.0522     5769.00000
    97.0654     5636.00000
    97.0785     5750.00000
    97.0916     5625.00000
    97.1048     5784.00000
    97.1179     5757.00000
    97.1310     5685.00000
    97.1442     5734.00000
    97.1573     5803.00000
    97.1704     5693.00000
    97.1835     5720.00000
    97.1967     5773.00000
    97.2098     5659.00000
    97.2229     5730.00000
    97.2361     5803.00000
    97.2492     5766.00000
    97.2623     5802.00000
    97.2755     5750.00000
    97.2886     6062.00000
    97.3017     5931.00000
    97.3148     5820.00000
    97.3280     5766.00000
    97.3411     5862.00000
    97.3542     5841.00000
    97.3674     5853.00000
    97.3805     5803.00000
    97.3936     5996.00000
    97.4068     6043.00000
    97.4199     5875.00000
    97.4330     6038.00000
    97.4462     5885.00000
    97.4593     6120.00000
    97.4724     6242.00000
    97.4855     6304.00000
    97.4987     6170.00000
    97.5118     6122.00000
    97.5249     6203.00000
    97.5381     6308.00000
    97.5512     6365.00000
    97.5643     6283.00000
    97.5775     6399.00000
    97.5906     6221.00000
    97.6037     6269.00000
    97.6168     6265.00000
    97.6300     6229.00000
    97.6431     6271.00000
    97.6562     6114.00000
    97.6694     6099.00000
    97.6825     6216.00000
    97.6956     6153.00000
    97.7088     5926.00000
    97.7219     6080.00000
    97.7350     6029.00000
    97.7481     5918.00000
    97.7613     6022.00000
    97.7744     6070.00000
    97.7875     5988.00000
    97.8007     5953.00000
    97.8138     5890.00000
    97.8269     6194.00000
    97.8401     6019.00000
    97.8532     5950.00000
    97.8663     6098.00000
    97.8794     6079.00000
    97.8926     5989.00000
    97.9057     6154.00000
    97.9188     6085.00000
    97.9320     6126.00000
    97.9451     6242.00000
    97.9582     6225.00000
    97.9714     6171.00000
    97.9845     6078.00000
    97.9976     6061.00000
    98.0107     6051.00000
    98.0239     6064.00000
    98.0370     6000.00000
    98.0501     6109.00000
    98.0633     5797.00000
    98.0764     5872.00000
    98.0895     5886.00000
    98.1027     5774.00000
    98.1158     5850.00000
    98.1289     5728.00000
    98.1421     5845.00000
    98.1552     5639.00000
    98.1683     5713.00000
    98.1814     5734.00000
    98.1946     5780.00000
    98.2077     5765.00000
    98.2208     5684.00000
    98.2340     5822.00000
    98.2471     5782.00000
    98.2602     5650.00000
    98.2734     5767.00000
    98.2865     5632.00000
    98.2996     5778.00000
    98.3128     5747.00000
    98.3259     5660.00000
    98.3390     5614.00000
    98.3521     5692.00000
    98.3653     5802.00000
    98.3784     5859.00000
    98.3915     5682.00000
    98.4047     5646.00000
    98.4178     5696.00000
    98.4309     5812.00000
    98.4441     5737.00000
    98.4572     5719.00000
    98.4703     5705.00000
    98.4834     5705.00000
    98.4966     5614.00000
    98.5097     5835.00000
    98.5228     5929.00000
    98.5360     5879.00000
    98.5491     5898.00000
    98.5622     5877.00000
    98.5754     5903.00000
    98.5885     5812.00000
    98.6016     5822.00000
    98.6147     5603.00000
    98.6279     5827.00000
    98.6410     5865.00000
    98.6541     6017.00000
    98.6673     5951.00000
    98.6804     5903.00000
    98.6935     5796.00000
    98.7067     5838.00000
    98.7198     5889.00000
    98.7329     5964.00000
    98.7460     6189.00000
    98.7592     5995.00000
    98.7723     6178.00000
    98.7854     6207.00000
    98.7986     6046.00000
    98.8117     6199.00000
    98.8248     6028.00000
    98.8380     6169.00000
    98.8511     6012.00000
    98.8642     6166.00000
    98.8773     6062.00000
    98.8905     6142.00000
    98.9036     5989.00000
    98.9167     5956.00000
    98.9299     5707.00000
    98.9430     6000.00000
    98.9561     6029.00000
    98.9693     6008.00000
    98.9824     5930.00000
    98.9955     5949.00000
    99.0087     6049.00000
    99.0218     6058.00000
    99.0349     6184.00000
    99.0480     6004.00000
    99.0612     6035.00000
    99.0743     6047.00000
    99.0874     6098.00000
    99.1006     6134.00000
    99.1137     6094.00000
    99.1268     5942.00000
    99.1400     5946.00000
    99.1531     5977.00000
    99.1662     5980.00000
    99.1793     6042.00000
    99.1925     6083.00000
    99.2056     5992.00000
    99.2187     6056.00000
    99.2319     5932.00000
    99.2450     5979.00000
    99.2581     5915.00000
    99.2713     5813.00000
    99.2844     5843.00000
    99.2975     5762.00000
    99.3107     5828.00000
    99.3238     5912.00000
    99.3369     5946.00000
    99.3500     5861.00000
    99.3632     6074.00000
    99.3763     5962.00000
    99.3894     5989.00000
    99.4026     5877.00000
    99.4157     5786.00000
    99.4288     5744.00000
    99.4420     5781.00000
    99.4551     5899.00000
    99.4682     5867.00000
    99.4813     5652.00000
    99.4945     5581.00000
    99.5076     5739.00000
    99.5207     5728.00000
    99.5339     5801.00000
    99.5470     5616.00000
    99.5601     5654.00000
    99.5733     5898.00000
    99.5864     5746.00000
    99.5995     5669.00000
    99.6126     5548.00000
    99.6258     5510.00000
    99.6389     5698.00000
    99.6520     5682.00000
    99.6652     5680.00000
    99.6783     5764.00000
    99.6914     5778.00000
    99.7046     5678.00000
    99.7177     5731.00000
    99.7308     5776.00000
    99.7439     5904.00000
    99.7571     5819.00000
    99.7702     5743.00000
    99.7833     5795.00000
    99.7965     5702.00000
    99.8096     5742.00000
    99.8227     5707.00000
    99.8359     5777.00000
    99.8490     5734.00000
    99.8621     5640.00000
    99.8753     5782.00000
    99.8884     5932.00000
    99.9015     5727.00000
    99.9146     5833.00000
    99.9278     5763.00000
    99.9409     5730.00000
    99.9540     5731.00000
    99.9672     5633.00000
    99.9803     5725.00000
    99.9934     5544.00000
