! Initial file:   D:\ZAKARY_OUAIL\MA_THESE\Deuxième_année_de_thèse\DRX\Affinement_DRX\Fullprof\Thermodiff3-nuit_NaNbO2F2\120°C\NaNbO2F2-Lent_120°C.xrdml
! Initial format:  58
! WAVE (A):      1.54060     1.54060     1.00000
! REM : data have been multiplied by     1.0000
! X_data : 2 Theta (deg.)                                                                                                                                                                                                                                                  
! Y_data : Intensity (arb. units)                                                                                                                                                                                                                                          
!     X         Y
!--------------------------------------------------------------------------------
    10.0116     7994.00000
    10.0247     7843.00000
    10.0379     7955.00000
    10.0510     7877.00000
    10.0641     7955.00000
    10.0772     7961.00000
    10.0904     7806.00000
    10.1035     7968.00000
    10.1166     7826.00000
    10.1298     7950.00000
    10.1429     8180.00000
    10.1560     8199.00000
    10.1692     8131.00000
    10.1823     8105.00000
    10.1954     7882.00000
    10.2086     8118.00000
    10.2217     8136.00000
    10.2348     8124.00000
    10.2479     8067.00000
    10.2611     7867.00000
    10.2742     8036.00000
    10.2873     7978.00000
    10.3005     7938.00000
    10.3136     8088.00000
    10.3267     8110.00000
    10.3399     7977.00000
    10.3530     7920.00000
    10.3661     7849.00000
    10.3792     8096.00000
    10.3924     8065.00000
    10.4055     8207.00000
    10.4186     7902.00000
    10.4318     7963.00000
    10.4449     7936.00000
    10.4580     8059.00000
    10.4712     7984.00000
    10.4843     7876.00000
    10.4974     7935.00000
    10.5105     8057.00000
    10.5237     7939.00000
    10.5368     7911.00000
    10.5499     8044.00000
    10.5631     8008.00000
    10.5762     7976.00000
    10.5893     7867.00000
    10.6025     8036.00000
    10.6156     7896.00000
    10.6287     7988.00000
    10.6418     7963.00000
    10.6550     8064.00000
    10.6681     7891.00000
    10.6812     7800.00000
    10.6944     7960.00000
    10.7075     8026.00000
    10.7206     7804.00000
    10.7338     8005.00000
    10.7469     7921.00000
    10.7600     7803.00000
    10.7732     8043.00000
    10.7863     8191.00000
    10.7994     8062.00000
    10.8125     8074.00000
    10.8257     7946.00000
    10.8388     8010.00000
    10.8519     8038.00000
    10.8651     8188.00000
    10.8782     8107.00000
    10.8913     8143.00000
    10.9045     8245.00000
    10.9176     8337.00000
    10.9307     8440.00000
    10.9438     8453.00000
    10.9570     8607.00000
    10.9701     8535.00000
    10.9832     8621.00000
    10.9964     8592.00000
    11.0095     8692.00000
    11.0226     8710.00000
    11.0358     8670.00000
    11.0489     8869.00000
    11.0620     8945.00000
    11.0751     9000.00000
    11.0883     9619.00000
    11.1014     9867.00000
    11.1145    10284.00000
    11.1277    11001.00000
    11.1408    11876.00000
    11.1539    13083.00000
    11.1671    14715.00000
    11.1802    17675.00000
    11.1933    21887.00000
    11.2065    29052.00000
    11.2196    40012.00000
    11.2327    55309.00000
    11.2458    70197.00000
    11.2590    79639.00000
    11.2721    76826.00000
    11.2852    66959.00000
    11.2984    51724.00000
    11.3115    37189.00000
    11.3246    25540.00000
    11.3378    17372.00000
    11.3509    12988.00000
    11.3640    10663.00000
    11.3771     9570.00000
    11.3903     9197.00000
    11.4034     9110.00000
    11.4165     8637.00000
    11.4297     8582.00000
    11.4428     8467.00000
    11.4559     8445.00000
    11.4691     8330.00000
    11.4822     8247.00000
    11.4953     8210.00000
    11.5084     8180.00000
    11.5216     8312.00000
    11.5347     8079.00000
    11.5478     8016.00000
    11.5610     8055.00000
    11.5741     8005.00000
    11.5872     8111.00000
    11.6004     7833.00000
    11.6135     8258.00000
    11.6266     8145.00000
    11.6398     8120.00000
    11.6529     7956.00000
    11.6660     8205.00000
    11.6791     7841.00000
    11.6923     7760.00000
    11.7054     7948.00000
    11.7185     8153.00000
    11.7317     8104.00000
    11.7448     8140.00000
    11.7579     8072.00000
    11.7711     8174.00000
    11.7842     8343.00000
    11.7973     8112.00000
    11.8104     8202.00000
    11.8236     8290.00000
    11.8367     8204.00000
    11.8498     8420.00000
    11.8630     8434.00000
    11.8761     8380.00000
    11.8892     8274.00000
    11.9024     8326.00000
    11.9155     8405.00000
    11.9286     8182.00000
    11.9417     8259.00000
    11.9549     8198.00000
    11.9680     8217.00000
    11.9811     8308.00000
    11.9943     8386.00000
    12.0074     8083.00000
    12.0205     8195.00000
    12.0337     8288.00000
    12.0468     8133.00000
    12.0599     8304.00000
    12.0731     8239.00000
    12.0862     8414.00000
    12.0993     8365.00000
    12.1124     8347.00000
    12.1256     8346.00000
    12.1387     8479.00000
    12.1518     8390.00000
    12.1650     8335.00000
    12.1781     8261.00000
    12.1912     8275.00000
    12.2044     8398.00000
    12.2175     8491.00000
    12.2306     8395.00000
    12.2437     8244.00000
    12.2569     8460.00000
    12.2700     8545.00000
    12.2831     8197.00000
    12.2963     8381.00000
    12.3094     8377.00000
    12.3225     8221.00000
    12.3357     8345.00000
    12.3488     8181.00000
    12.3619     8207.00000
    12.3750     8130.00000
    12.3882     8452.00000
    12.4013     8359.00000
    12.4144     8266.00000
    12.4276     8496.00000
    12.4407     8446.00000
    12.4538     8137.00000
    12.4670     8267.00000
    12.4801     8396.00000
    12.4932     8302.00000
    12.5063     8397.00000
    12.5195     8371.00000
    12.5326     8384.00000
    12.5457     8261.00000
    12.5589     8328.00000
    12.5720     8416.00000
    12.5851     8339.00000
    12.5983     8261.00000
    12.6114     8466.00000
    12.6245     8015.00000
    12.6377     8240.00000
    12.6508     8230.00000
    12.6639     8434.00000
    12.6770     8357.00000
    12.6902     8401.00000
    12.7033     8429.00000
    12.7164     8359.00000
    12.7296     8228.00000
    12.7427     8256.00000
    12.7558     8343.00000
    12.7690     8172.00000
    12.7821     8300.00000
    12.7952     8426.00000
    12.8083     8340.00000
    12.8215     8273.00000
    12.8346     8176.00000
    12.8477     8250.00000
    12.8609     8252.00000
    12.8740     8247.00000
    12.8871     8143.00000
    12.9003     8324.00000
    12.9134     8311.00000
    12.9265     8045.00000
    12.9396     8212.00000
    12.9528     8125.00000
    12.9659     8140.00000
    12.9790     8333.00000
    12.9922     8140.00000
    13.0053     8264.00000
    13.0184     8142.00000
    13.0316     8165.00000
    13.0447     8100.00000
    13.0578     8109.00000
    13.0710     8201.00000
    13.0841     8022.00000
    13.0972     8201.00000
    13.1103     8125.00000
    13.1235     8245.00000
    13.1366     8044.00000
    13.1497     8207.00000
    13.1629     8139.00000
    13.1760     8056.00000
    13.1891     7959.00000
    13.2023     8157.00000
    13.2154     8311.00000
    13.2285     8324.00000
    13.2416     8224.00000
    13.2548     8163.00000
    13.2679     8035.00000
    13.2810     8202.00000
    13.2942     8054.00000
    13.3073     8182.00000
    13.3204     8063.00000
    13.3336     7991.00000
    13.3467     7916.00000
    13.3598     8098.00000
    13.3729     8042.00000
    13.3861     8164.00000
    13.3992     8175.00000
    13.4123     8083.00000
    13.4255     8221.00000
    13.4386     7988.00000
    13.4517     8121.00000
    13.4649     8178.00000
    13.4780     8236.00000
    13.4911     8142.00000
    13.5043     7943.00000
    13.5174     8127.00000
    13.5305     8006.00000
    13.5436     8115.00000
    13.5568     8190.00000
    13.5699     8253.00000
    13.5830     8144.00000
    13.5962     8119.00000
    13.6093     7961.00000
    13.6224     8062.00000
    13.6356     7995.00000
    13.6487     8091.00000
    13.6618     8101.00000
    13.6749     8279.00000
    13.6881     8192.00000
    13.7012     8086.00000
    13.7143     8239.00000
    13.7275     8309.00000
    13.7406     8421.00000
    13.7537     8211.00000
    13.7669     7977.00000
    13.7800     8163.00000
    13.7931     8182.00000
    13.8062     8236.00000
    13.8194     8168.00000
    13.8325     8168.00000
    13.8456     8075.00000
    13.8588     8008.00000
    13.8719     8089.00000
    13.8850     7918.00000
    13.8982     8109.00000
    13.9113     8091.00000
    13.9244     8073.00000
    13.9376     7981.00000
    13.9507     8187.00000
    13.9638     7845.00000
    13.9769     8148.00000
    13.9901     8113.00000
    14.0032     8052.00000
    14.0163     8166.00000
    14.0295     7960.00000
    14.0426     8074.00000
    14.0557     8107.00000
    14.0689     7999.00000
    14.0820     8007.00000
    14.0951     8241.00000
    14.1082     8245.00000
    14.1214     8282.00000
    14.1345     8168.00000
    14.1476     8078.00000
    14.1608     7944.00000
    14.1739     8059.00000
    14.1870     7886.00000
    14.2002     8114.00000
    14.2133     7999.00000
    14.2264     7902.00000
    14.2395     7999.00000
    14.2527     7968.00000
    14.2658     8024.00000
    14.2789     8149.00000
    14.2921     8031.00000
    14.3052     8132.00000
    14.3183     8028.00000
    14.3315     7905.00000
    14.3446     8102.00000
    14.3577     8159.00000
    14.3708     7972.00000
    14.3840     8179.00000
    14.3971     8151.00000
    14.4102     8247.00000
    14.4234     8036.00000
    14.4365     8279.00000
    14.4496     8447.00000
    14.4628     8491.00000
    14.4759     8697.00000
    14.4890     9097.00000
    14.5022     9355.00000
    14.5153     9619.00000
    14.5284     9691.00000
    14.5415     9606.00000
    14.5547     9490.00000
    14.5678     9260.00000
    14.5809     9067.00000
    14.5941     8913.00000
    14.6072     8458.00000
    14.6203     8448.00000
    14.6335     8347.00000
    14.6466     8249.00000
    14.6597     8143.00000
    14.6728     8012.00000
    14.6860     7890.00000
    14.6991     7964.00000
    14.7122     7994.00000
    14.7254     8072.00000
    14.7385     8034.00000
    14.7516     8165.00000
    14.7648     7947.00000
    14.7779     7979.00000
    14.7910     7932.00000
    14.8041     7778.00000
    14.8173     7837.00000
    14.8304     8084.00000
    14.8435     8085.00000
    14.8567     8013.00000
    14.8698     7978.00000
    14.8829     7974.00000
    14.8961     7980.00000
    14.9092     7878.00000
    14.9223     7762.00000
    14.9355     7773.00000
    14.9486     7994.00000
    14.9617     7945.00000
    14.9748     7849.00000
    14.9880     7814.00000
    15.0011     7798.00000
    15.0142     7718.00000
    15.0274     7878.00000
    15.0405     7928.00000
    15.0536     7698.00000
    15.0668     7672.00000
    15.0799     7810.00000
    15.0930     7781.00000
    15.1061     7816.00000
    15.1193     7909.00000
    15.1324     7915.00000
    15.1455     7905.00000
    15.1587     7838.00000
    15.1718     7873.00000
    15.1849     7893.00000
    15.1981     7737.00000
    15.2112     7830.00000
    15.2243     7827.00000
    15.2374     7771.00000
    15.2506     7934.00000
    15.2637     7770.00000
    15.2768     7784.00000
    15.2900     7823.00000
    15.3031     8025.00000
    15.3162     7753.00000
    15.3294     8023.00000
    15.3425     7940.00000
    15.3556     7829.00000
    15.3688     7807.00000
    15.3819     7785.00000
    15.3950     7881.00000
    15.4081     7936.00000
    15.4213     7932.00000
    15.4344     7898.00000
    15.4475     7853.00000
    15.4607     7699.00000
    15.4738     7611.00000
    15.4869     7817.00000
    15.5001     7836.00000
    15.5132     7744.00000
    15.5263     7787.00000
    15.5394     7866.00000
    15.5526     7848.00000
    15.5657     7884.00000
    15.5788     7857.00000
    15.5920     7764.00000
    15.6051     7776.00000
    15.6182     7935.00000
    15.6314     7705.00000
    15.6445     7790.00000
    15.6576     7934.00000
    15.6707     7868.00000
    15.6839     7820.00000
    15.6970     7693.00000
    15.7101     7726.00000
    15.7233     7815.00000
    15.7364     7803.00000
    15.7495     7780.00000
    15.7627     7832.00000
    15.7758     7907.00000
    15.7889     7653.00000
    15.8021     7709.00000
    15.8152     7950.00000
    15.8283     7748.00000
    15.8414     7785.00000
    15.8546     7823.00000
    15.8677     7854.00000
    15.8808     7799.00000
    15.8940     7870.00000
    15.9071     7929.00000
    15.9202     8035.00000
    15.9334     7816.00000
    15.9465     7980.00000
    15.9596     7903.00000
    15.9727     7913.00000
    15.9859     7900.00000
    15.9990     7725.00000
    16.0121     7939.00000
    16.0253     8006.00000
    16.0384     7771.00000
    16.0515     7735.00000
    16.0647     7803.00000
    16.0778     7810.00000
    16.0909     7902.00000
    16.1040     7904.00000
    16.1172     7760.00000
    16.1303     7576.00000
    16.1434     7561.00000
    16.1566     7776.00000
    16.1697     7732.00000
    16.1828     7667.00000
    16.1960     7765.00000
    16.2091     7696.00000
    16.2222     7818.00000
    16.2353     7858.00000
    16.2485     7806.00000
    16.2616     7768.00000
    16.2747     7837.00000
    16.2879     7670.00000
    16.3010     7628.00000
    16.3141     7670.00000
    16.3273     7952.00000
    16.3404     7860.00000
    16.3535     7770.00000
    16.3667     7816.00000
    16.3798     7702.00000
    16.3929     7715.00000
    16.4060     7492.00000
    16.4192     7758.00000
    16.4323     7666.00000
    16.4454     7803.00000
    16.4586     7765.00000
    16.4717     7913.00000
    16.4848     7904.00000
    16.4980     7775.00000
    16.5111     7845.00000
    16.5242     7705.00000
    16.5373     7914.00000
    16.5505     7906.00000
    16.5636     7699.00000
    16.5767     7640.00000
    16.5899     7496.00000
    16.6030     7640.00000
    16.6161     7666.00000
    16.6293     7734.00000
    16.6424     7646.00000
    16.6555     7712.00000
    16.6686     7658.00000
    16.6818     7807.00000
    16.6949     7637.00000
    16.7080     7659.00000
    16.7212     7721.00000
    16.7343     7898.00000
    16.7474     7933.00000
    16.7606     7985.00000
    16.7737     8189.00000
    16.7868     8419.00000
    16.8000     8428.00000
    16.8131     8055.00000
    16.8262     8094.00000
    16.8393     7954.00000
    16.8525     8018.00000
    16.8656     7852.00000
    16.8787     7811.00000
    16.8919     8002.00000
    16.9050     7705.00000
    16.9181     7739.00000
    16.9313     7833.00000
    16.9444     7567.00000
    16.9575     7597.00000
    16.9706     7759.00000
    16.9838     7730.00000
    16.9969     7779.00000
    17.0100     7657.00000
    17.0232     7554.00000
    17.0363     7603.00000
    17.0494     7468.00000
    17.0626     7714.00000
    17.0757     7614.00000
    17.0888     7403.00000
    17.1019     7398.00000
    17.1151     7481.00000
    17.1282     7549.00000
    17.1413     7704.00000
    17.1545     7626.00000
    17.1676     7782.00000
    17.1807     7765.00000
    17.1939     7467.00000
    17.2070     7566.00000
    17.2201     7485.00000
    17.2333     7419.00000
    17.2464     7583.00000
    17.2595     7616.00000
    17.2726     7581.00000
    17.2858     7515.00000
    17.2989     7678.00000
    17.3120     7532.00000
    17.3252     7590.00000
    17.3383     7658.00000
    17.3514     7522.00000
    17.3646     7554.00000
    17.3777     7537.00000
    17.3908     7288.00000
    17.4039     7562.00000
    17.4171     7491.00000
    17.4302     7584.00000
    17.4433     7726.00000
    17.4565     7570.00000
    17.4696     7528.00000
    17.4827     7382.00000
    17.4959     7699.00000
    17.5090     7531.00000
    17.5221     7443.00000
    17.5352     7548.00000
    17.5484     7482.00000
    17.5615     7506.00000
    17.5746     7642.00000
    17.5878     7413.00000
    17.6009     7498.00000
    17.6140     7532.00000
    17.6272     7567.00000
    17.6403     7576.00000
    17.6534     7726.00000
    17.6666     7527.00000
    17.6797     7501.00000
    17.6928     7539.00000
    17.7059     7528.00000
    17.7191     7573.00000
    17.7322     7534.00000
    17.7453     7443.00000
    17.7585     7413.00000
    17.7716     7354.00000
    17.7847     7291.00000
    17.7979     7246.00000
    17.8110     7418.00000
    17.8241     7573.00000
    17.8372     7344.00000
    17.8504     7411.00000
    17.8635     7600.00000
    17.8766     7448.00000
    17.8898     7662.00000
    17.9029     7651.00000
    17.9160     7592.00000
    17.9292     7564.00000
    17.9423     7880.00000
    17.9554     7690.00000
    17.9685     7783.00000
    17.9817     7432.00000
    17.9948     7329.00000
    18.0079     7299.00000
    18.0211     7584.00000
    18.0342     7554.00000
    18.0473     7453.00000
    18.0605     7383.00000
    18.0736     7422.00000
    18.0867     7227.00000
    18.0998     7384.00000
    18.1130     7533.00000
    18.1261     7446.00000
    18.1392     7437.00000
    18.1524     7326.00000
    18.1655     7447.00000
    18.1786     7413.00000
    18.1918     7314.00000
    18.2049     7457.00000
    18.2180     7516.00000
    18.2312     7374.00000
    18.2443     7436.00000
    18.2574     7486.00000
    18.2705     7388.00000
    18.2837     7240.00000
    18.2968     7408.00000
    18.3099     7415.00000
    18.3231     7283.00000
    18.3362     7316.00000
    18.3493     7413.00000
    18.3625     7391.00000
    18.3756     7575.00000
    18.3887     7353.00000
    18.4018     7412.00000
    18.4150     7439.00000
    18.4281     7296.00000
    18.4412     7298.00000
    18.4544     7369.00000
    18.4675     7271.00000
    18.4806     7260.00000
    18.4938     7342.00000
    18.5069     7410.00000
    18.5200     7408.00000
    18.5331     7168.00000
    18.5463     7055.00000
    18.5594     7258.00000
    18.5725     7179.00000
    18.5857     7418.00000
    18.5988     7224.00000
    18.6119     7462.00000
    18.6251     7484.00000
    18.6382     7244.00000
    18.6513     7206.00000
    18.6645     7357.00000
    18.6776     7403.00000
    18.6907     7369.00000
    18.7038     7526.00000
    18.7170     7313.00000
    18.7301     7298.00000
    18.7432     7339.00000
    18.7564     7284.00000
    18.7695     7338.00000
    18.7826     7482.00000
    18.7958     7307.00000
    18.8089     7527.00000
    18.8220     7258.00000
    18.8351     7049.00000
    18.8483     7262.00000
    18.8614     7103.00000
    18.8745     7236.00000
    18.8877     7298.00000
    18.9008     7386.00000
    18.9139     7345.00000
    18.9271     7259.00000
    18.9402     7319.00000
    18.9533     7241.00000
    18.9664     7344.00000
    18.9796     7282.00000
    18.9927     7397.00000
    19.0058     7240.00000
    19.0190     7256.00000
    19.0321     7283.00000
    19.0452     7314.00000
    19.0584     7335.00000
    19.0715     7332.00000
    19.0846     7421.00000
    19.0978     7477.00000
    19.1109     7412.00000
    19.1240     7368.00000
    19.1371     7417.00000
    19.1503     7493.00000
    19.1634     7525.00000
    19.1765     7704.00000
    19.1897     7667.00000
    19.2028     7900.00000
    19.2159     7793.00000
    19.2291     7696.00000
    19.2422     7776.00000
    19.2553     7886.00000
    19.2684     7692.00000
    19.2816     7694.00000
    19.2947     7752.00000
    19.3078     7706.00000
    19.3210     7739.00000
    19.3341     7718.00000
    19.3472     7730.00000
    19.3604     7787.00000
    19.3735     7699.00000
    19.3866     7656.00000
    19.3997     7402.00000
    19.4129     7719.00000
    19.4260     7793.00000
    19.4391     7786.00000
    19.4523     7758.00000
    19.4654     7658.00000
    19.4785     7745.00000
    19.4917     7747.00000
    19.5048     7714.00000
    19.5179     7705.00000
    19.5311     7682.00000
    19.5442     7843.00000
    19.5573     7800.00000
    19.5704     8218.00000
    19.5836     8078.00000
    19.5967     7761.00000
    19.6098     8085.00000
    19.6230     7944.00000
    19.6361     8400.00000
    19.6492     8533.00000
    19.6624     8489.00000
    19.6755     8778.00000
    19.6886     8825.00000
    19.7017     9009.00000
    19.7149     9116.00000
    19.7280     9517.00000
    19.7411     9997.00000
    19.7543    11017.00000
    19.7674    12436.00000
    19.7805    14223.00000
    19.7937    17121.00000
    19.8068    21905.00000
    19.8199    29706.00000
    19.8330    41460.00000
    19.8462    56174.00000
    19.8593    73675.00000
    19.8724    88192.00000
    19.8856    93945.00000
    19.8987    88161.00000
    19.9118    79012.00000
    19.9250    68174.00000
    19.9381    55995.00000
    19.9512    42186.00000
    19.9643    30616.00000
    19.9775    21882.00000
    19.9906    16130.00000
    20.0037    12742.00000
    20.0169    11137.00000
    20.0300    10149.00000
    20.0431     9682.00000
    20.0563     9240.00000
    20.0694     9036.00000
    20.0825     8799.00000
    20.0957     8632.00000
    20.1088     8538.00000
    20.1219     8286.00000
    20.1350     8198.00000
    20.1482     8085.00000
    20.1613     8001.00000
    20.1744     7745.00000
    20.1876     7891.00000
    20.2007     8209.00000
    20.2138     7985.00000
    20.2270     8039.00000
    20.2401     7919.00000
    20.2532     7976.00000
    20.2663     7983.00000
    20.2795     8072.00000
    20.2926     7823.00000
    20.3057     7819.00000
    20.3189     7771.00000
    20.3320     7690.00000
    20.3451     7453.00000
    20.3583     7755.00000
    20.3714     7788.00000
    20.3845     7733.00000
    20.3976     7613.00000
    20.4108     7880.00000
    20.4239     7482.00000
    20.4370     7646.00000
    20.4502     7714.00000
    20.4633     7594.00000
    20.4764     7523.00000
    20.4896     7465.00000
    20.5027     7534.00000
    20.5158     7518.00000
    20.5290     7578.00000
    20.5421     7648.00000
    20.5552     7443.00000
    20.5683     7433.00000
    20.5815     7666.00000
    20.5946     7391.00000
    20.6077     7494.00000
    20.6209     7600.00000
    20.6340     7710.00000
    20.6471     7754.00000
    20.6603     7506.00000
    20.6734     7686.00000
    20.6865     7607.00000
    20.6996     7467.00000
    20.7128     7658.00000
    20.7259     7600.00000
    20.7390     7358.00000
    20.7522     7523.00000
    20.7653     7583.00000
    20.7784     7423.00000
    20.7916     7543.00000
    20.8047     7668.00000
    20.8178     7614.00000
    20.8309     7384.00000
    20.8441     7516.00000
    20.8572     7355.00000
    20.8703     7374.00000
    20.8835     7334.00000
    20.8966     7358.00000
    20.9097     7563.00000
    20.9229     7352.00000
    20.9360     7454.00000
    20.9491     7506.00000
    20.9623     7400.00000
    20.9754     7420.00000
    20.9885     7392.00000
    21.0016     7520.00000
    21.0148     7364.00000
    21.0279     7651.00000
    21.0410     7495.00000
    21.0542     7476.00000
    21.0673     7527.00000
    21.0804     7270.00000
    21.0936     7407.00000
    21.1067     7519.00000
    21.1198     7411.00000
    21.1329     7285.00000
    21.1461     7316.00000
    21.1592     7308.00000
    21.1723     7605.00000
    21.1855     7595.00000
    21.1986     7311.00000
    21.2117     7490.00000
    21.2249     7437.00000
    21.2380     7297.00000
    21.2511     7292.00000
    21.2642     7535.00000
    21.2774     7570.00000
    21.2905     7476.00000
    21.3036     7480.00000
    21.3168     7302.00000
    21.3299     7597.00000
    21.3430     7571.00000
    21.3562     7542.00000
    21.3693     7466.00000
    21.3824     7504.00000
    21.3956     7564.00000
    21.4087     7637.00000
    21.4218     7549.00000
    21.4349     7402.00000
    21.4481     7554.00000
    21.4612     7499.00000
    21.4743     7547.00000
    21.4875     7419.00000
    21.5006     7314.00000
    21.5137     7400.00000
    21.5269     7463.00000
    21.5400     7547.00000
    21.5531     7457.00000
    21.5662     7425.00000
    21.5794     7320.00000
    21.5925     7444.00000
    21.6056     7248.00000
    21.6188     7482.00000
    21.6319     7560.00000
    21.6450     7480.00000
    21.6582     7569.00000
    21.6713     7528.00000
    21.6844     7628.00000
    21.6975     7665.00000
    21.7107     7382.00000
    21.7238     7468.00000
    21.7369     7522.00000
    21.7501     7456.00000
    21.7632     7489.00000
    21.7763     7531.00000
    21.7895     7544.00000
    21.8026     7437.00000
    21.8157     7465.00000
    21.8288     7570.00000
    21.8420     7586.00000
    21.8551     7659.00000
    21.8682     7664.00000
    21.8814     7568.00000
    21.8945     7642.00000
    21.9076     7550.00000
    21.9208     7733.00000
    21.9339     7681.00000
    21.9470     7770.00000
    21.9602     7614.00000
    21.9733     7600.00000
    21.9864     7691.00000
    21.9995     7472.00000
    22.0127     7430.00000
    22.0258     7397.00000
    22.0389     7381.00000
    22.0521     7519.00000
    22.0652     7414.00000
    22.0783     7433.00000
    22.0915     7489.00000
    22.1046     7387.00000
    22.1177     7466.00000
    22.1308     7466.00000
    22.1440     7311.00000
    22.1571     7414.00000
    22.1702     7539.00000
    22.1834     7461.00000
    22.1965     7311.00000
    22.2096     7414.00000
    22.2228     7590.00000
    22.2359     7365.00000
    22.2490     7336.00000
    22.2621     7586.00000
    22.2753     7392.00000
    22.2884     7439.00000
    22.3015     7435.00000
    22.3147     7450.00000
    22.3278     7541.00000
    22.3409     7503.00000
    22.3541     7573.00000
    22.3672     7418.00000
    22.3803     7529.00000
    22.3935     7706.00000
    22.4066     7662.00000
    22.4197     7646.00000
    22.4328     7728.00000
    22.4460     7630.00000
    22.4591     7713.00000
    22.4722     7808.00000
    22.4854     8107.00000
    22.4985     8223.00000
    22.5116     8420.00000
    22.5248     8586.00000
    22.5379     9102.00000
    22.5510     9824.00000
    22.5641    11068.00000
    22.5773    13223.00000
    22.5904    17056.00000
    22.6035    22663.00000
    22.6167    29078.00000
    22.6298    33623.00000
    22.6429    33571.00000
    22.6561    31300.00000
    22.6692    28282.00000
    22.6823    25602.00000
    22.6954    22775.00000
    22.7086    19017.00000
    22.7217    15527.00000
    22.7348    12110.00000
    22.7480    10247.00000
    22.7611     9039.00000
    22.7742     8637.00000
    22.7874     8117.00000
    22.8005     8149.00000
    22.8136     8146.00000
    22.8268     7834.00000
    22.8399     7948.00000
    22.8530     7835.00000
    22.8661     7562.00000
    22.8793     7697.00000
    22.8924     7631.00000
    22.9055     7688.00000
    22.9187     7363.00000
    22.9318     7553.00000
    22.9449     7514.00000
    22.9581     7498.00000
    22.9712     7573.00000
    22.9843     7360.00000
    22.9974     7247.00000
    23.0106     7440.00000
    23.0237     7458.00000
    23.0368     7487.00000
    23.0500     7477.00000
    23.0631     7549.00000
    23.0762     7650.00000
    23.0894     7398.00000
    23.1025     7413.00000
    23.1156     7552.00000
    23.1287     7496.00000
    23.1419     7601.00000
    23.1550     7461.00000
    23.1681     7478.00000
    23.1813     7511.00000
    23.1944     7560.00000
    23.2075     7507.00000
    23.2207     7654.00000
    23.2338     7538.00000
    23.2469     7504.00000
    23.2601     7600.00000
    23.2732     7622.00000
    23.2863     7473.00000
    23.2994     7517.00000
    23.3126     7671.00000
    23.3257     7540.00000
    23.3388     7613.00000
    23.3520     7688.00000
    23.3651     7667.00000
    23.3782     7644.00000
    23.3914     7469.00000
    23.4045     7608.00000
    23.4176     7572.00000
    23.4307     7601.00000
    23.4439     7349.00000
    23.4570     7624.00000
    23.4701     7443.00000
    23.4833     7498.00000
    23.4964     7500.00000
    23.5095     7592.00000
    23.5227     7527.00000
    23.5358     7710.00000
    23.5489     7714.00000
    23.5620     7781.00000
    23.5752     7699.00000
    23.5883     7750.00000
    23.6014     7763.00000
    23.6146     7670.00000
    23.6277     7919.00000
    23.6408     7785.00000
    23.6540     7744.00000
    23.6671     7936.00000
    23.6802     8163.00000
    23.6933     8351.00000
    23.7065     8520.00000
    23.7196     8690.00000
    23.7327     9167.00000
    23.7459     9735.00000
    23.7590    11476.00000
    23.7721    14348.00000
    23.7853    18571.00000
    23.7984    23694.00000
    23.8115    28862.00000
    23.8247    29948.00000
    23.8378    27863.00000
    23.8509    25208.00000
    23.8640    23528.00000
    23.8772    21940.00000
    23.8903    19453.00000
    23.9034    16309.00000
    23.9166    13574.00000
    23.9297    11204.00000
    23.9428     9957.00000
    23.9560     9382.00000
    23.9691     8876.00000
    23.9822     8990.00000
    23.9953     8613.00000
    24.0085     8738.00000
    24.0216     8811.00000
    24.0347     8985.00000
    24.0479     9232.00000
    24.0610     9820.00000
    24.0741    10751.00000
    24.0873    12989.00000
    24.1004    16434.00000
    24.1135    22188.00000
    24.1266    30074.00000
    24.1398    36378.00000
    24.1529    37670.00000
    24.1660    33659.00000
    24.1792    29394.00000
    24.1923    27811.00000
    24.2054    25668.00000
    24.2186    22501.00000
    24.2317    18026.00000
    24.2448    14377.00000
    24.2580    11675.00000
    24.2711     9886.00000
    24.2842     9032.00000
    24.2973     8452.00000
    24.3105     8399.00000
    24.3236     8217.00000
    24.3367     8146.00000
    24.3499     7834.00000
    24.3630     8061.00000
    24.3761     8064.00000
    24.3893     8045.00000
    24.4024     8013.00000
    24.4155     7933.00000
    24.4286     7905.00000
    24.4418     7843.00000
    24.4549     7865.00000
    24.4680     7884.00000
    24.4812     7871.00000
    24.4943     7729.00000
    24.5074     7341.00000
    24.5206     7560.00000
    24.5337     7520.00000
    24.5468     7418.00000
    24.5599     7512.00000
    24.5731     7522.00000
    24.5862     7406.00000
    24.5993     7362.00000
    24.6125     7510.00000
    24.6256     7478.00000
    24.6387     7395.00000
    24.6519     7488.00000
    24.6650     7436.00000
    24.6781     7585.00000
    24.6913     7414.00000
    24.7044     7379.00000
    24.7175     7420.00000
    24.7306     7408.00000
    24.7438     7437.00000
    24.7569     7523.00000
    24.7700     7371.00000
    24.7832     7414.00000
    24.7963     7459.00000
    24.8094     7506.00000
    24.8226     7589.00000
    24.8357     7585.00000
    24.8488     7582.00000
    24.8619     7302.00000
    24.8751     7428.00000
    24.8882     7286.00000
    24.9013     7445.00000
    24.9145     7326.00000
    24.9276     7252.00000
    24.9407     7350.00000
    24.9539     7386.00000
    24.9670     7458.00000
    24.9801     7415.00000
    24.9932     7424.00000
    25.0064     7428.00000
    25.0195     7388.00000
    25.0326     7305.00000
    25.0458     7337.00000
    25.0589     7574.00000
    25.0720     7351.00000
    25.0852     7456.00000
    25.0983     7409.00000
    25.1114     7455.00000
    25.1246     7458.00000
    25.1377     7328.00000
    25.1508     7466.00000
    25.1639     7281.00000
    25.1771     7279.00000
    25.1902     7452.00000
    25.2033     7374.00000
    25.2165     7331.00000
    25.2296     7343.00000
    25.2427     7388.00000
    25.2559     7450.00000
    25.2690     7649.00000
    25.2821     7581.00000
    25.2952     7685.00000
    25.3084     7709.00000
    25.3215     7603.00000
    25.3346     7608.00000
    25.3478     7333.00000
    25.3609     7482.00000
    25.3740     7474.00000
    25.3872     7603.00000
    25.4003     7341.00000
    25.4134     7291.00000
    25.4265     7232.00000
    25.4397     7254.00000
    25.4528     7277.00000
    25.4659     7337.00000
    25.4791     7228.00000
    25.4922     7403.00000
    25.5053     7346.00000
    25.5185     7354.00000
    25.5316     7240.00000
    25.5447     7452.00000
    25.5579     7418.00000
    25.5710     7358.00000
    25.5841     7311.00000
    25.5972     7381.00000
    25.6104     7430.00000
    25.6235     7409.00000
    25.6366     7301.00000
    25.6498     7344.00000
    25.6629     7495.00000
    25.6760     7385.00000
    25.6892     7227.00000
    25.7023     7123.00000
    25.7154     7282.00000
    25.7285     7319.00000
    25.7417     7347.00000
    25.7548     7323.00000
    25.7679     7165.00000
    25.7811     7399.00000
    25.7942     7237.00000
    25.8073     7419.00000
    25.8205     7378.00000
    25.8336     7352.00000
    25.8467     7245.00000
    25.8598     7336.00000
    25.8730     7410.00000
    25.8861     7406.00000
    25.8992     7123.00000
    25.9124     7498.00000
    25.9255     7296.00000
    25.9386     7209.00000
    25.9518     7425.00000
    25.9649     7643.00000
    25.9780     7356.00000
    25.9911     7244.00000
    26.0043     7389.00000
    26.0174     7407.00000
    26.0305     7400.00000
    26.0437     7329.00000
    26.0568     7255.00000
    26.0699     7226.00000
    26.0831     7074.00000
    26.0962     7186.00000
    26.1093     7233.00000
    26.1225     7569.00000
    26.1356     7249.00000
    26.1487     7445.00000
    26.1618     7426.00000
    26.1750     7270.00000
    26.1881     7250.00000
    26.2012     7231.00000
    26.2144     7192.00000
    26.2275     7048.00000
    26.2406     7160.00000
    26.2538     7223.00000
    26.2669     7149.00000
    26.2800     7141.00000
    26.2931     7168.00000
    26.3063     7321.00000
    26.3194     7146.00000
    26.3325     7156.00000
    26.3457     7150.00000
    26.3588     7148.00000
    26.3719     7278.00000
    26.3851     7234.00000
    26.3982     7385.00000
    26.4113     7404.00000
    26.4244     7235.00000
    26.4376     7066.00000
    26.4507     7248.00000
    26.4638     7284.00000
    26.4770     7287.00000
    26.4901     7091.00000
    26.5032     7083.00000
    26.5164     7142.00000
    26.5295     7122.00000
    26.5426     7201.00000
    26.5558     7136.00000
    26.5689     7263.00000
    26.5820     7223.00000
    26.5951     7059.00000
    26.6083     7231.00000
    26.6214     7250.00000
    26.6345     7353.00000
    26.6477     7014.00000
    26.6608     7205.00000
    26.6739     7238.00000
    26.6871     7054.00000
    26.7002     7212.00000
    26.7133     7099.00000
    26.7264     7289.00000
    26.7396     7446.00000
    26.7527     7260.00000
    26.7658     7225.00000
    26.7790     7204.00000
    26.7921     7214.00000
    26.8052     7035.00000
    26.8184     7096.00000
    26.8315     7240.00000
    26.8446     7271.00000
    26.8577     7088.00000
    26.8709     7079.00000
    26.8840     7105.00000
    26.8971     7082.00000
    26.9103     7089.00000
    26.9234     7259.00000
    26.9365     7266.00000
    26.9497     7032.00000
    26.9628     7018.00000
    26.9759     7279.00000
    26.9891     7044.00000
    27.0022     6983.00000
    27.0153     7224.00000
    27.0284     7507.00000
    27.0416     7417.00000
    27.0547     7370.00000
    27.0678     7322.00000
    27.0810     7475.00000
    27.0941     7663.00000
    27.1072     7556.00000
    27.1204     7387.00000
    27.1335     7262.00000
    27.1466     7497.00000
    27.1597     7518.00000
    27.1729     7484.00000
    27.1860     7366.00000
    27.1991     7260.00000
    27.2123     7362.00000
    27.2254     7402.00000
    27.2385     7480.00000
    27.2517     7424.00000
    27.2648     7467.00000
    27.2779     7491.00000
    27.2910     7410.00000
    27.3042     7389.00000
    27.3173     7493.00000
    27.3304     7582.00000
    27.3436     7641.00000
    27.3567     7301.00000
    27.3698     7497.00000
    27.3830     7544.00000
    27.3961     7516.00000
    27.4092     7387.00000
    27.4224     7560.00000
    27.4355     7334.00000
    27.4486     7413.00000
    27.4617     7335.00000
    27.4749     7499.00000
    27.4880     7328.00000
    27.5011     7407.00000
    27.5143     7375.00000
    27.5274     7534.00000
    27.5405     7493.00000
    27.5537     7505.00000
    27.5668     7220.00000
    27.5799     7246.00000
    27.5930     7476.00000
    27.6062     7391.00000
    27.6193     7629.00000
    27.6324     7675.00000
    27.6456     7474.00000
    27.6587     7519.00000
    27.6718     7763.00000
    27.6850     7797.00000
    27.6981     7865.00000
    27.7112     7896.00000
    27.7243     7702.00000
    27.7375     7914.00000
    27.7506     8156.00000
    27.7637     8284.00000
    27.7769     8353.00000
    27.7900     8702.00000
    27.8031     8640.00000
    27.8163     8675.00000
    27.8294     8873.00000
    27.8425     9275.00000
    27.8556     9474.00000
    27.8688     9834.00000
    27.8819    10206.00000
    27.8950    10683.00000
    27.9082    11251.00000
    27.9213    12187.00000
    27.9344    13753.00000
    27.9476    16027.00000
    27.9607    19847.00000
    27.9738    25947.00000
    27.9870    35968.00000
    28.0001    50228.00000
    28.0132    66971.00000
    28.0263    82046.00000
    28.0395    88742.00000
    28.0526    85749.00000
    28.0657    76723.00000
    28.0789    67482.00000
    28.0920    61822.00000
    28.1051    56623.00000
    28.1183    51018.00000
    28.1314    42008.00000
    28.1445    32381.00000
    28.1576    24362.00000
    28.1708    18481.00000
    28.1839    14680.00000
    28.1970    12679.00000
    28.2102    11172.00000
    28.2233    10629.00000
    28.2364    10002.00000
    28.2496     9287.00000
    28.2627     9095.00000
    28.2758     8639.00000
    28.2889     8586.00000
    28.3021     8341.00000
    28.3152     8219.00000
    28.3283     8169.00000
    28.3415     8246.00000
    28.3546     8151.00000
    28.3677     7779.00000
    28.3809     7818.00000
    28.3940     7987.00000
    28.4071     7732.00000
    28.4203     7792.00000
    28.4334     7848.00000
    28.4465     7838.00000
    28.4596     7860.00000
    28.4728     8104.00000
    28.4859     8248.00000
    28.4990     8517.00000
    28.5122     8673.00000
    28.5253     9095.00000
    28.5384     8798.00000
    28.5516     8785.00000
    28.5647     8708.00000
    28.5778     8633.00000
    28.5909     8552.00000
    28.6041     8382.00000
    28.6172     8200.00000
    28.6303     7975.00000
    28.6435     7875.00000
    28.6566     7675.00000
    28.6697     7440.00000
    28.6829     7532.00000
    28.6960     7521.00000
    28.7091     7319.00000
    28.7222     7598.00000
    28.7354     7753.00000
    28.7485     7589.00000
    28.7616     7646.00000
    28.7748     7678.00000
    28.7879     7725.00000
    28.8010     7699.00000
    28.8142     7866.00000
    28.8273     7858.00000
    28.8404     7737.00000
    28.8536     7990.00000
    28.8667     8150.00000
    28.8798     8220.00000
    28.8929     8441.00000
    28.9061     8768.00000
    28.9192     9029.00000
    28.9323     9595.00000
    28.9455    11151.00000
    28.9586    13784.00000
    28.9717    18256.00000
    28.9849    25642.00000
    28.9980    34576.00000
    29.0111    40411.00000
    29.0242    39040.00000
    29.0374    33025.00000
    29.0505    28043.00000
    29.0636    26232.00000
    29.0768    26411.00000
    29.0899    25708.00000
    29.1030    22532.00000
    29.1162    18173.00000
    29.1293    14533.00000
    29.1424    11497.00000
    29.1555    10009.00000
    29.1687     9450.00000
    29.1818     8871.00000
    29.1949     8841.00000
    29.2081     8737.00000
    29.2212     9234.00000
    29.2343     9272.00000
    29.2475    10278.00000
    29.2606    11246.00000
    29.2737    12451.00000
    29.2869    13487.00000
    29.3000    14147.00000
    29.3131    14946.00000
    29.3262    15611.00000
    29.3394    16255.00000
    29.3525    16858.00000
    29.3656    16051.00000
    29.3788    14735.00000
    29.3919    13601.00000
    29.4050    12384.00000
    29.4182    11885.00000
    29.4313    11472.00000
    29.4444    10444.00000
    29.4575     9500.00000
    29.4707     8763.00000
    29.4838     8416.00000
    29.4969     7921.00000
    29.5101     7807.00000
    29.5232     7853.00000
    29.5363     7534.00000
    29.5495     7258.00000
    29.5626     7391.00000
    29.5757     7525.00000
    29.5888     7448.00000
    29.6020     7386.00000
    29.6151     7064.00000
    29.6282     7462.00000
    29.6414     7186.00000
    29.6545     7286.00000
    29.6676     7156.00000
    29.6808     7059.00000
    29.6939     7391.00000
    29.7070     7270.00000
    29.7201     7194.00000
    29.7333     7139.00000
    29.7464     7216.00000
    29.7595     7257.00000
    29.7727     7174.00000
    29.7858     7163.00000
    29.7989     7341.00000
    29.8121     7370.00000
    29.8252     7228.00000
    29.8383     7176.00000
    29.8515     7138.00000
    29.8646     7053.00000
    29.8777     7127.00000
    29.8908     6950.00000
    29.9040     7133.00000
    29.9171     7268.00000
    29.9302     7143.00000
    29.9434     7005.00000
    29.9565     7207.00000
    29.9696     7007.00000
    29.9828     7029.00000
    29.9959     7154.00000
    30.0090     7141.00000
    30.0221     7058.00000
    30.0353     6931.00000
    30.0484     7163.00000
    30.0615     7040.00000
    30.0747     7081.00000
    30.0878     6969.00000
    30.1009     6998.00000
    30.1141     7140.00000
    30.1272     6963.00000
    30.1403     6963.00000
    30.1535     6955.00000
    30.1666     7058.00000
    30.1797     6996.00000
    30.1928     6958.00000
    30.2060     6988.00000
    30.2191     6960.00000
    30.2322     7084.00000
    30.2454     7188.00000
    30.2585     7115.00000
    30.2716     7173.00000
    30.2848     7167.00000
    30.2979     6885.00000
    30.3110     6873.00000
    30.3241     6985.00000
    30.3373     7099.00000
    30.3504     7115.00000
    30.3635     7016.00000
    30.3767     6727.00000
    30.3898     6847.00000
    30.4029     6811.00000
    30.4161     6983.00000
    30.4292     6944.00000
    30.4423     6917.00000
    30.4554     7010.00000
    30.4686     7039.00000
    30.4817     7051.00000
    30.4948     6946.00000
    30.5080     6986.00000
    30.5211     6917.00000
    30.5342     6943.00000
    30.5474     6902.00000
    30.5605     6964.00000
    30.5736     6955.00000
    30.5868     6916.00000
    30.5999     7071.00000
    30.6130     7055.00000
    30.6261     7377.00000
    30.6393     7083.00000
    30.6524     6936.00000
    30.6655     6850.00000
    30.6787     6913.00000
    30.6918     6945.00000
    30.7049     7043.00000
    30.7181     6897.00000
    30.7312     7040.00000
    30.7443     6918.00000
    30.7574     6955.00000
    30.7706     6993.00000
    30.7837     7039.00000
    30.7968     6891.00000
    30.8100     7083.00000
    30.8231     7127.00000
    30.8362     6787.00000
    30.8494     7099.00000
    30.8625     6962.00000
    30.8756     7080.00000
    30.8887     6800.00000
    30.9019     6954.00000
    30.9150     6880.00000
    30.9281     6873.00000
    30.9413     6898.00000
    30.9544     6951.00000
    30.9675     6955.00000
    30.9807     6885.00000
    30.9938     6839.00000
    31.0069     6902.00000
    31.0200     6962.00000
    31.0332     6884.00000
    31.0463     6812.00000
    31.0594     6974.00000
    31.0726     6930.00000
    31.0857     6977.00000
    31.0988     6991.00000
    31.1120     7067.00000
    31.1251     7107.00000
    31.1382     7023.00000
    31.1514     7101.00000
    31.1645     6929.00000
    31.1776     6919.00000
    31.1907     6967.00000
    31.2039     6935.00000
    31.2170     7064.00000
    31.2301     7011.00000
    31.2433     6884.00000
    31.2564     6717.00000
    31.2695     6919.00000
    31.2827     6890.00000
    31.2958     6988.00000
    31.3089     6980.00000
    31.3220     6939.00000
    31.3352     6895.00000
    31.3483     6840.00000
    31.3614     6767.00000
    31.3746     6709.00000
    31.3877     7006.00000
    31.4008     6848.00000
    31.4140     6842.00000
    31.4271     6703.00000
    31.4402     6746.00000
    31.4533     6786.00000
    31.4665     6814.00000
    31.4796     6883.00000
    31.4927     6826.00000
    31.5059     6853.00000
    31.5190     6840.00000
    31.5321     6954.00000
    31.5453     6820.00000
    31.5584     6960.00000
    31.5715     6852.00000
    31.5847     6944.00000
    31.5978     6775.00000
    31.6109     6760.00000
    31.6240     6915.00000
    31.6372     7036.00000
    31.6503     6893.00000
    31.6634     7036.00000
    31.6766     6945.00000
    31.6897     7060.00000
    31.7028     6926.00000
    31.7160     6807.00000
    31.7291     6607.00000
    31.7422     6832.00000
    31.7553     6877.00000
    31.7685     6836.00000
    31.7816     6825.00000
    31.7947     6748.00000
    31.8079     6754.00000
    31.8210     6707.00000
    31.8341     6651.00000
    31.8473     6837.00000
    31.8604     6933.00000
    31.8735     6786.00000
    31.8866     6881.00000
    31.8998     6922.00000
    31.9129     6847.00000
    31.9260     6913.00000
    31.9392     6957.00000
    31.9523     6991.00000
    31.9654     6997.00000
    31.9786     7021.00000
    31.9917     6957.00000
    32.0048     6728.00000
    32.0180     6855.00000
    32.0311     6865.00000
    32.0442     6923.00000
    32.0573     6741.00000
    32.0705     6900.00000
    32.0836     6880.00000
    32.0967     6791.00000
    32.1099     6795.00000
    32.1230     6731.00000
    32.1361     6908.00000
    32.1493     6978.00000
    32.1624     6846.00000
    32.1755     6877.00000
    32.1886     6897.00000
    32.2018     6752.00000
    32.2149     6886.00000
    32.2280     6929.00000
    32.2412     6907.00000
    32.2543     6835.00000
    32.2674     6940.00000
    32.2806     6796.00000
    32.2937     7099.00000
    32.3068     6951.00000
    32.3199     6886.00000
    32.3331     7039.00000
    32.3462     6985.00000
    32.3593     6925.00000
    32.3725     7072.00000
    32.3856     6991.00000
    32.3987     7090.00000
    32.4119     7181.00000
    32.4250     6979.00000
    32.4381     7035.00000
    32.4512     7034.00000
    32.4644     7040.00000
    32.4775     6962.00000
    32.4906     6897.00000
    32.5038     6964.00000
    32.5169     7003.00000
    32.5300     6881.00000
    32.5432     6963.00000
    32.5563     6858.00000
    32.5694     6837.00000
    32.5826     6716.00000
    32.5957     6803.00000
    32.6088     6812.00000
    32.6219     6837.00000
    32.6351     6826.00000
    32.6482     6949.00000
    32.6613     6883.00000
    32.6745     6992.00000
    32.6876     6878.00000
    32.7007     6768.00000
    32.7139     6900.00000
    32.7270     6931.00000
    32.7401     7025.00000
    32.7532     6884.00000
    32.7664     6860.00000
    32.7795     7180.00000
    32.7926     7173.00000
    32.8058     7167.00000
    32.8189     7136.00000
    32.8320     7202.00000
    32.8452     7338.00000
    32.8583     7470.00000
    32.8714     7470.00000
    32.8845     7534.00000
    32.8977     7578.00000
    32.9108     7902.00000
    32.9239     8378.00000
    32.9371     8974.00000
    32.9502     9829.00000
    32.9633    11826.00000
    32.9765    14859.00000
    32.9896    18346.00000
    33.0027    21445.00000
    33.0159    23912.00000
    33.0290    25518.00000
    33.0421    25101.00000
    33.0552    22286.00000
    33.0684    19629.00000
    33.0815    18200.00000
    33.0946    17585.00000
    33.1078    17351.00000
    33.1209    16333.00000
    33.1340    14608.00000
    33.1472    12556.00000
    33.1603    10664.00000
    33.1734     9383.00000
    33.1865     8629.00000
    33.1997     7962.00000
    33.2128     7713.00000
    33.2259     7455.00000
    33.2391     7454.00000
    33.2522     7416.00000
    33.2653     7158.00000
    33.2785     7234.00000
    33.2916     7025.00000
    33.3047     7083.00000
    33.3178     6973.00000
    33.3310     7029.00000
    33.3441     6938.00000
    33.3572     7086.00000
    33.3704     6883.00000
    33.3835     6936.00000
    33.3966     6829.00000
    33.4098     6699.00000
    33.4229     6890.00000
    33.4360     6810.00000
    33.4492     6797.00000
    33.4623     7063.00000
    33.4754     6976.00000
    33.4885     6830.00000
    33.5017     6902.00000
    33.5148     6870.00000
    33.5279     6917.00000
    33.5411     7065.00000
    33.5542     7002.00000
    33.5673     6946.00000
    33.5805     6938.00000
    33.5936     7048.00000
    33.6067     6979.00000
    33.6198     7025.00000
    33.6330     7109.00000
    33.6461     7217.00000
    33.6592     7409.00000
    33.6724     7696.00000
    33.6855     8058.00000
    33.6986     8511.00000
    33.7118     9144.00000
    33.7249    10458.00000
    33.7380    11770.00000
    33.7511    13508.00000
    33.7643    14771.00000
    33.7774    14831.00000
    33.7905    14213.00000
    33.8037    12797.00000
    33.8168    11736.00000
    33.8299    11389.00000
    33.8431    11245.00000
    33.8562    11395.00000
    33.8693    11119.00000
    33.8825    10222.00000
    33.8956     9178.00000
    33.9087     8661.00000
    33.9218     8100.00000
    33.9350     8034.00000
    33.9481     8106.00000
    33.9612     7931.00000
    33.9744     7917.00000
    33.9875     7905.00000
    34.0006     7618.00000
    34.0138     7527.00000
    34.0269     7611.00000
    34.0400     7564.00000
    34.0531     7508.00000
    34.0663     7531.00000
    34.0794     7494.00000
    34.0925     7396.00000
    34.1057     7456.00000
    34.1188     7303.00000
    34.1319     7412.00000
    34.1451     7300.00000
    34.1582     7495.00000
    34.1713     7803.00000
    34.1844     8228.00000
    34.1976     9317.00000
    34.2107    10729.00000
    34.2238    12919.00000
    34.2370    13464.00000
    34.2501    13513.00000
    34.2632    12710.00000
    34.2764    11381.00000
    34.2895    10551.00000
    34.3026    10322.00000
    34.3158    10474.00000
    34.3289    10458.00000
    34.3420    10000.00000
    34.3551     9421.00000
    34.3683     8653.00000
    34.3814     7806.00000
    34.3945     7245.00000
    34.4077     7072.00000
    34.4208     6980.00000
    34.4339     7042.00000
    34.4471     6914.00000
    34.4602     6824.00000
    34.4733     6846.00000
    34.4864     6920.00000
    34.4996     6959.00000
    34.5127     6826.00000
    34.5258     6731.00000
    34.5390     6572.00000
    34.5521     6697.00000
    34.5652     6713.00000
    34.5784     6857.00000
    34.5915     6782.00000
    34.6046     6694.00000
    34.6177     6918.00000
    34.6309     6727.00000
    34.6440     6708.00000
    34.6571     6864.00000
    34.6703     6677.00000
    34.6834     6729.00000
    34.6965     6632.00000
    34.7097     6760.00000
    34.7228     6793.00000
    34.7359     6891.00000
    34.7491     6700.00000
    34.7622     6846.00000
    34.7753     6976.00000
    34.7884     6774.00000
    34.8016     7006.00000
    34.8147     6786.00000
    34.8278     6944.00000
    34.8410     7066.00000
    34.8541     7088.00000
    34.8672     7189.00000
    34.8804     7174.00000
    34.8935     7359.00000
    34.9066     7722.00000
    34.9197     8301.00000
    34.9329     9192.00000
    34.9460    10081.00000
    34.9591    11304.00000
    34.9723    11592.00000
    34.9854    11650.00000
    34.9985    10761.00000
    35.0117    10243.00000
    35.0248     9817.00000
    35.0379     9630.00000
    35.0510     9545.00000
    35.0642     9462.00000
    35.0773     9163.00000
    35.0904     8672.00000
    35.1036     8262.00000
    35.1167     7674.00000
    35.1298     7433.00000
    35.1430     7558.00000
    35.1561     7501.00000
    35.1692     7659.00000
    35.1824     7674.00000
    35.1955     7467.00000
    35.2086     7235.00000
    35.2217     7186.00000
    35.2349     6975.00000
    35.2480     7107.00000
    35.2611     7080.00000
    35.2743     7041.00000
    35.2874     7126.00000
    35.3005     6988.00000
    35.3137     6814.00000
    35.3268     6769.00000
    35.3399     6524.00000
    35.3530     6567.00000
    35.3662     6569.00000
    35.3793     6696.00000
    35.3924     6662.00000
    35.4056     6677.00000
    35.4187     6754.00000
    35.4318     6704.00000
    35.4450     6607.00000
    35.4581     6536.00000
    35.4712     6580.00000
    35.4843     6523.00000
    35.4975     6690.00000
    35.5106     6617.00000
    35.5237     6718.00000
    35.5369     6700.00000
    35.5500     6772.00000
    35.5631     6494.00000
    35.5763     6649.00000
    35.5894     6615.00000
    35.6025     6542.00000
    35.6156     6788.00000
    35.6288     6633.00000
    35.6419     6477.00000
    35.6550     6634.00000
    35.6682     6680.00000
    35.6813     6503.00000
    35.6944     6556.00000
    35.7076     6599.00000
    35.7207     6485.00000
    35.7338     6624.00000
    35.7470     6500.00000
    35.7601     6518.00000
    35.7732     6396.00000
    35.7863     6520.00000
    35.7995     6325.00000
    35.8126     6495.00000
    35.8257     6616.00000
    35.8389     6646.00000
    35.8520     6482.00000
    35.8651     6671.00000
    35.8783     6578.00000
    35.8914     6701.00000
    35.9045     6621.00000
    35.9176     6550.00000
    35.9308     6645.00000
    35.9439     6783.00000
    35.9570     6389.00000
    35.9702     6623.00000
    35.9833     6317.00000
    35.9964     6525.00000
    36.0096     6710.00000
    36.0227     6501.00000
    36.0358     6639.00000
    36.0489     6533.00000
    36.0621     6548.00000
    36.0752     6593.00000
    36.0883     6709.00000
    36.1015     6532.00000
    36.1146     6500.00000
    36.1277     6601.00000
    36.1409     6614.00000
    36.1540     6683.00000
    36.1671     6640.00000
    36.1802     6418.00000
    36.1934     6585.00000
    36.2065     6656.00000
    36.2196     6695.00000
    36.2328     6760.00000
    36.2459     6776.00000
    36.2590     6569.00000
    36.2722     6654.00000
    36.2853     6732.00000
    36.2984     6799.00000
    36.3116     6638.00000
    36.3247     6778.00000
    36.3378     6737.00000
    36.3509     6737.00000
    36.3641     6833.00000
    36.3772     6845.00000
    36.3903     6643.00000
    36.4035     6773.00000
    36.4166     6979.00000
    36.4297     7215.00000
    36.4429     7484.00000
    36.4560     7936.00000
    36.4691     8819.00000
    36.4822     9750.00000
    36.4954    10198.00000
    36.5085     9853.00000
    36.5216     9223.00000
    36.5348     8393.00000
    36.5479     8135.00000
    36.5610     8235.00000
    36.5742     8308.00000
    36.5873     8495.00000
    36.6004     8348.00000
    36.6135     7813.00000
    36.6267     7278.00000
    36.6398     7174.00000
    36.6529     6936.00000
    36.6661     6674.00000
    36.6792     6638.00000
    36.6923     6686.00000
    36.7055     6635.00000
    36.7186     6743.00000
    36.7317     6675.00000
    36.7449     6474.00000
    36.7580     6578.00000
    36.7711     6559.00000
    36.7842     6608.00000
    36.7974     6652.00000
    36.8105     6608.00000
    36.8236     6537.00000
    36.8368     6645.00000
    36.8499     6528.00000
    36.8630     6434.00000
    36.8762     6504.00000
    36.8893     6572.00000
    36.9024     6675.00000
    36.9155     6631.00000
    36.9287     6513.00000
    36.9418     6582.00000
    36.9549     6434.00000
    36.9681     6506.00000
    36.9812     6646.00000
    36.9943     6618.00000
    37.0075     6520.00000
    37.0206     6529.00000
    37.0337     6590.00000
    37.0468     6580.00000
    37.0600     6623.00000
    37.0731     6497.00000
    37.0862     6620.00000
    37.0994     6452.00000
    37.1125     6542.00000
    37.1256     6658.00000
    37.1388     6652.00000
    37.1519     6555.00000
    37.1650     6555.00000
    37.1782     6534.00000
    37.1913     6656.00000
    37.2044     6486.00000
    37.2175     6572.00000
    37.2307     6534.00000
    37.2438     6598.00000
    37.2569     6415.00000
    37.2701     6427.00000
    37.2832     6622.00000
    37.2963     6544.00000
    37.3095     6690.00000
    37.3226     6658.00000
    37.3357     6502.00000
    37.3488     6443.00000
    37.3620     6510.00000
    37.3751     6597.00000
    37.3882     6594.00000
    37.4014     6540.00000
    37.4145     6530.00000
    37.4276     6701.00000
    37.4408     6476.00000
    37.4539     6545.00000
    37.4670     6758.00000
    37.4801     6687.00000
    37.4933     6680.00000
    37.5064     6558.00000
    37.5195     6719.00000
    37.5327     6812.00000
    37.5458     6678.00000
    37.5589     7053.00000
    37.5721     7163.00000
    37.5852     7351.00000
    37.5983     7549.00000
    37.6115     7545.00000
    37.6246     7214.00000
    37.6377     7310.00000
    37.6508     7318.00000
    37.6640     7376.00000
    37.6771     7510.00000
    37.6902     7625.00000
    37.7034     7930.00000
    37.7165     8441.00000
    37.7296     9066.00000
    37.7428     9941.00000
    37.7559    11034.00000
    37.7690    11913.00000
    37.7821    12393.00000
    37.7953    12497.00000
    37.8084    11844.00000
    37.8215    11714.00000
    37.8347    11832.00000
    37.8478    11706.00000
    37.8609    11863.00000
    37.8741    11408.00000
    37.8872    10875.00000
    37.9003    10056.00000
    37.9134     9501.00000
    37.9266     8774.00000
    37.9397     8626.00000
    37.9528     8485.00000
    37.9660     8231.00000
    37.9791     7876.00000
    37.9922     7575.00000
    38.0054     7066.00000
    38.0185     6970.00000
    38.0316     6823.00000
    38.0448     6773.00000
    38.0579     6776.00000
    38.0710     6676.00000
    38.0841     6758.00000
    38.0973     6474.00000
    38.1104     6871.00000
    38.1235     6637.00000
    38.1367     6740.00000
    38.1498     6590.00000
    38.1629     6695.00000
    38.1761     6752.00000
    38.1892     6557.00000
    38.2023     6494.00000
    38.2154     6708.00000
    38.2286     6635.00000
    38.2417     6718.00000
    38.2548     6612.00000
    38.2680     6533.00000
    38.2811     6628.00000
    38.2942     6604.00000
    38.3074     6493.00000
    38.3205     6559.00000
    38.3336     6612.00000
    38.3467     6545.00000
    38.3599     6455.00000
    38.3730     6407.00000
    38.3861     6476.00000
    38.3993     6524.00000
    38.4124     6535.00000
    38.4255     6540.00000
    38.4387     6549.00000
    38.4518     6397.00000
    38.4649     6408.00000
    38.4781     6622.00000
    38.4912     6344.00000
    38.5043     6230.00000
    38.5174     6467.00000
    38.5306     6671.00000
    38.5437     6581.00000
    38.5568     6443.00000
    38.5700     6355.00000
    38.5831     6516.00000
    38.5962     6352.00000
    38.6094     6503.00000
    38.6225     6533.00000
    38.6356     6609.00000
    38.6487     6454.00000
    38.6619     6517.00000
    38.6750     6360.00000
    38.6881     6284.00000
    38.7013     6637.00000
    38.7144     6437.00000
    38.7275     6411.00000
    38.7407     6477.00000
    38.7538     6481.00000
    38.7669     6415.00000
    38.7800     6357.00000
    38.7932     6446.00000
    38.8063     6616.00000
    38.8194     6570.00000
    38.8326     6450.00000
    38.8457     6514.00000
    38.8588     6523.00000
    38.8720     6612.00000
    38.8851     6562.00000
    38.8982     6430.00000
    38.9114     6389.00000
    38.9245     6371.00000
    38.9376     6493.00000
    38.9507     6556.00000
    38.9639     6528.00000
    38.9770     6562.00000
    38.9901     6508.00000
    39.0033     6405.00000
    39.0164     6528.00000
    39.0295     6615.00000
    39.0427     6686.00000
    39.0558     6379.00000
    39.0689     6373.00000
    39.0820     6420.00000
    39.0952     6415.00000
    39.1083     6425.00000
    39.1214     6347.00000
    39.1346     6429.00000
    39.1477     6515.00000
    39.1608     6607.00000
    39.1740     6472.00000
    39.1871     6638.00000
    39.2002     6906.00000
    39.2133     7032.00000
    39.2265     7471.00000
    39.2396     8156.00000
    39.2527     8969.00000
    39.2659     9531.00000
    39.2790     9665.00000
    39.2921     9158.00000
    39.3053     8547.00000
    39.3184     7784.00000
    39.3315     7581.00000
    39.3446     7518.00000
    39.3578     7872.00000
    39.3709     8003.00000
    39.3840     8030.00000
    39.3972     7768.00000
    39.4103     7311.00000
    39.4234     7177.00000
    39.4366     6788.00000
    39.4497     6692.00000
    39.4628     6634.00000
    39.4760     6632.00000
    39.4891     6440.00000
    39.5022     6506.00000
    39.5153     6464.00000
    39.5285     6525.00000
    39.5416     6471.00000
    39.5547     6316.00000
    39.5679     6328.00000
    39.5810     6338.00000
    39.5941     6385.00000
    39.6073     6452.00000
    39.6204     6341.00000
    39.6335     6268.00000
    39.6466     6393.00000
    39.6598     6442.00000
    39.6729     6501.00000
    39.6860     6403.00000
    39.6992     6562.00000
    39.7123     6554.00000
    39.7254     6554.00000
    39.7386     6325.00000
    39.7517     6334.00000
    39.7648     6453.00000
    39.7779     6384.00000
    39.7911     6434.00000
    39.8042     6422.00000
    39.8173     6428.00000
    39.8305     6532.00000
    39.8436     6500.00000
    39.8567     6522.00000
    39.8699     6431.00000
    39.8830     6513.00000
    39.8961     6542.00000
    39.9092     6478.00000
    39.9224     6524.00000
    39.9355     6439.00000
    39.9486     6534.00000
    39.9618     6282.00000
    39.9749     6563.00000
    39.9880     6466.00000
    40.0012     6634.00000
    40.0143     6548.00000
    40.0274     6340.00000
    40.0406     6399.00000
    40.0537     6416.00000
    40.0668     6564.00000
    40.0799     6640.00000
    40.0931     6631.00000
    40.1062     6599.00000
    40.1193     6633.00000
    40.1325     6525.00000
    40.1456     6730.00000
    40.1587     6746.00000
    40.1719     6854.00000
    40.1850     7097.00000
    40.1981     7277.00000
    40.2112     7314.00000
    40.2244     7286.00000
    40.2375     7528.00000
    40.2506     7251.00000
    40.2638     7104.00000
    40.2769     6807.00000
    40.2900     6866.00000
    40.3032     7101.00000
    40.3163     7387.00000
    40.3294     7537.00000
    40.3425     7902.00000
    40.3557     8214.00000
    40.3688     8571.00000
    40.3819     9088.00000
    40.3951     9237.00000
    40.4082     9258.00000
    40.4213     8842.00000
    40.4345     8570.00000
    40.4476     8110.00000
    40.4607     8124.00000
    40.4739     8001.00000
    40.4870     7990.00000
    40.5001     8005.00000
    40.5132     7923.00000
    40.5264     7601.00000
    40.5395     7438.00000
    40.5526     6998.00000
    40.5658     7048.00000
    40.5789     6680.00000
    40.5920     6662.00000
    40.6052     6479.00000
    40.6183     6568.00000
    40.6314     6472.00000
    40.6445     6467.00000
    40.6577     6217.00000
    40.6708     6582.00000
    40.6839     6609.00000
    40.6971     6339.00000
    40.7102     6531.00000
    40.7233     6301.00000
    40.7365     6339.00000
    40.7496     6495.00000
    40.7627     6486.00000
    40.7758     6445.00000
    40.7890     6480.00000
    40.8021     6447.00000
    40.8152     6313.00000
    40.8284     6421.00000
    40.8415     6548.00000
    40.8546     6515.00000
    40.8678     6442.00000
    40.8809     6598.00000
    40.8940     6466.00000
    40.9072     6494.00000
    40.9203     6530.00000
    40.9334     6451.00000
    40.9465     6504.00000
    40.9597     6619.00000
    40.9728     6653.00000
    40.9859     6474.00000
    40.9991     6567.00000
    41.0122     6701.00000
    41.0253     6711.00000
    41.0385     6736.00000
    41.0516     6879.00000
    41.0647     7240.00000
    41.0778     7490.00000
    41.0910     7946.00000
    41.1041     8261.00000
    41.1172     8234.00000
    41.1304     8030.00000
    41.1435     7962.00000
    41.1566     7701.00000
    41.1698     7983.00000
    41.1829     8331.00000
    41.1960     8930.00000
    41.2091     9834.00000
    41.2223    10654.00000
    41.2354    11416.00000
    41.2485    11624.00000
    41.2617    11940.00000
    41.2748    11716.00000
    41.2879    11599.00000
    41.3011    11393.00000
    41.3142    11458.00000
    41.3273    11085.00000
    41.3405    10787.00000
    41.3536    10390.00000
    41.3667     9951.00000
    41.3798     9691.00000
    41.3930     9115.00000
    41.4061     8819.00000
    41.4192     8565.00000
    41.4324     8353.00000
    41.4455     7876.00000
    41.4586     7485.00000
    41.4718     7091.00000
    41.4849     7001.00000
    41.4980     6837.00000
    41.5111     6665.00000
    41.5243     6633.00000
    41.5374     6835.00000
    41.5505     6642.00000
    41.5637     6536.00000
    41.5768     6548.00000
    41.5899     6417.00000
    41.6031     6460.00000
    41.6162     6412.00000
    41.6293     6563.00000
    41.6424     6476.00000
    41.6556     6297.00000
    41.6687     6266.00000
    41.6818     6287.00000
    41.6950     6225.00000
    41.7081     6316.00000
    41.7212     6439.00000
    41.7344     6725.00000
    41.7475     6465.00000
    41.7606     6205.00000
    41.7738     6437.00000
    41.7869     6527.00000
    41.8000     6464.00000
    41.8131     6392.00000
    41.8263     6585.00000
    41.8394     6533.00000
    41.8525     6443.00000
    41.8657     6420.00000
    41.8788     6378.00000
    41.8919     6407.00000
    41.9051     6533.00000
    41.9182     6383.00000
    41.9313     6544.00000
    41.9444     6539.00000
    41.9576     6297.00000
    41.9707     6461.00000
    41.9838     6479.00000
    41.9970     6360.00000
    42.0101     6643.00000
    42.0232     6557.00000
    42.0364     6346.00000
    42.0495     6405.00000
    42.0626     6368.00000
    42.0757     6446.00000
    42.0889     6431.00000
    42.1020     6259.00000
    42.1151     6424.00000
    42.1283     6510.00000
    42.1414     6531.00000
    42.1545     6292.00000
    42.1677     6288.00000
    42.1808     6552.00000
    42.1939     6259.00000
    42.2071     6466.00000
    42.2202     6496.00000
    42.2333     6273.00000
    42.2464     6468.00000
    42.2596     6236.00000
    42.2727     6351.00000
    42.2858     6631.00000
    42.2990     6416.00000
    42.3121     6346.00000
    42.3252     6356.00000
    42.3384     6489.00000
    42.3515     6282.00000
    42.3646     6383.00000
    42.3777     6317.00000
    42.3909     6359.00000
    42.4040     6616.00000
    42.4171     6462.00000
    42.4303     6370.00000
    42.4434     6325.00000
    42.4565     6401.00000
    42.4697     6292.00000
    42.4828     6304.00000
    42.4959     6325.00000
    42.5090     6244.00000
    42.5222     6409.00000
    42.5353     6419.00000
    42.5484     6461.00000
    42.5616     6455.00000
    42.5747     6429.00000
    42.5878     6418.00000
    42.6010     6348.00000
    42.6141     6299.00000
    42.6272     6350.00000
    42.6404     6451.00000
    42.6535     6347.00000
    42.6666     6484.00000
    42.6797     6438.00000
    42.6929     6316.00000
    42.7060     6528.00000
    42.7191     6453.00000
    42.7323     6402.00000
    42.7454     6495.00000
    42.7585     6200.00000
    42.7717     6276.00000
    42.7848     6432.00000
    42.7979     6340.00000
    42.8110     6470.00000
    42.8242     6315.00000
    42.8373     6443.00000
    42.8504     6390.00000
    42.8636     6371.00000
    42.8767     6296.00000
    42.8898     6291.00000
    42.9030     6421.00000
    42.9161     6393.00000
    42.9292     6297.00000
    42.9423     6166.00000
    42.9555     6161.00000
    42.9686     6401.00000
    42.9817     6245.00000
    42.9949     6386.00000
    43.0080     6393.00000
    43.0211     6429.00000
    43.0343     6507.00000
    43.0474     6290.00000
    43.0605     6440.00000
    43.0736     6293.00000
    43.0868     6309.00000
    43.0999     6286.00000
    43.1130     6332.00000
    43.1262     6344.00000
    43.1393     6298.00000
    43.1524     6348.00000
    43.1656     6347.00000
    43.1787     6466.00000
    43.1918     6368.00000
    43.2050     6276.00000
    43.2181     6325.00000
    43.2312     6458.00000
    43.2443     6379.00000
    43.2575     6333.00000
    43.2706     6153.00000
    43.2837     6518.00000
    43.2969     6322.00000
    43.3100     6467.00000
    43.3231     6339.00000
    43.3363     6391.00000
    43.3494     6253.00000
    43.3625     6356.00000
    43.3756     6317.00000
    43.3888     6356.00000
    43.4019     6471.00000
    43.4150     6288.00000
    43.4282     6488.00000
    43.4413     6560.00000
    43.4544     6593.00000
    43.4676     6471.00000
    43.4807     6429.00000
    43.4938     6362.00000
    43.5069     6400.00000
    43.5201     6354.00000
    43.5332     6515.00000
    43.5463     6554.00000
    43.5595     6472.00000
    43.5726     6568.00000
    43.5857     6458.00000
    43.5989     6747.00000
    43.6120     6949.00000
    43.6251     7169.00000
    43.6383     7417.00000
    43.6514     7710.00000
    43.6645     7916.00000
    43.6776     7794.00000
    43.6908     7733.00000
    43.7039     7507.00000
    43.7170     7098.00000
    43.7302     6895.00000
    43.7433     7080.00000
    43.7564     7087.00000
    43.7696     7231.00000
    43.7827     7153.00000
    43.7958     7087.00000
    43.8089     7010.00000
    43.8221     7045.00000
    43.8352     6909.00000
    43.8483     6697.00000
    43.8615     6466.00000
    43.8746     6514.00000
    43.8877     6394.00000
    43.9009     6423.00000
    43.9140     6409.00000
    43.9271     6351.00000
    43.9402     6409.00000
    43.9534     6424.00000
    43.9665     6469.00000
    43.9796     6480.00000
    43.9928     6436.00000
    44.0059     6347.00000
    44.0190     6406.00000
    44.0322     6348.00000
    44.0453     6318.00000
    44.0584     6431.00000
    44.0715     6408.00000
    44.0847     6311.00000
    44.0978     6286.00000
    44.1109     6412.00000
    44.1241     6341.00000
    44.1372     6714.00000
    44.1503     6623.00000
    44.1635     6553.00000
    44.1766     6586.00000
    44.1897     6638.00000
    44.2029     6436.00000
    44.2160     6509.00000
    44.2291     6581.00000
    44.2422     6367.00000
    44.2554     6402.00000
    44.2685     6416.00000
    44.2816     6587.00000
    44.2948     6446.00000
    44.3079     6581.00000
    44.3210     6592.00000
    44.3342     6478.00000
    44.3473     6489.00000
    44.3604     6578.00000
    44.3735     6322.00000
    44.3867     6485.00000
    44.3998     6439.00000
    44.4129     6396.00000
    44.4261     6442.00000
    44.4392     6534.00000
    44.4523     6415.00000
    44.4655     6659.00000
    44.4786     6452.00000
    44.4917     6305.00000
    44.5048     6691.00000
    44.5180     6871.00000
    44.5311     6845.00000
    44.5442     6843.00000
    44.5574     6824.00000
    44.5705     6944.00000
    44.5836     7045.00000
    44.5968     7060.00000
    44.6099     6878.00000
    44.6230     7241.00000
    44.6362     7297.00000
    44.6493     7403.00000
    44.6624     7709.00000
    44.6755     8184.00000
    44.6887     8887.00000
    44.7018    10041.00000
    44.7149    11358.00000
    44.7281    12541.00000
    44.7412    13125.00000
    44.7543    13184.00000
    44.7675    12463.00000
    44.7806    11415.00000
    44.7937    10516.00000
    44.8068     9664.00000
    44.8200     9205.00000
    44.8331     9695.00000
    44.8462     9705.00000
    44.8594     9824.00000
    44.8725     9823.00000
    44.8856     9502.00000
    44.8988     8860.00000
    44.9119     8335.00000
    44.9250     7586.00000
    44.9381     7242.00000
    44.9513     7107.00000
    44.9644     6871.00000
    44.9775     6788.00000
    44.9907     6748.00000
    45.0038     6563.00000
    45.0169     6576.00000
    45.0301     6534.00000
    45.0432     6437.00000
    45.0563     6518.00000
    45.0695     6490.00000
    45.0826     6569.00000
    45.0957     6359.00000
    45.1088     6261.00000
    45.1220     6527.00000
    45.1351     6644.00000
    45.1482     6437.00000
    45.1614     6280.00000
    45.1745     6358.00000
    45.1876     6506.00000
    45.2008     6208.00000
    45.2139     6393.00000
    45.2270     6344.00000
    45.2401     6233.00000
    45.2533     6355.00000
    45.2664     6327.00000
    45.2795     6411.00000
    45.2927     6439.00000
    45.3058     6228.00000
    45.3189     6300.00000
    45.3321     6329.00000
    45.3452     6317.00000
    45.3583     6366.00000
    45.3714     6358.00000
    45.3846     6383.00000
    45.3977     6367.00000
    45.4108     6445.00000
    45.4240     6436.00000
    45.4371     6384.00000
    45.4502     6369.00000
    45.4634     6185.00000
    45.4765     6268.00000
    45.4896     6307.00000
    45.5028     6245.00000
    45.5159     6215.00000
    45.5290     6366.00000
    45.5421     6322.00000
    45.5553     6304.00000
    45.5684     6348.00000
    45.5815     6284.00000
    45.5947     6291.00000
    45.6078     6395.00000
    45.6209     6475.00000
    45.6341     6469.00000
    45.6472     6347.00000
    45.6603     6309.00000
    45.6734     6405.00000
    45.6866     6332.00000
    45.6997     6323.00000
    45.7128     6395.00000
    45.7260     6411.00000
    45.7391     6334.00000
    45.7522     6263.00000
    45.7654     6372.00000
    45.7785     6336.00000
    45.7916     6444.00000
    45.8047     6231.00000
    45.8179     6083.00000
    45.8310     6343.00000
    45.8441     6388.00000
    45.8573     6448.00000
    45.8704     6346.00000
    45.8835     6360.00000
    45.8967     6528.00000
    45.9098     6502.00000
    45.9229     6524.00000
    45.9361     6689.00000
    45.9492     6695.00000
    45.9623     6637.00000
    45.9754     6743.00000
    45.9886     6726.00000
    46.0017     6760.00000
    46.0148     6783.00000
    46.0280     6792.00000
    46.0411     6877.00000
    46.0542     6963.00000
    46.0674     6814.00000
    46.0805     6983.00000
    46.0936     7267.00000
    46.1067     7243.00000
    46.1199     7484.00000
    46.1330     7991.00000
    46.1461     8450.00000
    46.1593     9255.00000
    46.1724    10933.00000
    46.1855    13601.00000
    46.1987    16747.00000
    46.2118    19290.00000
    46.2249    19993.00000
    46.2380    19275.00000
    46.2512    17622.00000
    46.2643    15072.00000
    46.2774    13272.00000
    46.2906    12006.00000
    46.3037    11963.00000
    46.3168    12958.00000
    46.3300    13782.00000
    46.3431    14001.00000
    46.3562    13614.00000
    46.3694    12686.00000
    46.3825    11270.00000
    46.3956     9873.00000
    46.4087     9003.00000
    46.4219     8204.00000
    46.4350     7793.00000
    46.4481     7533.00000
    46.4613     7294.00000
    46.4744     7116.00000
    46.4875     7083.00000
    46.5007     6814.00000
    46.5138     6857.00000
    46.5269     6736.00000
    46.5400     6682.00000
    46.5532     6682.00000
    46.5663     6610.00000
    46.5794     6550.00000
    46.5926     6380.00000
    46.6057     6556.00000
    46.6188     6512.00000
    46.6320     6569.00000
    46.6451     6592.00000
    46.6582     6555.00000
    46.6713     6566.00000
    46.6845     6519.00000
    46.6976     6197.00000
    46.7107     6349.00000
    46.7239     6350.00000
    46.7370     6524.00000
    46.7501     6509.00000
    46.7633     6326.00000
    46.7764     6436.00000
    46.7895     6455.00000
    46.8027     6397.00000
    46.8158     6277.00000
    46.8289     6465.00000
    46.8420     6529.00000
    46.8552     6548.00000
    46.8683     6490.00000
    46.8814     6492.00000
    46.8946     6473.00000
    46.9077     6262.00000
    46.9208     6477.00000
    46.9340     6533.00000
    46.9471     6497.00000
    46.9602     6461.00000
    46.9733     6546.00000
    46.9865     6352.00000
    46.9996     6268.00000
    47.0127     6343.00000
    47.0259     6441.00000
    47.0390     6371.00000
    47.0521     6527.00000
    47.0653     6460.00000
    47.0784     6406.00000
    47.0915     6387.00000
    47.1046     6325.00000
    47.1178     6333.00000
    47.1309     6508.00000
    47.1440     6608.00000
    47.1572     6298.00000
    47.1703     6270.00000
    47.1834     6350.00000
    47.1966     6368.00000
    47.2097     6487.00000
    47.2228     6406.00000
    47.2359     6342.00000
    47.2491     6277.00000
    47.2622     6446.00000
    47.2753     6398.00000
    47.2885     6393.00000
    47.3016     6584.00000
    47.3147     6635.00000
    47.3279     6602.00000
    47.3410     6638.00000
    47.3541     6563.00000
    47.3673     6355.00000
    47.3804     6654.00000
    47.3935     6594.00000
    47.4066     6702.00000
    47.4198     6737.00000
    47.4329     6647.00000
    47.4460     6566.00000
    47.4592     6685.00000
    47.4723     6981.00000
    47.4854     6940.00000
    47.4986     6917.00000
    47.5117     7256.00000
    47.5248     7332.00000
    47.5379     7658.00000
    47.5511     8551.00000
    47.5642     9145.00000
    47.5773     9843.00000
    47.5905    10957.00000
    47.6036    12042.00000
    47.6167    13591.00000
    47.6299    14604.00000
    47.6430    14146.00000
    47.6561    13015.00000
    47.6692    11262.00000
    47.6824     9842.00000
    47.6955     9388.00000
    47.7086     9461.00000
    47.7218     9389.00000
    47.7349    10096.00000
    47.7480    10324.00000
    47.7612    10673.00000
    47.7743    10383.00000
    47.7874     9218.00000
    47.8005     8402.00000
    47.8137     8008.00000
    47.8268     7448.00000
    47.8399     7244.00000
    47.8531     7179.00000
    47.8662     7079.00000
    47.8793     6954.00000
    47.8925     6871.00000
    47.9056     6859.00000
    47.9187     6737.00000
    47.9319     6811.00000
    47.9450     6684.00000
    47.9581     6860.00000
    47.9712     6743.00000
    47.9844     6733.00000
    47.9975     6888.00000
    48.0106     6834.00000
    48.0238     6954.00000
    48.0369     6926.00000
    48.0500     7166.00000
    48.0632     7015.00000
    48.0763     7038.00000
    48.0894     6822.00000
    48.1025     7034.00000
    48.1157     7072.00000
    48.1288     7157.00000
    48.1419     7401.00000
    48.1551     7447.00000
    48.1682     7726.00000
    48.1813     7935.00000
    48.1945     8129.00000
    48.2076     8838.00000
    48.2207     9695.00000
    48.2338    10731.00000
    48.2470    12279.00000
    48.2601    14098.00000
    48.2732    15814.00000
    48.2864    17453.00000
    48.2995    17945.00000
    48.3126    17795.00000
    48.3258    16743.00000
    48.3389    15136.00000
    48.3520    13798.00000
    48.3652    12562.00000
    48.3783    11966.00000
    48.3914    12279.00000
    48.4045    12636.00000
    48.4177    12685.00000
    48.4308    12855.00000
    48.4439    12453.00000
    48.4571    11593.00000
    48.4702    10671.00000
    48.4833     9476.00000
    48.4965     8592.00000
    48.5096     7961.00000
    48.5227     7543.00000
    48.5358     7338.00000
    48.5490     7327.00000
    48.5621     7309.00000
    48.5752     7084.00000
    48.5884     6907.00000
    48.6015     6729.00000
    48.6146     6845.00000
    48.6278     6763.00000
    48.6409     6801.00000
    48.6540     6790.00000
    48.6671     6771.00000
    48.6803     6917.00000
    48.6934     7034.00000
    48.7065     7195.00000
    48.7197     7313.00000
    48.7328     7477.00000
    48.7459     7644.00000
    48.7591     7771.00000
    48.7722     7796.00000
    48.7853     8019.00000
    48.7985     7649.00000
    48.8116     7760.00000
    48.8247     7644.00000
    48.8378     7641.00000
    48.8510     7715.00000
    48.8641     7892.00000
    48.8772     7866.00000
    48.8904     7756.00000
    48.9035     7830.00000
    48.9166     7630.00000
    48.9298     7515.00000
    48.9429     7334.00000
    48.9560     7311.00000
    48.9691     7131.00000
    48.9823     7128.00000
    48.9954     7179.00000
    49.0085     7027.00000
    49.0217     6873.00000
    49.0348     7030.00000
    49.0479     6887.00000
    49.0611     6933.00000
    49.0742     6957.00000
    49.0873     6850.00000
    49.1004     6971.00000
    49.1136     6928.00000
    49.1267     6995.00000
    49.1398     6828.00000
    49.1530     6928.00000
    49.1661     7095.00000
    49.1792     7196.00000
    49.1924     7255.00000
    49.2055     7248.00000
    49.2186     7492.00000
    49.2318     7531.00000
    49.2449     7772.00000
    49.2580     8190.00000
    49.2711     8599.00000
    49.2843     9589.00000
    49.2974    10826.00000
    49.3105    12133.00000
    49.3237    14045.00000
    49.3368    15627.00000
    49.3499    16020.00000
    49.3631    15800.00000
    49.3762    14847.00000
    49.3893    13311.00000
    49.4024    12341.00000
    49.4156    11848.00000
    49.4287    12058.00000
    49.4418    13398.00000
    49.4550    14187.00000
    49.4681    14795.00000
    49.4812    14705.00000
    49.4944    13720.00000
    49.5075    12206.00000
    49.5206    10871.00000
    49.5337     9967.00000
    49.5469     9170.00000
    49.5600     8846.00000
    49.5731     8712.00000
    49.5863     8773.00000
    49.5994     8908.00000
    49.6125     8583.00000
    49.6257     8254.00000
    49.6388     7719.00000
    49.6519     7340.00000
    49.6651     7166.00000
    49.6782     7056.00000
    49.6913     7157.00000
    49.7044     6724.00000
    49.7176     6856.00000
    49.7307     6955.00000
    49.7438     6831.00000
    49.7570     6686.00000
    49.7701     7035.00000
    49.7832     6934.00000
    49.7964     7063.00000
    49.8095     7109.00000
    49.8226     6942.00000
    49.8357     7061.00000
    49.8489     7041.00000
    49.8620     7132.00000
    49.8751     7224.00000
    49.8883     7247.00000
    49.9014     7662.00000
    49.9145     7954.00000
    49.9277     8319.00000
    49.9408     9073.00000
    49.9539    10174.00000
    49.9670    11192.00000
    49.9802    13459.00000
    49.9933    15968.00000
    50.0064    17902.00000
    50.0196    19398.00000
    50.0327    18952.00000
    50.0458    17558.00000
    50.0590    15000.00000
    50.0721    13072.00000
    50.0852    11811.00000
    50.0984    11347.00000
    50.1115    11528.00000
    50.1246    12021.00000
    50.1377    12806.00000
    50.1509    13186.00000
    50.1640    13233.00000
    50.1771    12419.00000
    50.1903    11190.00000
    50.2034     9887.00000
    50.2165     8819.00000
    50.2297     8125.00000
    50.2428     7660.00000
    50.2559     7396.00000
    50.2690     7089.00000
    50.2822     6892.00000
    50.2953     6950.00000
    50.3084     6777.00000
    50.3216     6892.00000
    50.3347     6594.00000
    50.3478     6880.00000
    50.3610     6746.00000
    50.3741     6647.00000
    50.3872     6591.00000
    50.4003     6682.00000
    50.4135     6818.00000
    50.4266     6640.00000
    50.4397     6660.00000
    50.4529     6604.00000
    50.4660     6599.00000
    50.4791     6569.00000
    50.4923     6706.00000
    50.5054     6653.00000
    50.5185     6520.00000
    50.5317     6668.00000
    50.5448     6766.00000
    50.5579     6607.00000
    50.5710     6701.00000
    50.5842     6840.00000
    50.5973     7150.00000
    50.6104     7227.00000
    50.6236     7304.00000
    50.6367     7557.00000
    50.6498     7977.00000
    50.6630     8361.00000
    50.6761     8780.00000
    50.6892     8926.00000
    50.7023     8602.00000
    50.7155     8423.00000
    50.7286     8101.00000
    50.7417     7739.00000
    50.7549     7626.00000
    50.7680     7644.00000
    50.7811     7809.00000
    50.7943     7999.00000
    50.8074     8215.00000
    50.8205     8524.00000
    50.8336     8859.00000
    50.8468     8945.00000
    50.8599     9129.00000
    50.8730     9282.00000
    50.8862     9371.00000
    50.8993     9437.00000
    50.9124     8965.00000
    50.9256     8283.00000
    50.9387     8344.00000
    50.9518     7989.00000
    50.9649     7700.00000
    50.9781     7712.00000
    50.9912     7690.00000
    51.0043     7864.00000
    51.0175     7892.00000
    51.0306     7871.00000
    51.0437     7821.00000
    51.0569     7401.00000
    51.0700     7149.00000
    51.0831     7028.00000
    51.0963     7068.00000
    51.1094     6827.00000
    51.1225     6654.00000
    51.1356     6630.00000
    51.1488     6684.00000
    51.1619     6532.00000
    51.1750     6560.00000
    51.1882     6661.00000
    51.2013     6568.00000
    51.2144     6617.00000
    51.2276     6434.00000
    51.2407     6533.00000
    51.2538     6560.00000
    51.2669     6423.00000
    51.2801     6544.00000
    51.2932     6414.00000
    51.3063     6427.00000
    51.3195     6386.00000
    51.3326     6576.00000
    51.3457     6572.00000
    51.3589     6344.00000
    51.3720     6325.00000
    51.3851     6511.00000
    51.3982     6533.00000
    51.4114     6492.00000
    51.4245     6338.00000
    51.4376     6536.00000
    51.4508     6405.00000
    51.4639     6620.00000
    51.4770     6404.00000
    51.4902     6415.00000
    51.5033     6481.00000
    51.5164     6617.00000
    51.5296     6513.00000
    51.5427     6360.00000
    51.5558     6455.00000
    51.5689     6529.00000
    51.5821     6471.00000
    51.5952     6385.00000
    51.6083     6632.00000
    51.6215     6677.00000
    51.6346     6666.00000
    51.6477     6744.00000
    51.6609     6984.00000
    51.6740     7067.00000
    51.6871     7395.00000
    51.7002     7906.00000
    51.7134     8567.00000
    51.7265     9825.00000
    51.7396    11515.00000
    51.7528    13739.00000
    51.7659    14567.00000
    51.7790    14090.00000
    51.7922    12547.00000
    51.8053    10991.00000
    51.8184    10302.00000
    51.8315     9857.00000
    51.8447     9829.00000
    51.8578    10113.00000
    51.8709    10947.00000
    51.8841    11188.00000
    51.8972    11747.00000
    51.9103    11575.00000
    51.9235    10793.00000
    51.9366     9782.00000
    51.9497     9193.00000
    51.9628     8853.00000
    51.9760     8789.00000
    51.9891     8909.00000
    52.0022     8835.00000
    52.0154     8547.00000
    52.0285     8386.00000
    52.0416     7928.00000
    52.0548     7525.00000
    52.0679     7232.00000
    52.0810     7078.00000
    52.0942     6892.00000
    52.1073     6743.00000
    52.1204     7053.00000
    52.1335     6990.00000
    52.1467     6891.00000
    52.1598     6972.00000
    52.1729     6775.00000
    52.1861     6802.00000
    52.1992     6673.00000
    52.2123     6597.00000
    52.2255     6547.00000
    52.2386     6531.00000
    52.2517     6278.00000
    52.2648     6312.00000
    52.2780     6296.00000
    52.2911     6395.00000
    52.3042     6408.00000
    52.3174     6312.00000
    52.3305     6427.00000
    52.3436     6408.00000
    52.3568     6408.00000
    52.3699     6536.00000
    52.3830     6460.00000
    52.3961     6391.00000
    52.4093     6285.00000
    52.4224     6286.00000
    52.4355     6388.00000
    52.4487     6386.00000
    52.4618     6445.00000
    52.4749     6306.00000
    52.4881     6372.00000
    52.5012     6491.00000
    52.5143     6426.00000
    52.5275     6451.00000
    52.5406     6487.00000
    52.5537     6347.00000
    52.5668     6203.00000
    52.5800     6449.00000
    52.5931     6499.00000
    52.6062     6559.00000
    52.6194     6726.00000
    52.6325     6767.00000
    52.6456     6982.00000
    52.6588     7170.00000
    52.6719     7588.00000
    52.6850     8196.00000
    52.6981     8126.00000
    52.7113     7844.00000
    52.7244     7506.00000
    52.7375     7179.00000
    52.7507     7023.00000
    52.7638     6758.00000
    52.7769     6767.00000
    52.7901     6995.00000
    52.8032     6864.00000
    52.8163     7155.00000
    52.8294     7305.00000
    52.8426     7226.00000
    52.8557     6986.00000
    52.8688     6957.00000
    52.8820     6529.00000
    52.8951     6437.00000
    52.9082     6457.00000
    52.9214     6426.00000
    52.9345     6281.00000
    52.9476     6478.00000
    52.9608     6493.00000
    52.9739     6533.00000
    52.9870     6276.00000
    53.0001     6393.00000
    53.0133     6443.00000
    53.0264     6487.00000
    53.0395     6522.00000
    53.0527     6316.00000
    53.0658     6253.00000
    53.0789     6334.00000
    53.0921     6447.00000
    53.1052     6401.00000
    53.1183     6347.00000
    53.1314     6314.00000
    53.1446     6261.00000
    53.1577     6227.00000
    53.1708     6240.00000
    53.1840     6315.00000
    53.1971     6169.00000
    53.2102     6151.00000
    53.2234     6220.00000
    53.2365     6260.00000
    53.2496     6359.00000
    53.2627     6178.00000
    53.2759     6377.00000
    53.2890     6327.00000
    53.3021     6373.00000
    53.3153     6264.00000
    53.3284     6213.00000
    53.3415     6344.00000
    53.3547     6458.00000
    53.3678     6517.00000
    53.3809     6541.00000
    53.3941     6570.00000
    53.4072     6388.00000
    53.4203     6577.00000
    53.4334     6344.00000
    53.4466     6547.00000
    53.4597     6335.00000
    53.4728     6260.00000
    53.4860     6389.00000
    53.4991     6386.00000
    53.5122     6367.00000
    53.5254     6372.00000
    53.5385     6501.00000
    53.5516     6294.00000
    53.5647     6225.00000
    53.5779     6234.00000
    53.5910     6300.00000
    53.6041     6005.00000
    53.6173     6145.00000
    53.6304     6248.00000
    53.6435     6320.00000
    53.6567     6132.00000
    53.6698     6410.00000
    53.6829     6315.00000
    53.6960     6254.00000
    53.7092     6310.00000
    53.7223     6336.00000
    53.7354     6343.00000
    53.7486     6200.00000
    53.7617     6288.00000
    53.7748     6278.00000
    53.7880     6260.00000
    53.8011     6229.00000
    53.8142     6350.00000
    53.8274     6118.00000
    53.8405     6200.00000
    53.8536     6179.00000
    53.8667     6430.00000
    53.8799     6132.00000
    53.8930     6231.00000
    53.9061     6101.00000
    53.9193     6154.00000
    53.9324     6202.00000
    53.9455     6464.00000
    53.9587     6329.00000
    53.9718     6477.00000
    53.9849     6297.00000
    53.9980     6421.00000
    54.0112     6443.00000
    54.0243     6450.00000
    54.0374     6437.00000
    54.0506     6375.00000
    54.0637     6292.00000
    54.0768     6252.00000
    54.0900     6353.00000
    54.1031     6241.00000
    54.1162     6207.00000
    54.1293     6359.00000
    54.1425     6410.00000
    54.1556     6315.00000
    54.1687     6280.00000
    54.1819     6336.00000
    54.1950     6278.00000
    54.2081     6332.00000
    54.2213     6196.00000
    54.2344     6093.00000
    54.2475     6286.00000
    54.2607     6301.00000
    54.2738     6033.00000
    54.2869     6083.00000
    54.3000     6124.00000
    54.3132     6209.00000
    54.3263     6110.00000
    54.3394     6119.00000
    54.3526     6190.00000
    54.3657     6262.00000
    54.3788     6321.00000
    54.3920     6175.00000
    54.4051     6235.00000
    54.4182     6174.00000
    54.4313     6333.00000
    54.4445     6138.00000
    54.4576     6181.00000
    54.4707     6288.00000
    54.4839     6263.00000
    54.4970     6453.00000
    54.5101     6226.00000
    54.5233     6209.00000
    54.5364     6198.00000
    54.5495     6258.00000
    54.5626     6180.00000
    54.5758     6150.00000
    54.5889     6065.00000
    54.6020     6239.00000
    54.6152     6281.00000
    54.6283     6240.00000
    54.6414     6217.00000
    54.6546     6150.00000
    54.6677     6335.00000
    54.6808     6121.00000
    54.6940     6245.00000
    54.7071     6268.00000
    54.7202     6273.00000
    54.7333     6201.00000
    54.7465     6290.00000
    54.7596     6251.00000
    54.7727     6204.00000
    54.7859     6347.00000
    54.7990     6289.00000
    54.8121     6237.00000
    54.8253     6131.00000
    54.8384     6299.00000
    54.8515     6252.00000
    54.8646     6270.00000
    54.8778     6259.00000
    54.8909     6224.00000
    54.9040     6433.00000
    54.9172     6458.00000
    54.9303     6525.00000
    54.9434     6251.00000
    54.9566     6207.00000
    54.9697     6362.00000
    54.9828     6225.00000
    54.9959     6172.00000
    55.0091     6321.00000
    55.0222     6223.00000
    55.0353     6371.00000
    55.0485     6430.00000
    55.0616     6194.00000
    55.0747     6332.00000
    55.0879     6364.00000
    55.1010     6369.00000
    55.1141     6491.00000
    55.1272     6202.00000
    55.1404     6132.00000
    55.1535     6318.00000
    55.1666     6181.00000
    55.1798     6370.00000
    55.1929     6306.00000
    55.2060     6291.00000
    55.2192     6348.00000
    55.2323     6200.00000
    55.2454     6220.00000
    55.2586     6292.00000
    55.2717     6314.00000
    55.2848     6333.00000
    55.2979     6358.00000
    55.3111     6309.00000
    55.3242     6420.00000
    55.3373     6282.00000
    55.3505     6338.00000
    55.3636     6488.00000
    55.3767     6318.00000
    55.3899     6232.00000
    55.4030     6271.00000
    55.4161     6228.00000
    55.4292     6239.00000
    55.4424     6449.00000
    55.4555     6498.00000
    55.4686     6795.00000
    55.4818     6897.00000
    55.4949     7154.00000
    55.5080     7543.00000
    55.5212     7859.00000
    55.5343     8281.00000
    55.5474     8184.00000
    55.5605     8059.00000
    55.5737     7784.00000
    55.5868     7307.00000
    55.5999     7212.00000
    55.6131     6878.00000
    55.6262     6814.00000
    55.6393     7011.00000
    55.6525     7072.00000
    55.6656     7201.00000
    55.6787     7653.00000
    55.6918     7519.00000
    55.7050     7509.00000
    55.7181     7381.00000
    55.7312     7137.00000
    55.7444     7078.00000
    55.7575     7114.00000
    55.7706     6983.00000
    55.7838     7001.00000
    55.7969     6986.00000
    55.8100     7276.00000
    55.8232     7523.00000
    55.8363     7454.00000
    55.8494     7806.00000
    55.8625     7955.00000
    55.8757     8580.00000
    55.8888     9023.00000
    55.9019     9774.00000
    55.9151    10524.00000
    55.9282    11153.00000
    55.9413    12162.00000
    55.9545    12475.00000
    55.9676    12488.00000
    55.9807    12074.00000
    55.9938    11496.00000
    56.0070    10300.00000
    56.0201     9537.00000
    56.0332     9092.00000
    56.0464     8814.00000
    56.0595     8746.00000
    56.0726     8999.00000
    56.0858     9383.00000
    56.0989     9450.00000
    56.1120     9602.00000
    56.1251     9437.00000
    56.1383     9022.00000
    56.1514     8373.00000
    56.1645     7854.00000
    56.1777     7655.00000
    56.1908     7159.00000
    56.2039     7266.00000
    56.2171     7224.00000
    56.2302     7216.00000
    56.2433     7293.00000
    56.2565     7219.00000
    56.2696     7336.00000
    56.2827     7206.00000
    56.2958     6978.00000
    56.3090     6706.00000
    56.3221     6664.00000
    56.3352     6789.00000
    56.3484     6852.00000
    56.3615     6818.00000
    56.3746     6865.00000
    56.3878     6813.00000
    56.4009     6904.00000
    56.4140     7070.00000
    56.4271     7002.00000
    56.4403     7027.00000
    56.4534     7519.00000
    56.4665     8032.00000
    56.4797     8409.00000
    56.4928     8861.00000
    56.5059     9250.00000
    56.5191     9403.00000
    56.5322     9321.00000
    56.5453     8644.00000
    56.5584     8230.00000
    56.5716     7670.00000
    56.5847     7347.00000
    56.5978     7156.00000
    56.6110     7299.00000
    56.6241     7392.00000
    56.6372     7693.00000
    56.6504     8101.00000
    56.6635     8242.00000
    56.6766     8507.00000
    56.6898     8227.00000
    56.7029     7708.00000
    56.7160     7467.00000
    56.7291     7648.00000
    56.7423     7456.00000
    56.7554     7379.00000
    56.7685     7786.00000
    56.7817     8191.00000
    56.7948     8928.00000
    56.8079     9480.00000
    56.8211    10130.00000
    56.8342    10503.00000
    56.8473    10703.00000
    56.8604    10119.00000
    56.8736     9605.00000
    56.8867     8724.00000
    56.8998     8060.00000
    56.9130     7826.00000
    56.9261     7705.00000
    56.9392     7855.00000
    56.9524     7800.00000
    56.9655     8167.00000
    56.9786     8334.00000
    56.9917     8475.00000
    57.0049     8497.00000
    57.0180     8255.00000
    57.0311     8051.00000
    57.0443     7639.00000
    57.0574     7350.00000
    57.0705     7156.00000
    57.0837     7166.00000
    57.0968     7255.00000
    57.1099     7109.00000
    57.1231     6967.00000
    57.1362     6828.00000
    57.1493     6912.00000
    57.1624     6998.00000
    57.1756     6919.00000
    57.1887     6887.00000
    57.2018     6825.00000
    57.2150     6697.00000
    57.2281     6698.00000
    57.2412     6631.00000
    57.2544     6766.00000
    57.2675     6706.00000
    57.2806     6789.00000
    57.2937     6739.00000
    57.3069     6598.00000
    57.3200     6618.00000
    57.3331     6564.00000
    57.3463     6510.00000
    57.3594     6473.00000
    57.3725     6584.00000
    57.3857     6274.00000
    57.3988     6331.00000
    57.4119     6341.00000
    57.4250     6378.00000
    57.4382     6178.00000
    57.4513     6178.00000
    57.4644     6527.00000
    57.4776     6436.00000
    57.4907     6295.00000
    57.5038     6164.00000
    57.5170     6298.00000
    57.5301     6383.00000
    57.5432     6417.00000
    57.5564     6512.00000
    57.5695     6204.00000
    57.5826     6348.00000
    57.5957     6230.00000
    57.6089     6376.00000
    57.6220     6326.00000
    57.6351     6367.00000
    57.6483     6331.00000
    57.6614     6293.00000
    57.6745     6527.00000
    57.6877     6280.00000
    57.7008     6246.00000
    57.7139     6377.00000
    57.7270     6333.00000
    57.7402     6498.00000
    57.7533     6664.00000
    57.7664     6599.00000
    57.7796     6638.00000
    57.7927     6762.00000
    57.8058     6717.00000
    57.8190     6704.00000
    57.8321     6893.00000
    57.8452     7055.00000
    57.8583     7245.00000
    57.8715     7379.00000
    57.8846     7729.00000
    57.8977     8085.00000
    57.9109     8584.00000
    57.9240     9051.00000
    57.9371     9475.00000
    57.9503    10004.00000
    57.9634    10272.00000
    57.9765    10526.00000
    57.9897    10769.00000
    58.0028    10818.00000
    58.0159    10851.00000
    58.0290    10765.00000
    58.0422    10674.00000
    58.0553    10454.00000
    58.0684    10110.00000
    58.0816     9928.00000
    58.0947     9521.00000
    58.1078     9337.00000
    58.1210     9222.00000
    58.1341     9088.00000
    58.1472     8950.00000
    58.1603     8800.00000
    58.1735     8597.00000
    58.1866     8309.00000
    58.1997     8275.00000
    58.2129     8113.00000
    58.2260     7795.00000
    58.2391     7543.00000
    58.2523     7218.00000
    58.2654     6943.00000
    58.2785     6869.00000
    58.2916     6827.00000
    58.3048     6643.00000
    58.3179     6707.00000
    58.3310     6545.00000
    58.3442     6538.00000
    58.3573     6552.00000
    58.3704     6476.00000
    58.3836     6322.00000
    58.3967     6228.00000
    58.4098     6341.00000
    58.4230     6315.00000
    58.4361     6275.00000
    58.4492     6562.00000
    58.4623     6280.00000
    58.4755     6301.00000
    58.4886     6362.00000
    58.5017     6415.00000
    58.5149     6279.00000
    58.5280     6403.00000
    58.5411     6426.00000
    58.5543     6472.00000
    58.5674     6424.00000
    58.5805     6301.00000
    58.5936     6101.00000
    58.6068     6208.00000
    58.6199     6283.00000
    58.6330     6210.00000
    58.6462     6326.00000
    58.6593     6389.00000
    58.6724     6550.00000
    58.6856     6515.00000
    58.6987     6787.00000
    58.7118     6905.00000
    58.7249     7094.00000
    58.7381     7138.00000
    58.7512     7300.00000
    58.7643     7604.00000
    58.7775     7588.00000
    58.7906     7488.00000
    58.8037     7655.00000
    58.8169     7585.00000
    58.8300     7330.00000
    58.8431     7397.00000
    58.8562     7401.00000
    58.8694     7469.00000
    58.8825     7318.00000
    58.8956     7396.00000
    58.9088     7726.00000
    58.9219     8261.00000
    58.9350     8531.00000
    58.9482     9090.00000
    58.9613     9338.00000
    58.9744     9377.00000
    58.9876     9254.00000
    59.0007     8909.00000
    59.0138     8974.00000
    59.0269     8663.00000
    59.0401     8597.00000
    59.0532     8583.00000
    59.0663     8697.00000
    59.0795     9128.00000
    59.0926     9381.00000
    59.1057    10065.00000
    59.1189    10771.00000
    59.1320    11443.00000
    59.1451    11679.00000
    59.1582    12160.00000
    59.1714    11972.00000
    59.1845    11389.00000
    59.1976    10775.00000
    59.2108     9940.00000
    59.2239     9205.00000
    59.2370     8517.00000
    59.2502     8556.00000
    59.2633     8534.00000
    59.2764     8725.00000
    59.2895     8749.00000
    59.3027     8971.00000
    59.3158     9054.00000
    59.3289     9109.00000
    59.3421     9087.00000
    59.3552     8976.00000
    59.3683     9086.00000
    59.3815     9081.00000
    59.3946     9125.00000
    59.4077     9295.00000
    59.4208     9541.00000
    59.4340     9927.00000
    59.4471     9873.00000
    59.4602     9699.00000
    59.4734     8984.00000
    59.4865     8660.00000
    59.4996     8166.00000
    59.5128     7666.00000
    59.5259     7458.00000
    59.5390     7389.00000
    59.5522     7523.00000
    59.5653     7617.00000
    59.5784     7647.00000
    59.5915     7900.00000
    59.6047     7996.00000
    59.6178     8067.00000
    59.6309     7711.00000
    59.6441     7490.00000
    59.6572     7071.00000
    59.6703     6915.00000
    59.6835     6827.00000
    59.6966     6633.00000
    59.7097     6593.00000
    59.7228     6621.00000
    59.7360     6453.00000
    59.7491     6453.00000
    59.7622     6414.00000
    59.7754     6410.00000
    59.7885     6254.00000
    59.8016     6512.00000
    59.8148     6462.00000
    59.8279     6410.00000
    59.8410     6482.00000
    59.8541     6418.00000
    59.8673     6404.00000
    59.8804     6511.00000
    59.8935     6248.00000
    59.9067     6424.00000
    59.9198     6447.00000
    59.9329     6476.00000
    59.9461     6735.00000
    59.9592     6661.00000
    59.9723     6740.00000
    59.9855     7027.00000
    59.9986     7051.00000
    60.0117     7390.00000
    60.0248     7593.00000
    60.0380     8422.00000
    60.0511     9223.00000
    60.0642    10185.00000
    60.0774    11254.00000
    60.0905    12296.00000
    60.1036    12547.00000
    60.1168    12185.00000
    60.1299    11201.00000
    60.1430    10149.00000
    60.1561     9072.00000
    60.1693     8592.00000
    60.1824     8213.00000
    60.1955     7882.00000
    60.2087     8035.00000
    60.2218     8534.00000
    60.2349     8811.00000
    60.2481     9059.00000
    60.2612     9286.00000
    60.2743     9519.00000
    60.2874     8943.00000
    60.3006     8562.00000
    60.3137     7851.00000
    60.3268     7719.00000
    60.3400     6904.00000
    60.3531     6903.00000
    60.3662     6594.00000
    60.3794     6755.00000
    60.3925     6531.00000
    60.4056     6648.00000
    60.4188     6555.00000
    60.4319     6485.00000
    60.4450     6405.00000
    60.4581     6554.00000
    60.4713     6466.00000
    60.4844     6319.00000
    60.4975     6500.00000
    60.5107     6324.00000
    60.5238     6147.00000
    60.5369     6336.00000
    60.5501     6370.00000
    60.5632     6360.00000
    60.5763     6407.00000
    60.5894     6236.00000
    60.6026     6339.00000
    60.6157     6350.00000
    60.6288     6471.00000
    60.6420     6639.00000
    60.6551     6750.00000
    60.6682     6713.00000
    60.6814     6749.00000
    60.6945     7073.00000
    60.7076     7298.00000
    60.7207     7647.00000
    60.7339     8369.00000
    60.7470     8802.00000
    60.7601     9042.00000
    60.7733     8991.00000
    60.7864     8670.00000
    60.7995     8130.00000
    60.8127     7619.00000
    60.8258     7387.00000
    60.8389     7066.00000
    60.8521     7172.00000
    60.8652     7308.00000
    60.8783     7532.00000
    60.8914     7382.00000
    60.9046     7717.00000
    60.9177     8021.00000
    60.9308     8125.00000
    60.9440     7673.00000
    60.9571     7514.00000
    60.9702     7069.00000
    60.9834     7091.00000
    60.9965     6881.00000
    61.0096     6769.00000
    61.0227     6756.00000
    61.0359     6510.00000
    61.0490     6659.00000
    61.0621     6650.00000
    61.0753     6618.00000
    61.0884     6608.00000
    61.1015     6617.00000
    61.1147     6490.00000
    61.1278     6404.00000
    61.1409     6372.00000
    61.1540     6577.00000
    61.1672     6333.00000
    61.1803     6436.00000
    61.1934     6494.00000
    61.2066     6501.00000
    61.2197     6543.00000
    61.2328     6547.00000
    61.2460     6553.00000
    61.2591     6598.00000
    61.2722     6837.00000
    61.2854     6736.00000
    61.2985     6933.00000
    61.3116     7059.00000
    61.3247     7106.00000
    61.3379     7423.00000
    61.3510     7685.00000
    61.3641     8206.00000
    61.3773     8774.00000
    61.3904     9915.00000
    61.4035    10666.00000
    61.4167    11903.00000
    61.4298    12973.00000
    61.4429    13503.00000
    61.4560    13949.00000
    61.4692    13510.00000
    61.4823    12817.00000
    61.4954    11891.00000
    61.5086    11094.00000
    61.5217    10435.00000
    61.5348     9958.00000
    61.5480     9574.00000
    61.5611     9535.00000
    61.5742     9670.00000
    61.5873     9908.00000
    61.6005    10101.00000
    61.6136    10438.00000
    61.6267    10407.00000
    61.6399    10295.00000
    61.6530    10285.00000
    61.6661    10129.00000
    61.6793     9760.00000
    61.6924     9523.00000
    61.7055     9129.00000
    61.7187     8598.00000
    61.7318     8052.00000
    61.7449     7692.00000
    61.7580     7298.00000
    61.7712     7242.00000
    61.7843     6952.00000
    61.7974     6716.00000
    61.8106     6635.00000
    61.8237     6805.00000
    61.8368     6898.00000
    61.8500     7115.00000
    61.8631     7027.00000
    61.8762     7174.00000
    61.8893     7012.00000
    61.9025     6651.00000
    61.9156     6663.00000
    61.9287     6655.00000
    61.9419     6408.00000
    61.9550     6268.00000
    61.9681     6237.00000
    61.9813     6093.00000
    61.9944     6064.00000
    62.0075     6274.00000
    62.0206     6320.00000
    62.0338     6339.00000
    62.0469     6118.00000
    62.0600     6108.00000
    62.0732     6192.00000
    62.0863     6018.00000
    62.0994     6120.00000
    62.1126     6133.00000
    62.1257     6176.00000
    62.1388     6068.00000
    62.1520     6069.00000
    62.1651     5957.00000
    62.1782     6085.00000
    62.1913     6260.00000
    62.2045     6173.00000
    62.2176     6285.00000
    62.2307     6206.00000
    62.2439     6200.00000
    62.2570     6035.00000
    62.2701     5976.00000
    62.2833     6127.00000
    62.2964     6137.00000
    62.3095     5967.00000
    62.3226     6116.00000
    62.3358     6093.00000
    62.3489     6101.00000
    62.3620     6138.00000
    62.3752     6006.00000
    62.3883     6250.00000
    62.4014     6010.00000
    62.4146     6164.00000
    62.4277     6078.00000
    62.4408     6103.00000
    62.4539     6014.00000
    62.4671     6045.00000
    62.4802     6146.00000
    62.4933     6245.00000
    62.5065     6137.00000
    62.5196     6192.00000
    62.5327     6081.00000
    62.5459     5920.00000
    62.5590     6089.00000
    62.5721     6138.00000
    62.5852     5997.00000
    62.5984     6266.00000
    62.6115     6067.00000
    62.6246     6181.00000
    62.6378     6180.00000
    62.6509     6024.00000
    62.6640     6049.00000
    62.6772     6110.00000
    62.6903     5933.00000
    62.7034     6209.00000
    62.7166     6141.00000
    62.7297     5965.00000
    62.7428     6032.00000
    62.7559     6195.00000
    62.7691     6003.00000
    62.7822     6018.00000
    62.7953     6021.00000
    62.8085     6108.00000
    62.8216     5989.00000
    62.8347     6091.00000
    62.8479     6162.00000
    62.8610     6163.00000
    62.8741     6079.00000
    62.8872     6166.00000
    62.9004     6108.00000
    62.9135     5988.00000
    62.9266     6213.00000
    62.9398     6104.00000
    62.9529     6077.00000
    62.9660     6237.00000
    62.9792     6242.00000
    62.9923     6004.00000
    63.0054     6132.00000
    63.0185     6049.00000
    63.0317     6133.00000
    63.0448     6129.00000
    63.0579     6215.00000
    63.0711     6083.00000
    63.0842     6201.00000
    63.0973     6133.00000
    63.1105     6165.00000
    63.1236     6086.00000
    63.1367     6018.00000
    63.1499     5979.00000
    63.1630     6219.00000
    63.1761     6047.00000
    63.1892     6233.00000
    63.2024     6203.00000
    63.2155     6226.00000
    63.2286     6108.00000
    63.2418     6248.00000
    63.2549     6139.00000
    63.2680     6272.00000
    63.2812     6156.00000
    63.2943     6089.00000
    63.3074     6119.00000
    63.3205     6042.00000
    63.3337     6217.00000
    63.3468     6214.00000
    63.3599     6150.00000
    63.3731     6261.00000
    63.3862     6236.00000
    63.3993     6375.00000
    63.4125     6411.00000
    63.4256     6366.00000
    63.4387     6690.00000
    63.4518     6682.00000
    63.4650     6858.00000
    63.4781     7303.00000
    63.4912     7449.00000
    63.5044     7477.00000
    63.5175     7828.00000
    63.5306     7913.00000
    63.5438     8183.00000
    63.5569     8149.00000
    63.5700     8310.00000
    63.5831     8567.00000
    63.5963     8581.00000
    63.6094     8287.00000
    63.6225     7938.00000
    63.6357     7613.00000
    63.6488     7605.00000
    63.6619     7314.00000
    63.6751     7195.00000
    63.6882     7220.00000
    63.7013     7237.00000
    63.7145     7067.00000
    63.7276     7242.00000
    63.7407     7354.00000
    63.7538     7320.00000
    63.7670     7364.00000
    63.7801     7218.00000
    63.7932     7181.00000
    63.8064     6916.00000
    63.8195     6895.00000
    63.8326     6610.00000
    63.8458     6719.00000
    63.8589     6510.00000
    63.8720     6486.00000
    63.8851     6438.00000
    63.8983     6267.00000
    63.9114     6315.00000
    63.9245     6225.00000
    63.9377     6140.00000
    63.9508     6188.00000
    63.9639     6182.00000
    63.9771     6226.00000
    63.9902     6077.00000
    64.0033     5998.00000
    64.0164     6123.00000
    64.0296     6140.00000
    64.0427     6211.00000
    64.0558     6321.00000
    64.0690     5946.00000
    64.0821     6021.00000
    64.0952     5885.00000
    64.1084     5887.00000
    64.1215     6035.00000
    64.1346     6133.00000
    64.1478     6022.00000
    64.1609     6088.00000
    64.1740     6049.00000
    64.1871     6146.00000
    64.2003     6154.00000
    64.2134     5935.00000
    64.2265     5997.00000
    64.2397     6031.00000
    64.2528     6116.00000
    64.2659     6062.00000
    64.2791     6066.00000
    64.2922     5930.00000
    64.3053     5879.00000
    64.3184     6088.00000
    64.3316     6126.00000
    64.3447     6008.00000
    64.3578     5980.00000
    64.3710     6084.00000
    64.3841     6155.00000
    64.3972     6242.00000
    64.4104     6077.00000
    64.4235     6175.00000
    64.4366     6096.00000
    64.4498     6308.00000
    64.4629     6168.00000
    64.4760     6271.00000
    64.4891     6249.00000
    64.5023     6469.00000
    64.5154     6620.00000
    64.5285     6559.00000
    64.5417     6766.00000
    64.5548     6820.00000
    64.5679     7009.00000
    64.5811     7014.00000
    64.5942     7134.00000
    64.6073     7252.00000
    64.6204     7174.00000
    64.6336     7046.00000
    64.6467     6811.00000
    64.6598     6627.00000
    64.6730     6572.00000
    64.6861     6478.00000
    64.6992     6417.00000
    64.7124     6519.00000
    64.7255     6606.00000
    64.7386     6559.00000
    64.7517     6716.00000
    64.7649     6717.00000
    64.7780     6646.00000
    64.7911     6595.00000
    64.8043     6636.00000
    64.8174     6518.00000
    64.8305     6284.00000
    64.8437     6342.00000
    64.8568     6443.00000
    64.8699     6062.00000
    64.8830     6177.00000
    64.8962     6271.00000
    64.9093     6072.00000
    64.9224     6137.00000
    64.9356     6176.00000
    64.9487     6115.00000
    64.9618     6169.00000
    64.9750     6103.00000
    64.9881     5934.00000
    65.0012     5966.00000
    65.0144     5976.00000
    65.0275     6128.00000
    65.0406     6133.00000
    65.0537     5892.00000
    65.0669     6015.00000
    65.0800     6040.00000
    65.0931     5893.00000
    65.1063     5991.00000
    65.1194     5966.00000
    65.1325     6080.00000
    65.1457     6041.00000
    65.1588     5985.00000
    65.1719     5975.00000
    65.1850     5978.00000
    65.1982     6132.00000
    65.2113     5958.00000
    65.2244     6026.00000
    65.2376     5975.00000
    65.2507     6146.00000
    65.2638     6136.00000
    65.2770     6000.00000
    65.2901     6067.00000
    65.3032     6211.00000
    65.3163     6137.00000
    65.3295     6025.00000
    65.3426     5972.00000
    65.3557     6010.00000
    65.3689     5987.00000
    65.3820     6059.00000
    65.3951     5938.00000
    65.4083     6123.00000
    65.4214     5997.00000
    65.4345     6154.00000
    65.4476     6032.00000
    65.4608     5986.00000
    65.4739     6132.00000
    65.4870     6025.00000
    65.5002     6098.00000
    65.5133     6162.00000
    65.5264     6209.00000
    65.5396     6346.00000
    65.5527     6196.00000
    65.5658     6011.00000
    65.5790     6028.00000
    65.5921     6234.00000
    65.6052     6126.00000
    65.6183     6177.00000
    65.6315     6075.00000
    65.6446     6286.00000
    65.6577     6120.00000
    65.6709     6169.00000
    65.6840     6078.00000
    65.6971     5901.00000
    65.7103     6074.00000
    65.7234     5986.00000
    65.7365     5956.00000
    65.7496     5972.00000
    65.7628     6108.00000
    65.7759     6055.00000
    65.7890     5973.00000
    65.8022     6119.00000
    65.8153     6004.00000
    65.8284     6161.00000
    65.8416     5910.00000
    65.8547     5956.00000
    65.8678     5860.00000
    65.8810     5927.00000
    65.8941     5956.00000
    65.9072     5849.00000
    65.9203     5851.00000
    65.9335     5880.00000
    65.9466     5791.00000
    65.9597     5911.00000
    65.9729     5737.00000
    65.9860     5864.00000
    65.9991     5899.00000
    66.0123     5857.00000
    66.0254     5899.00000
    66.0385     5960.00000
    66.0516     5935.00000
    66.0648     6058.00000
    66.0779     5876.00000
    66.0910     5890.00000
    66.1042     5807.00000
    66.1173     5928.00000
    66.1304     5902.00000
    66.1436     5923.00000
    66.1567     6033.00000
    66.1698     5993.00000
    66.1829     5980.00000
    66.1961     5902.00000
    66.2092     5979.00000
    66.2223     5916.00000
    66.2355     6040.00000
    66.2486     6204.00000
    66.2617     6011.00000
    66.2749     5992.00000
    66.2880     5979.00000
    66.3011     5916.00000
    66.3142     5935.00000
    66.3274     5967.00000
    66.3405     5949.00000
    66.3536     6081.00000
    66.3668     6207.00000
    66.3799     6152.00000
    66.3930     5921.00000
    66.4062     6031.00000
    66.4193     6045.00000
    66.4324     6058.00000
    66.4455     5990.00000
    66.4587     5939.00000
    66.4718     5830.00000
    66.4849     6013.00000
    66.4981     5895.00000
    66.5112     6189.00000
    66.5243     6057.00000
    66.5375     6216.00000
    66.5506     6222.00000
    66.5637     6207.00000
    66.5769     6115.00000
    66.5900     6268.00000
    66.6031     6195.00000
    66.6162     6158.00000
    66.6294     6117.00000
    66.6425     6278.00000
    66.6556     5795.00000
    66.6688     5911.00000
    66.6819     6194.00000
    66.6950     6028.00000
    66.7082     6025.00000
    66.7213     5955.00000
    66.7344     5893.00000
    66.7476     5866.00000
    66.7607     6147.00000
    66.7738     6019.00000
    66.7869     6003.00000
    66.8001     5902.00000
    66.8132     6057.00000
    66.8263     5890.00000
    66.8395     6038.00000
    66.8526     5934.00000
    66.8657     6099.00000
    66.8789     5825.00000
    66.8920     5988.00000
    66.9051     5915.00000
    66.9182     5826.00000
    66.9314     5993.00000
    66.9445     6009.00000
    66.9576     5976.00000
    66.9708     5882.00000
    66.9839     5832.00000
    66.9970     5816.00000
    67.0102     5939.00000
    67.0233     5895.00000
    67.0364     5923.00000
    67.0495     6102.00000
    67.0627     5919.00000
    67.0758     5925.00000
    67.0889     5842.00000
    67.1021     5841.00000
    67.1152     6111.00000
    67.1283     6023.00000
    67.1415     5849.00000
    67.1546     5918.00000
    67.1677     6159.00000
    67.1808     6057.00000
    67.1940     6021.00000
    67.2071     5945.00000
    67.2202     5761.00000
    67.2334     5881.00000
    67.2465     5849.00000
    67.2596     6073.00000
    67.2728     6025.00000
    67.2859     5934.00000
    67.2990     6010.00000
    67.3121     5918.00000
    67.3253     5862.00000
    67.3384     6137.00000
    67.3515     6108.00000
    67.3647     5854.00000
    67.3778     6103.00000
    67.3909     6101.00000
    67.4041     6125.00000
    67.4172     6196.00000
    67.4303     6082.00000
    67.4435     5891.00000
    67.4566     5899.00000
    67.4697     5988.00000
    67.4828     5938.00000
    67.4960     6002.00000
    67.5091     6029.00000
    67.5222     6186.00000
    67.5354     5871.00000
    67.5485     6015.00000
    67.5616     6071.00000
    67.5748     5978.00000
    67.5879     5939.00000
    67.6010     5967.00000
    67.6142     6020.00000
    67.6273     5983.00000
    67.6404     6007.00000
    67.6535     6051.00000
    67.6667     6017.00000
    67.6798     5943.00000
    67.6929     5925.00000
    67.7061     5893.00000
    67.7192     5898.00000
    67.7323     6087.00000
    67.7455     6017.00000
    67.7586     5952.00000
    67.7717     5921.00000
    67.7848     5876.00000
    67.7980     6004.00000
    67.8111     5983.00000
    67.8242     6088.00000
    67.8374     6121.00000
    67.8505     5813.00000
    67.8636     6052.00000
    67.8768     5992.00000
    67.8899     5793.00000
    67.9030     5946.00000
    67.9161     6048.00000
    67.9293     5930.00000
    67.9424     5842.00000
    67.9555     6012.00000
    67.9687     6117.00000
    67.9818     6014.00000
    67.9949     5865.00000
    68.0081     5986.00000
    68.0212     5989.00000
    68.0343     5830.00000
    68.0474     5966.00000
    68.0606     5935.00000
    68.0737     5867.00000
    68.0868     5867.00000
    68.1000     6066.00000
    68.1131     5919.00000
    68.1262     5993.00000
    68.1394     5856.00000
    68.1525     5831.00000
    68.1656     5921.00000
    68.1787     5915.00000
    68.1919     6046.00000
    68.2050     6098.00000
    68.2181     6150.00000
    68.2313     5952.00000
    68.2444     6000.00000
    68.2575     6006.00000
    68.2707     6011.00000
    68.2838     6118.00000
    68.2969     6056.00000
    68.3101     5976.00000
    68.3232     5798.00000
    68.3363     6086.00000
    68.3494     5894.00000
    68.3626     5896.00000
    68.3757     6067.00000
    68.3888     5972.00000
    68.4020     6052.00000
    68.4151     6062.00000
    68.4282     5965.00000
    68.4414     6097.00000
    68.4545     6020.00000
    68.4676     6061.00000
    68.4807     5926.00000
    68.4939     6119.00000
    68.5070     5962.00000
    68.5201     5979.00000
    68.5333     6004.00000
    68.5464     6080.00000
    68.5595     5907.00000
    68.5727     5960.00000
    68.5858     6050.00000
    68.5989     6009.00000
    68.6120     5839.00000
    68.6252     5946.00000
    68.6383     5922.00000
    68.6514     6000.00000
    68.6646     5968.00000
    68.6777     5940.00000
    68.6908     5952.00000
    68.7040     6088.00000
    68.7171     5932.00000
    68.7302     6045.00000
    68.7434     6013.00000
    68.7565     6048.00000
    68.7696     5896.00000
    68.7827     5908.00000
    68.7959     5939.00000
    68.8090     5913.00000
    68.8221     6006.00000
    68.8353     5854.00000
    68.8484     5964.00000
    68.8615     5910.00000
    68.8747     6006.00000
    68.8878     5922.00000
    68.9009     5946.00000
    68.9140     5942.00000
    68.9272     6016.00000
    68.9403     6105.00000
    68.9534     6133.00000
    68.9666     6071.00000
    68.9797     6074.00000
    68.9928     6249.00000
    69.0060     6207.00000
    69.0191     6331.00000
    69.0322     6238.00000
    69.0453     6369.00000
    69.0585     6324.00000
    69.0716     6518.00000
    69.0847     6482.00000
    69.0979     6672.00000
    69.1110     6588.00000
    69.1241     6557.00000
    69.1373     6679.00000
    69.1504     6594.00000
    69.1635     6822.00000
    69.1767     6796.00000
    69.1898     7177.00000
    69.2029     7320.00000
    69.2160     7591.00000
    69.2292     7851.00000
    69.2423     7901.00000
    69.2554     7755.00000
    69.2686     8085.00000
    69.2817     8116.00000
    69.2948     8158.00000
    69.3080     8403.00000
    69.3211     8516.00000
    69.3342     8420.00000
    69.3473     8183.00000
    69.3605     7781.00000
    69.3736     7589.00000
    69.3867     7265.00000
    69.3999     7207.00000
    69.4130     7395.00000
    69.4261     7152.00000
    69.4393     7199.00000
    69.4524     7393.00000
    69.4655     7070.00000
    69.4786     7247.00000
    69.4918     7235.00000
    69.5049     7349.00000
    69.5180     7403.00000
    69.5312     7457.00000
    69.5443     7480.00000
    69.5574     7336.00000
    69.5706     7477.00000
    69.5837     7434.00000
    69.5968     7401.00000
    69.6099     7287.00000
    69.6231     7202.00000
    69.6362     7341.00000
    69.6493     7391.00000
    69.6625     7206.00000
    69.6756     7620.00000
    69.6887     7678.00000
    69.7019     7641.00000
    69.7150     7531.00000
    69.7281     7695.00000
    69.7413     7423.00000
    69.7544     7511.00000
    69.7675     7269.00000
    69.7806     7167.00000
    69.7938     7248.00000
    69.8069     7285.00000
    69.8200     7173.00000
    69.8332     7354.00000
    69.8463     7451.00000
    69.8594     8048.00000
    69.8726     8301.00000
    69.8857     8418.00000
    69.8988     8350.00000
    69.9119     8052.00000
    69.9251     7883.00000
    69.9382     7376.00000
    69.9513     7161.00000
    69.9645     7034.00000
    69.9776     6714.00000
    69.9907     6485.00000
    70.0039     6395.00000
    70.0170     6365.00000
    70.0301     6457.00000
    70.0433     6614.00000
    70.0564     6724.00000
    70.0695     6775.00000
    70.0826     6875.00000
    70.0958     6675.00000
    70.1089     6672.00000
    70.1220     6559.00000
    70.1352     6452.00000
    70.1483     6202.00000
    70.1614     6236.00000
    70.1746     6104.00000
    70.1877     6113.00000
    70.2008     6104.00000
    70.2139     6172.00000
    70.2271     6051.00000
    70.2402     6101.00000
    70.2533     6105.00000
    70.2665     5903.00000
    70.2796     6005.00000
    70.2927     5953.00000
    70.3059     6022.00000
    70.3190     5960.00000
    70.3321     6040.00000
    70.3452     6176.00000
    70.3584     6031.00000
    70.3715     6171.00000
    70.3846     6145.00000
    70.3978     6087.00000
    70.4109     6087.00000
    70.4240     6125.00000
    70.4372     6082.00000
    70.4503     6041.00000
    70.4634     6075.00000
    70.4765     6121.00000
    70.4897     6214.00000
    70.5028     6196.00000
    70.5159     6029.00000
    70.5291     6227.00000
    70.5422     6005.00000
    70.5553     6296.00000
    70.5685     6327.00000
    70.5816     6220.00000
    70.5947     6172.00000
    70.6078     6210.00000
    70.6210     6048.00000
    70.6341     6222.00000
    70.6472     6069.00000
    70.6604     6001.00000
    70.6735     6007.00000
    70.6866     6132.00000
    70.6998     6038.00000
    70.7129     6147.00000
    70.7260     6505.00000
    70.7392     6404.00000
    70.7523     6397.00000
    70.7654     6411.00000
    70.7785     6536.00000
    70.7917     6425.00000
    70.8048     6624.00000
    70.8179     6849.00000
    70.8311     6539.00000
    70.8442     6614.00000
    70.8573     6627.00000
    70.8705     6618.00000
    70.8836     6744.00000
    70.8967     6618.00000
    70.9099     6624.00000
    70.9230     6429.00000
    70.9361     6467.00000
    70.9492     6424.00000
    70.9624     6274.00000
    70.9755     6528.00000
    70.9886     6496.00000
    71.0018     6602.00000
    71.0149     6347.00000
    71.0280     6534.00000
    71.0412     6522.00000
    71.0543     6574.00000
    71.0674     6496.00000
    71.0805     6397.00000
    71.0937     6360.00000
    71.1068     6402.00000
    71.1199     6171.00000
    71.1331     6192.00000
    71.1462     6148.00000
    71.1593     6325.00000
    71.1725     6191.00000
    71.1856     6307.00000
    71.1987     6321.00000
    71.2118     6303.00000
    71.2250     6257.00000
    71.2381     6113.00000
    71.2512     6026.00000
    71.2644     6186.00000
    71.2775     6281.00000
    71.2906     6234.00000
    71.3038     6080.00000
    71.3169     6097.00000
    71.3300     5916.00000
    71.3431     6251.00000
    71.3563     6034.00000
    71.3694     6016.00000
    71.3825     5881.00000
    71.3957     6054.00000
    71.4088     6102.00000
    71.4219     6175.00000
    71.4351     6064.00000
    71.4482     6094.00000
    71.4613     6051.00000
    71.4744     6040.00000
    71.4876     5921.00000
    71.5007     6042.00000
    71.5138     6103.00000
    71.5270     6050.00000
    71.5401     5998.00000
    71.5532     6069.00000
    71.5664     6013.00000
    71.5795     6011.00000
    71.5926     6041.00000
    71.6058     5858.00000
    71.6189     5990.00000
    71.6320     5990.00000
    71.6451     6139.00000
    71.6583     6058.00000
    71.6714     5975.00000
    71.6845     5885.00000
    71.6977     6098.00000
    71.7108     6216.00000
    71.7239     6058.00000
    71.7371     6102.00000
    71.7502     6057.00000
    71.7633     6257.00000
    71.7764     6129.00000
    71.7896     6202.00000
    71.8027     6139.00000
    71.8158     6106.00000
    71.8290     6053.00000
    71.8421     6111.00000
    71.8552     6426.00000
    71.8684     6419.00000
    71.8815     6338.00000
    71.8946     6416.00000
    71.9078     6577.00000
    71.9209     6503.00000
    71.9340     6546.00000
    71.9471     6458.00000
    71.9603     6337.00000
    71.9734     6321.00000
    71.9865     6439.00000
    71.9997     6463.00000
    72.0128     6599.00000
    72.0259     6660.00000
    72.0391     6798.00000
    72.0522     6920.00000
    72.0653     7150.00000
    72.0784     7395.00000
    72.0916     7554.00000
    72.1047     7863.00000
    72.1178     8295.00000
    72.1310     8498.00000
    72.1441     8548.00000
    72.1572     8613.00000
    72.1704     8348.00000
    72.1835     8362.00000
    72.1966     7945.00000
    72.2097     7746.00000
    72.2229     7438.00000
    72.2360     7436.00000
    72.2491     7102.00000
    72.2623     6849.00000
    72.2754     6933.00000
    72.2885     6745.00000
    72.3017     6875.00000
    72.3148     6852.00000
    72.3279     7154.00000
    72.3410     7030.00000
    72.3542     7111.00000
    72.3673     7131.00000
    72.3804     7172.00000
    72.3936     6920.00000
    72.4067     6699.00000
    72.4198     6848.00000
    72.4330     6600.00000
    72.4461     6527.00000
    72.4592     6229.00000
    72.4724     6244.00000
    72.4855     6161.00000
    72.4986     6259.00000
    72.5117     5999.00000
    72.5249     5915.00000
    72.5380     5972.00000
    72.5511     5895.00000
    72.5643     5903.00000
    72.5774     5980.00000
    72.5905     5954.00000
    72.6037     5889.00000
    72.6168     5901.00000
    72.6299     6062.00000
    72.6430     6020.00000
    72.6562     5969.00000
    72.6693     6055.00000
    72.6824     5942.00000
    72.6956     6041.00000
    72.7087     6094.00000
    72.7218     6214.00000
    72.7350     6335.00000
    72.7481     6448.00000
    72.7612     6278.00000
    72.7743     6568.00000
    72.7875     6642.00000
    72.8006     6597.00000
    72.8137     6425.00000
    72.8269     6406.00000
    72.8400     6278.00000
    72.8531     6123.00000
    72.8663     6191.00000
    72.8794     6038.00000
    72.8925     6065.00000
    72.9057     6010.00000
    72.9188     6094.00000
    72.9319     6144.00000
    72.9450     6132.00000
    72.9582     6187.00000
    72.9713     6413.00000
    72.9844     6363.00000
    72.9976     6208.00000
    73.0107     6253.00000
    73.0238     6256.00000
    73.0370     6252.00000
    73.0501     6098.00000
    73.0632     6070.00000
    73.0763     5945.00000
    73.0895     5936.00000
    73.1026     6045.00000
    73.1157     5971.00000
    73.1289     6064.00000
    73.1420     5877.00000
    73.1551     5936.00000
    73.1683     6038.00000
    73.1814     6138.00000
    73.1945     6172.00000
    73.2076     6166.00000
    73.2208     6037.00000
    73.2339     6097.00000
    73.2470     6273.00000
    73.2602     6159.00000
    73.2733     6165.00000
    73.2864     6137.00000
    73.2996     6174.00000
    73.3127     6052.00000
    73.3258     6053.00000
    73.3390     5909.00000
    73.3521     6015.00000
    73.3652     6145.00000
    73.3783     6047.00000
    73.3915     6152.00000
    73.4046     6095.00000
    73.4177     6247.00000
    73.4309     6074.00000
    73.4440     6132.00000
    73.4571     6521.00000
    73.4703     6426.00000
    73.4834     6534.00000
    73.4965     6366.00000
    73.5096     6549.00000
    73.5228     6650.00000
    73.5359     6865.00000
    73.5490     7064.00000
    73.5622     7078.00000
    73.5753     7403.00000
    73.5884     7373.00000
    73.6016     7617.00000
    73.6147     7465.00000
    73.6278     7263.00000
    73.6409     7046.00000
    73.6541     6736.00000
    73.6672     6746.00000
    73.6803     6373.00000
    73.6935     6454.00000
    73.7066     6502.00000
    73.7197     6695.00000
    73.7329     6534.00000
    73.7460     6491.00000
    73.7591     6405.00000
    73.7722     6503.00000
    73.7854     6595.00000
    73.7985     6679.00000
    73.8116     6769.00000
    73.8248     6730.00000
    73.8379     6558.00000
    73.8510     6375.00000
    73.8642     6486.00000
    73.8773     6544.00000
    73.8904     6366.00000
    73.9035     6307.00000
    73.9167     6224.00000
    73.9298     6171.00000
    73.9429     6313.00000
    73.9561     6341.00000
    73.9692     6071.00000
    73.9823     6009.00000
    73.9955     6200.00000
    74.0086     6102.00000
    74.0217     6231.00000
    74.0349     6206.00000
    74.0480     6002.00000
    74.0611     6013.00000
    74.0742     6073.00000
    74.0874     6201.00000
    74.1005     6129.00000
    74.1136     6256.00000
    74.1268     6152.00000
    74.1399     6221.00000
    74.1530     6178.00000
    74.1662     6525.00000
    74.1793     6346.00000
    74.1924     6121.00000
    74.2056     6332.00000
    74.2187     6173.00000
    74.2318     6051.00000
    74.2449     6153.00000
    74.2581     6157.00000
    74.2712     6146.00000
    74.2843     6175.00000
    74.2975     6257.00000
    74.3106     6306.00000
    74.3237     6345.00000
    74.3369     6589.00000
    74.3500     6635.00000
    74.3631     6852.00000
    74.3762     6771.00000
    74.3894     6961.00000
    74.4025     6736.00000
    74.4156     6817.00000
    74.4288     6964.00000
    74.4419     6701.00000
    74.4550     6652.00000
    74.4682     6886.00000
    74.4813     7033.00000
    74.4944     7146.00000
    74.5075     7447.00000
    74.5207     7674.00000
    74.5338     7780.00000
    74.5469     7961.00000
    74.5601     7815.00000
    74.5732     7621.00000
    74.5863     7480.00000
    74.5995     7286.00000
    74.6126     7177.00000
    74.6257     7073.00000
    74.6388     6937.00000
    74.6520     6798.00000
    74.6651     6572.00000
    74.6782     6587.00000
    74.6914     6553.00000
    74.7045     6743.00000
    74.7176     6612.00000
    74.7308     6765.00000
    74.7439     6758.00000
    74.7570     6714.00000
    74.7701     6914.00000
    74.7833     6894.00000
    74.7964     6756.00000
    74.8095     6509.00000
    74.8227     6385.00000
    74.8358     6220.00000
    74.8489     6186.00000
    74.8621     6250.00000
    74.8752     6074.00000
    74.8883     6213.00000
    74.9015     5909.00000
    74.9146     6010.00000
    74.9277     6005.00000
    74.9408     5924.00000
    74.9540     6013.00000
    74.9671     5995.00000
    74.9802     6056.00000
    74.9934     5978.00000
    75.0065     5962.00000
    75.0196     5789.00000
    75.0328     6003.00000
    75.0459     6051.00000
    75.0590     5989.00000
    75.0722     6072.00000
    75.0853     6000.00000
    75.0984     6146.00000
    75.1115     6047.00000
    75.1247     6126.00000
    75.1378     6072.00000
    75.1509     6095.00000
    75.1641     6013.00000
    75.1772     5930.00000
    75.1903     5958.00000
    75.2035     5922.00000
    75.2166     5855.00000
    75.2297     5942.00000
    75.2428     5739.00000
    75.2560     5814.00000
    75.2691     5884.00000
    75.2822     5852.00000
    75.2954     5836.00000
    75.3085     5894.00000
    75.3216     6089.00000
    75.3348     5959.00000
    75.3479     6004.00000
    75.3610     5822.00000
    75.3741     5735.00000
    75.3873     5722.00000
    75.4004     5913.00000
    75.4135     5992.00000
    75.4267     5865.00000
    75.4398     5914.00000
    75.4529     5920.00000
    75.4661     5935.00000
    75.4792     5868.00000
    75.4923     5843.00000
    75.5054     5957.00000
    75.5186     6026.00000
    75.5317     5939.00000
    75.5448     5793.00000
    75.5580     5903.00000
    75.5711     5807.00000
    75.5842     5768.00000
    75.5974     5948.00000
    75.6105     5801.00000
    75.6236     5827.00000
    75.6367     5708.00000
    75.6499     5917.00000
    75.6630     6050.00000
    75.6761     5918.00000
    75.6893     5823.00000
    75.7024     5905.00000
    75.7155     5815.00000
    75.7287     5810.00000
    75.7418     5755.00000
    75.7549     5887.00000
    75.7681     5857.00000
    75.7812     5948.00000
    75.7943     5831.00000
    75.8074     6047.00000
    75.8206     5838.00000
    75.8337     6020.00000
    75.8468     6104.00000
    75.8600     6035.00000
    75.8731     5841.00000
    75.8862     6064.00000
    75.8994     6249.00000
    75.9125     6165.00000
    75.9256     6146.00000
    75.9387     6261.00000
    75.9519     6195.00000
    75.9650     6152.00000
    75.9781     6038.00000
    75.9913     5847.00000
    76.0044     6081.00000
    76.0175     5967.00000
    76.0307     5915.00000
    76.0438     5908.00000
    76.0569     5968.00000
    76.0701     6088.00000
    76.0832     6142.00000
    76.0963     5926.00000
    76.1094     6020.00000
    76.1226     6188.00000
    76.1357     6135.00000
    76.1488     6009.00000
    76.1620     6264.00000
    76.1751     6171.00000
    76.1882     6028.00000
    76.2014     6099.00000
    76.2145     6115.00000
    76.2276     6026.00000
    76.2407     6053.00000
    76.2539     6192.00000
    76.2670     5850.00000
    76.2801     5890.00000
    76.2933     5832.00000
    76.3064     6066.00000
    76.3195     5901.00000
    76.3327     5861.00000
    76.3458     5945.00000
    76.3589     5859.00000
    76.3720     5988.00000
    76.3852     6022.00000
    76.3983     6023.00000
    76.4114     5929.00000
    76.4246     5991.00000
    76.4377     6200.00000
    76.4508     5934.00000
    76.4640     5995.00000
    76.4771     5968.00000
    76.4902     6284.00000
    76.5033     6303.00000
    76.5165     6396.00000
    76.5296     6115.00000
    76.5427     6247.00000
    76.5559     6143.00000
    76.5690     6151.00000
    76.5821     5934.00000
    76.5953     6048.00000
    76.6084     6066.00000
    76.6215     5988.00000
    76.6347     5952.00000
    76.6478     5939.00000
    76.6609     5864.00000
    76.6740     5965.00000
    76.6872     6141.00000
    76.7003     6049.00000
    76.7134     6000.00000
    76.7266     6009.00000
    76.7397     6036.00000
    76.7528     6024.00000
    76.7660     6315.00000
    76.7791     6275.00000
    76.7922     6138.00000
    76.8053     6071.00000
    76.8185     6099.00000
    76.8316     6185.00000
    76.8447     6065.00000
    76.8579     6204.00000
    76.8710     6280.00000
    76.8841     6241.00000
    76.8973     6250.00000
    76.9104     6582.00000
    76.9235     6477.00000
    76.9366     6660.00000
    76.9498     6597.00000
    76.9629     6798.00000
    76.9760     6932.00000
    76.9892     7178.00000
    77.0023     7626.00000
    77.0154     7882.00000
    77.0286     8249.00000
    77.0417     8397.00000
    77.0548     8257.00000
    77.0679     8220.00000
    77.0811     7610.00000
    77.0942     7535.00000
    77.1073     7217.00000
    77.1205     6861.00000
    77.1336     6650.00000
    77.1467     6655.00000
    77.1599     6651.00000
    77.1730     6617.00000
    77.1861     6673.00000
    77.1993     6549.00000
    77.2124     6689.00000
    77.2255     6856.00000
    77.2386     6979.00000
    77.2518     6961.00000
    77.2649     7151.00000
    77.2780     6840.00000
    77.2912     6833.00000
    77.3043     6856.00000
    77.3174     6635.00000
    77.3306     6460.00000
    77.3437     6455.00000
    77.3568     6455.00000
    77.3699     6284.00000
    77.3831     6280.00000
    77.3962     6341.00000
    77.4093     6200.00000
    77.4225     6154.00000
    77.4356     6280.00000
    77.4487     6338.00000
    77.4619     6515.00000
    77.4750     6472.00000
    77.4881     6448.00000
    77.5013     6535.00000
    77.5144     6552.00000
    77.5275     6709.00000
    77.5406     6730.00000
    77.5538     6687.00000
    77.5669     6681.00000
    77.5800     6677.00000
    77.5932     6760.00000
    77.6063     6395.00000
    77.6194     6219.00000
    77.6326     6153.00000
    77.6457     6349.00000
    77.6588     6460.00000
    77.6719     6384.00000
    77.6851     6123.00000
    77.6982     6505.00000
    77.7113     6523.00000
    77.7245     6460.00000
    77.7376     6650.00000
    77.7507     6770.00000
    77.7639     6844.00000
    77.7770     6897.00000
    77.7901     6756.00000
    77.8032     6686.00000
    77.8164     6418.00000
    77.8295     6241.00000
    77.8426     6083.00000
    77.8558     6090.00000
    77.8689     5936.00000
    77.8820     5952.00000
    77.8952     5965.00000
    77.9083     6034.00000
    77.9214     5909.00000
    77.9345     5934.00000
    77.9477     5948.00000
    77.9608     6074.00000
    77.9739     6144.00000
    77.9871     6124.00000
    78.0002     6116.00000
    78.0133     6077.00000
    78.0265     6023.00000
    78.0396     5864.00000
    78.0527     5909.00000
    78.0658     6016.00000
    78.0790     5995.00000
    78.0921     5990.00000
    78.1052     5856.00000
    78.1184     5893.00000
    78.1315     5787.00000
    78.1446     5803.00000
    78.1578     5867.00000
    78.1709     5858.00000
    78.1840     5774.00000
    78.1972     5909.00000
    78.2103     5810.00000
    78.2234     5811.00000
    78.2365     5929.00000
    78.2497     5917.00000
    78.2628     5864.00000
    78.2759     5877.00000
    78.2891     5898.00000
    78.3022     5979.00000
    78.3153     5876.00000
    78.3285     5822.00000
    78.3416     5831.00000
    78.3547     5940.00000
    78.3679     5965.00000
    78.3810     6028.00000
    78.3941     5733.00000
    78.4072     5751.00000
    78.4204     5921.00000
    78.4335     5848.00000
    78.4466     5819.00000
    78.4598     5843.00000
    78.4729     5806.00000
    78.4860     5895.00000
    78.4992     5752.00000
    78.5123     6001.00000
    78.5254     5920.00000
    78.5385     5843.00000
    78.5517     5976.00000
    78.5648     6008.00000
    78.5779     5896.00000
    78.5911     5940.00000
    78.6042     5914.00000
    78.6173     6043.00000
    78.6305     6016.00000
    78.6436     5913.00000
    78.6567     5849.00000
    78.6698     5907.00000
    78.6830     5859.00000
    78.6961     5881.00000
    78.7092     5678.00000
    78.7224     5967.00000
    78.7355     5908.00000
    78.7486     5859.00000
    78.7618     5988.00000
    78.7749     5932.00000
    78.7880     5898.00000
    78.8011     6021.00000
    78.8143     5988.00000
    78.8274     6182.00000
    78.8405     5979.00000
    78.8537     6010.00000
    78.8668     6256.00000
    78.8799     6111.00000
    78.8931     6043.00000
    78.9062     5955.00000
    78.9193     6082.00000
    78.9324     6101.00000
    78.9456     6007.00000
    78.9587     5924.00000
    78.9718     5953.00000
    78.9850     6005.00000
    78.9981     5869.00000
    79.0112     6031.00000
    79.0244     6104.00000
    79.0375     6001.00000
    79.0506     6090.00000
    79.0638     6052.00000
    79.0769     6079.00000
    79.0900     6120.00000
    79.1031     6198.00000
    79.1163     6033.00000
    79.1294     6157.00000
    79.1425     6173.00000
    79.1557     6151.00000
    79.1688     6147.00000
    79.1819     6357.00000
    79.1951     6473.00000
    79.2082     6359.00000
    79.2213     6439.00000
    79.2345     6537.00000
    79.2476     6622.00000
    79.2607     6673.00000
    79.2738     6627.00000
    79.2870     6787.00000
    79.3001     7062.00000
    79.3132     7149.00000
    79.3264     6957.00000
    79.3395     6923.00000
    79.3526     6655.00000
    79.3658     6844.00000
    79.3789     6752.00000
    79.3920     6564.00000
    79.4051     6618.00000
    79.4183     6516.00000
    79.4314     6311.00000
    79.4445     6555.00000
    79.4577     6336.00000
    79.4708     6345.00000
    79.4839     6679.00000
    79.4971     6513.00000
    79.5102     6413.00000
    79.5233     6550.00000
    79.5364     6676.00000
    79.5496     6659.00000
    79.5627     6751.00000
    79.5758     6782.00000
    79.5890     6797.00000
    79.6021     6532.00000
    79.6152     6472.00000
    79.6284     6486.00000
    79.6415     6344.00000
    79.6546     6347.00000
    79.6677     6308.00000
    79.6809     6129.00000
    79.6940     6147.00000
    79.7071     5983.00000
    79.7203     6201.00000
    79.7334     6321.00000
    79.7465     6200.00000
    79.7597     6359.00000
    79.7728     6425.00000
    79.7859     6378.00000
    79.7990     6523.00000
    79.8122     6690.00000
    79.8253     6760.00000
    79.8384     6952.00000
    79.8516     6948.00000
    79.8647     7054.00000
    79.8778     7245.00000
    79.8910     7211.00000
    79.9041     7273.00000
    79.9172     7209.00000
    79.9304     7005.00000
    79.9435     6900.00000
    79.9566     6691.00000
    79.9697     6620.00000
    79.9829     6339.00000
    79.9960     6391.00000
    80.0091     6305.00000
    80.0223     6463.00000
    80.0354     6457.00000
    80.0485     6417.00000
    80.0617     6294.00000
    80.0748     6408.00000
    80.0879     6508.00000
    80.1010     6577.00000
    80.1142     6585.00000
    80.1273     6721.00000
    80.1404     6644.00000
    80.1536     6673.00000
    80.1667     6561.00000
    80.1798     6391.00000
    80.1930     6283.00000
    80.2061     6380.00000
    80.2192     6399.00000
    80.2323     6118.00000
    80.2455     6132.00000
    80.2586     6286.00000
    80.2717     6088.00000
    80.2849     6249.00000
    80.2980     6163.00000
    80.3111     6073.00000
    80.3243     6136.00000
    80.3374     6086.00000
    80.3505     6038.00000
    80.3637     6004.00000
    80.3768     5946.00000
    80.3899     5883.00000
    80.4030     5949.00000
    80.4162     6072.00000
    80.4293     6088.00000
    80.4424     5866.00000
    80.4556     5856.00000
    80.4687     5926.00000
    80.4818     6045.00000
    80.4950     6101.00000
    80.5081     6101.00000
    80.5212     6187.00000
    80.5343     6137.00000
    80.5475     6000.00000
    80.5606     6083.00000
    80.5737     6216.00000
    80.5869     6319.00000
    80.6000     6151.00000
    80.6131     6282.00000
    80.6263     6147.00000
    80.6394     6162.00000
    80.6525     6211.00000
    80.6656     5886.00000
    80.6788     6119.00000
    80.6919     6113.00000
    80.7050     5934.00000
    80.7182     5930.00000
    80.7313     6041.00000
    80.7444     6012.00000
    80.7576     6078.00000
    80.7707     6025.00000
    80.7838     6139.00000
    80.7970     6370.00000
    80.8101     6185.00000
    80.8232     6297.00000
    80.8363     6392.00000
    80.8495     6424.00000
    80.8626     6851.00000
    80.8757     6838.00000
    80.8889     6934.00000
    80.9020     6717.00000
    80.9151     6677.00000
    80.9283     6522.00000
    80.9414     6621.00000
    80.9545     6562.00000
    80.9676     6544.00000
    80.9808     6405.00000
    80.9939     6435.00000
    81.0070     6299.00000
    81.0202     6510.00000
    81.0333     6466.00000
    81.0464     6496.00000
    81.0596     6515.00000
    81.0727     6798.00000
    81.0858     6772.00000
    81.0989     6617.00000
    81.1121     6764.00000
    81.1252     6832.00000
    81.1383     6706.00000
    81.1515     6959.00000
    81.1646     6686.00000
    81.1777     6614.00000
    81.1909     6517.00000
    81.2040     6685.00000
    81.2171     6385.00000
    81.2302     6493.00000
    81.2434     6478.00000
    81.2565     6561.00000
    81.2696     6418.00000
    81.2828     6433.00000
    81.2959     6418.00000
    81.3090     6590.00000
    81.3222     6449.00000
    81.3353     6432.00000
    81.3484     6525.00000
    81.3616     6395.00000
    81.3747     6299.00000
    81.3878     6301.00000
    81.4009     6382.00000
    81.4141     6344.00000
    81.4272     6261.00000
    81.4403     6123.00000
    81.4535     6161.00000
    81.4666     6094.00000
    81.4797     6317.00000
    81.4929     6335.00000
    81.5060     6367.00000
    81.5191     6358.00000
    81.5322     6671.00000
    81.5454     6582.00000
    81.5585     6529.00000
    81.5716     6892.00000
    81.5848     6674.00000
    81.5979     6689.00000
    81.6110     6797.00000
    81.6242     6794.00000
    81.6373     6883.00000
    81.6504     6924.00000
    81.6636     6942.00000
    81.6767     6898.00000
    81.6898     6775.00000
    81.7029     6572.00000
    81.7161     6733.00000
    81.7292     6526.00000
    81.7423     6475.00000
    81.7555     6250.00000
    81.7686     6414.00000
    81.7817     6309.00000
    81.7949     6418.00000
    81.8080     6272.00000
    81.8211     6257.00000
    81.8342     6651.00000
    81.8474     6313.00000
    81.8605     6204.00000
    81.8736     6493.00000
    81.8868     6542.00000
    81.8999     6502.00000
    81.9130     6368.00000
    81.9262     6163.00000
    81.9393     6307.00000
    81.9524     6145.00000
    81.9655     6133.00000
    81.9787     6099.00000
    81.9918     5943.00000
    82.0049     5979.00000
    82.0181     6307.00000
    82.0312     6106.00000
    82.0443     5976.00000
    82.0575     5907.00000
    82.0706     5958.00000
    82.0837     6129.00000
    82.0968     5989.00000
    82.1100     6130.00000
    82.1231     6039.00000
    82.1362     6026.00000
    82.1494     6072.00000
    82.1625     6033.00000
    82.1756     5900.00000
    82.1888     5949.00000
    82.2019     5955.00000
    82.2150     5987.00000
    82.2281     5886.00000
    82.2413     5876.00000
    82.2544     5895.00000
    82.2675     5977.00000
    82.2807     5903.00000
    82.2938     5762.00000
    82.3069     5884.00000
    82.3201     6015.00000
    82.3332     5788.00000
    82.3463     5875.00000
    82.3595     6124.00000
    82.3726     5999.00000
    82.3857     5908.00000
    82.3988     5953.00000
    82.4120     5955.00000
    82.4251     6183.00000
    82.4382     5949.00000
    82.4514     5881.00000
    82.4645     6039.00000
    82.4776     5966.00000
    82.4908     5983.00000
    82.5039     5987.00000
    82.5170     5953.00000
    82.5302     5909.00000
    82.5433     5992.00000
    82.5564     6029.00000
    82.5695     6029.00000
    82.5827     6387.00000
    82.5958     6334.00000
    82.6089     6379.00000
    82.6221     6303.00000
    82.6352     6476.00000
    82.6483     6530.00000
    82.6615     6439.00000
    82.6746     6345.00000
    82.6877     6466.00000
    82.7008     6378.00000
    82.7140     6312.00000
    82.7271     6329.00000
    82.7402     6139.00000
    82.7534     5992.00000
    82.7665     6079.00000
    82.7796     6127.00000
    82.7928     6091.00000
    82.8059     5929.00000
    82.8190     6037.00000
    82.8321     6207.00000
    82.8453     6278.00000
    82.8584     6146.00000
    82.8715     6286.00000
    82.8847     6322.00000
    82.8978     6387.00000
    82.9109     6464.00000
    82.9241     6545.00000
    82.9372     6503.00000
    82.9503     6691.00000
    82.9634     6386.00000
    82.9766     6282.00000
    82.9897     6258.00000
    83.0028     6276.00000
    83.0160     6334.00000
    83.0291     6182.00000
    83.0422     6090.00000
    83.0554     6159.00000
    83.0685     6408.00000
    83.0816     6377.00000
    83.0947     6595.00000
    83.1079     6682.00000
    83.1210     6690.00000
    83.1341     6668.00000
    83.1473     6720.00000
    83.1604     6657.00000
    83.1735     6594.00000
    83.1867     6453.00000
    83.1998     6369.00000
    83.2129     6447.00000
    83.2261     6475.00000
    83.2392     6286.00000
    83.2523     6123.00000
    83.2654     6080.00000
    83.2786     6150.00000
    83.2917     6180.00000
    83.3048     5970.00000
    83.3180     6038.00000
    83.3311     5923.00000
    83.3442     6007.00000
    83.3574     6261.00000
    83.3705     6085.00000
    83.3836     6141.00000
    83.3967     6212.00000
    83.4099     6193.00000
    83.4230     6053.00000
    83.4361     5976.00000
    83.4493     6076.00000
    83.4624     5981.00000
    83.4755     5994.00000
    83.4887     5989.00000
    83.5018     6084.00000
    83.5149     6011.00000
    83.5281     5988.00000
    83.5412     5936.00000
    83.5543     5917.00000
    83.5674     5937.00000
    83.5806     5919.00000
    83.5937     5901.00000
    83.6068     5714.00000
    83.6200     5811.00000
    83.6331     5818.00000
    83.6462     5841.00000
    83.6594     5910.00000
    83.6725     5800.00000
    83.6856     5870.00000
    83.6987     5862.00000
    83.7119     5817.00000
    83.7250     5728.00000
    83.7381     5761.00000
    83.7513     5809.00000
    83.7644     5632.00000
    83.7775     5785.00000
    83.7907     5718.00000
    83.8038     5879.00000
    83.8169     5890.00000
    83.8300     5791.00000
    83.8432     5768.00000
    83.8563     5915.00000
    83.8694     5621.00000
    83.8826     5780.00000
    83.8957     5717.00000
    83.9088     5690.00000
    83.9220     5966.00000
    83.9351     5642.00000
    83.9482     5766.00000
    83.9613     5620.00000
    83.9745     5658.00000
    83.9876     5728.00000
    84.0007     5675.00000
    84.0139     5696.00000
    84.0270     5797.00000
    84.0401     5775.00000
    84.0533     5828.00000
    84.0664     5741.00000
    84.0795     5888.00000
    84.0927     5749.00000
    84.1058     5684.00000
    84.1189     5672.00000
    84.1320     5645.00000
    84.1452     5590.00000
    84.1583     5682.00000
    84.1714     5873.00000
    84.1846     5672.00000
    84.1977     5755.00000
    84.2108     5770.00000
    84.2240     5887.00000
    84.2371     5856.00000
    84.2502     5801.00000
    84.2633     5926.00000
    84.2765     5815.00000
    84.2896     5733.00000
    84.3027     5735.00000
    84.3159     5819.00000
    84.3290     5935.00000
    84.3421     5943.00000
    84.3553     5825.00000
    84.3684     5948.00000
    84.3815     5906.00000
    84.3946     5895.00000
    84.4078     5882.00000
    84.4209     5901.00000
    84.4340     5883.00000
    84.4472     5886.00000
    84.4603     6072.00000
    84.4734     5949.00000
    84.4866     5884.00000
    84.4997     6124.00000
    84.5128     5919.00000
    84.5260     5938.00000
    84.5391     5924.00000
    84.5522     5837.00000
    84.5653     5819.00000
    84.5785     5939.00000
    84.5916     6007.00000
    84.6047     5831.00000
    84.6179     5911.00000
    84.6310     5875.00000
    84.6441     5895.00000
    84.6573     5921.00000
    84.6704     5920.00000
    84.6835     6023.00000
    84.6966     5871.00000
    84.7098     5884.00000
    84.7229     6029.00000
    84.7360     6106.00000
    84.7492     6070.00000
    84.7623     5928.00000
    84.7754     5895.00000
    84.7886     6074.00000
    84.8017     6028.00000
    84.8148     6117.00000
    84.8279     6233.00000
    84.8411     6203.00000
    84.8542     6167.00000
    84.8673     6128.00000
    84.8805     6195.00000
    84.8936     6435.00000
    84.9067     6286.00000
    84.9199     6094.00000
    84.9330     6429.00000
    84.9461     6475.00000
    84.9593     6356.00000
    84.9724     6448.00000
    84.9855     6348.00000
    84.9986     6361.00000
    85.0118     6254.00000
    85.0249     6089.00000
    85.0380     6073.00000
    85.0512     6096.00000
    85.0643     6128.00000
    85.0774     5980.00000
    85.0906     6230.00000
    85.1037     6254.00000
    85.1168     6118.00000
    85.1299     6101.00000
    85.1431     6216.00000
    85.1562     6165.00000
    85.1693     5950.00000
    85.1825     6114.00000
    85.1956     6075.00000
    85.2087     6000.00000
    85.2219     6115.00000
    85.2350     6196.00000
    85.2481     5947.00000
    85.2612     5970.00000
    85.2744     6069.00000
    85.2875     6069.00000
    85.3006     6077.00000
    85.3138     5881.00000
    85.3269     5781.00000
    85.3400     5806.00000
    85.3532     6020.00000
    85.3663     5774.00000
    85.3794     5890.00000
    85.3925     5824.00000
    85.4057     5960.00000
    85.4188     5958.00000
    85.4319     6058.00000
    85.4451     5920.00000
    85.4582     5896.00000
    85.4713     5785.00000
    85.4845     5903.00000
    85.4976     5834.00000
    85.5107     5806.00000
    85.5238     5874.00000
    85.5370     5888.00000
    85.5501     5765.00000
    85.5632     5843.00000
    85.5764     5784.00000
    85.5895     5938.00000
    85.6026     5826.00000
    85.6158     5779.00000
    85.6289     5778.00000
    85.6420     5754.00000
    85.6552     5890.00000
    85.6683     6125.00000
    85.6814     5938.00000
    85.6945     5759.00000
    85.7077     5876.00000
    85.7208     6066.00000
    85.7339     5807.00000
    85.7471     5863.00000
    85.7602     5902.00000
    85.7733     5973.00000
    85.7865     5985.00000
    85.7996     6199.00000
    85.8127     5998.00000
    85.8259     5992.00000
    85.8390     6087.00000
    85.8521     6177.00000
    85.8652     6034.00000
    85.8784     6029.00000
    85.8915     5896.00000
    85.9046     5922.00000
    85.9178     6078.00000
    85.9309     5958.00000
    85.9440     5938.00000
    85.9572     5896.00000
    85.9703     5881.00000
    85.9834     5780.00000
    85.9965     5908.00000
    86.0097     5829.00000
    86.0228     5674.00000
    86.0359     5699.00000
    86.0491     5987.00000
    86.0622     5790.00000
    86.0753     5940.00000
    86.0885     5725.00000
    86.1016     5785.00000
    86.1147     5867.00000
    86.1278     5880.00000
    86.1410     5927.00000
    86.1541     6053.00000
    86.1672     5971.00000
    86.1804     6083.00000
    86.1935     5965.00000
    86.2066     5875.00000
    86.2198     5684.00000
    86.2329     5847.00000
    86.2460     5651.00000
    86.2591     5675.00000
    86.2723     5957.00000
    86.2854     5849.00000
    86.2985     5934.00000
    86.3117     5920.00000
    86.3248     5896.00000
    86.3379     5856.00000
    86.3511     5704.00000
    86.3642     5718.00000
    86.3773     5740.00000
    86.3904     5841.00000
    86.4036     5659.00000
    86.4167     5767.00000
    86.4298     5904.00000
    86.4430     5618.00000
    86.4561     5735.00000
    86.4692     5727.00000
    86.4824     5662.00000
    86.4955     5974.00000
    86.5086     5990.00000
    86.5218     5758.00000
    86.5349     5845.00000
    86.5480     5927.00000
    86.5611     6002.00000
    86.5743     6066.00000
    86.5874     5945.00000
    86.6005     6034.00000
    86.6137     6080.00000
    86.6268     5926.00000
    86.6399     5910.00000
    86.6531     6114.00000
    86.6662     6049.00000
    86.6793     5985.00000
    86.6925     6116.00000
    86.7056     6116.00000
    86.7187     6086.00000
    86.7318     6031.00000
    86.7450     6088.00000
    86.7581     6285.00000
    86.7712     6261.00000
    86.7844     6336.00000
    86.7975     6210.00000
    86.8106     6169.00000
    86.8238     6231.00000
    86.8369     6397.00000
    86.8500     6656.00000
    86.8631     6280.00000
    86.8763     6325.00000
    86.8894     6451.00000
    86.9025     6456.00000
    86.9157     6480.00000
    86.9288     6609.00000
    86.9419     6461.00000
    86.9551     6358.00000
    86.9682     6157.00000
    86.9813     6444.00000
    86.9944     6323.00000
    87.0076     6351.00000
    87.0207     6312.00000
    87.0338     6384.00000
    87.0470     6428.00000
    87.0601     6446.00000
    87.0732     6523.00000
    87.0864     6783.00000
    87.0995     6999.00000
    87.1126     6917.00000
    87.1257     6910.00000
    87.1389     6695.00000
    87.1520     6768.00000
    87.1651     6516.00000
    87.1783     6464.00000
    87.1914     6464.00000
    87.2045     6360.00000
    87.2177     6352.00000
    87.2308     6302.00000
    87.2439     6454.00000
    87.2570     6370.00000
    87.2702     6380.00000
    87.2833     6502.00000
    87.2964     6343.00000
    87.3096     6605.00000
    87.3227     6749.00000
    87.3358     6518.00000
    87.3490     6786.00000
    87.3621     6912.00000
    87.3752     6828.00000
    87.3884     6942.00000
    87.4015     6921.00000
    87.4146     6741.00000
    87.4277     6546.00000
    87.4409     6643.00000
    87.4540     6418.00000
    87.4671     6370.00000
    87.4803     6294.00000
    87.4934     6414.00000
    87.5065     6239.00000
    87.5197     6089.00000
    87.5328     6020.00000
    87.5459     6079.00000
    87.5590     6149.00000
    87.5722     6159.00000
    87.5853     5913.00000
    87.5984     6316.00000
    87.6116     6167.00000
    87.6247     6230.00000
    87.6378     6133.00000
    87.6510     6049.00000
    87.6641     6220.00000
    87.6772     6207.00000
    87.6904     6177.00000
    87.7035     6025.00000
    87.7166     5878.00000
    87.7297     5912.00000
    87.7429     6117.00000
    87.7560     6078.00000
    87.7691     5886.00000
    87.7823     5979.00000
    87.7954     5902.00000
    87.8085     5955.00000
    87.8217     6224.00000
    87.8348     5902.00000
    87.8479     5959.00000
    87.8610     5965.00000
    87.8742     6030.00000
    87.8873     5962.00000
    87.9004     5995.00000
    87.9136     6033.00000
    87.9267     5817.00000
    87.9398     6150.00000
    87.9530     6019.00000
    87.9661     5992.00000
    87.9792     6226.00000
    87.9923     6051.00000
    88.0055     6143.00000
    88.0186     6091.00000
    88.0317     6198.00000
    88.0449     6095.00000
    88.0580     6064.00000
    88.0711     5964.00000
    88.0843     5933.00000
    88.0974     5989.00000
    88.1105     5906.00000
    88.1236     5742.00000
    88.1368     5899.00000
    88.1499     5908.00000
    88.1630     5829.00000
    88.1762     5826.00000
    88.1893     5984.00000
    88.2024     5980.00000
    88.2156     6054.00000
    88.2287     5904.00000
    88.2418     6150.00000
    88.2550     6121.00000
    88.2681     6167.00000
    88.2812     6107.00000
    88.2943     6357.00000
    88.3075     6428.00000
    88.3206     6507.00000
    88.3337     6588.00000
    88.3469     6628.00000
    88.3600     6556.00000
    88.3731     6599.00000
    88.3863     6578.00000
    88.3994     6736.00000
    88.4125     6553.00000
    88.4256     6703.00000
    88.4388     6533.00000
    88.4519     6189.00000
    88.4650     6183.00000
    88.4782     6256.00000
    88.4913     6085.00000
    88.5044     6068.00000
    88.5176     5948.00000
    88.5307     6101.00000
    88.5438     6092.00000
    88.5569     6000.00000
    88.5701     5989.00000
    88.5832     6156.00000
    88.5963     6162.00000
    88.6095     6178.00000
    88.6226     6324.00000
    88.6357     6198.00000
    88.6489     6343.00000
    88.6620     6276.00000
    88.6751     6238.00000
    88.6882     6267.00000
    88.7014     6234.00000
    88.7145     6308.00000
    88.7276     6436.00000
    88.7408     6285.00000
    88.7539     6081.00000
    88.7670     6312.00000
    88.7802     6310.00000
    88.7933     6497.00000
    88.8064     6271.00000
    88.8196     6360.00000
    88.8327     6276.00000
    88.8458     6233.00000
    88.8589     6269.00000
    88.8721     6083.00000
    88.8852     6071.00000
    88.8983     6064.00000
    88.9115     6044.00000
    88.9246     5967.00000
    88.9377     6056.00000
    88.9509     5877.00000
    88.9640     5911.00000
    88.9771     5977.00000
    88.9902     6048.00000
    89.0034     6209.00000
    89.0165     6197.00000
    89.0296     6227.00000
    89.0428     6331.00000
    89.0559     6256.00000
    89.0690     6627.00000
    89.0822     6590.00000
    89.0953     6577.00000
    89.1084     6487.00000
    89.1216     6483.00000
    89.1347     6556.00000
    89.1478     6536.00000
    89.1609     6645.00000
    89.1741     6395.00000
    89.1872     6422.00000
    89.2003     6514.00000
    89.2135     6321.00000
    89.2266     6330.00000
    89.2397     6161.00000
    89.2529     6348.00000
    89.2660     6237.00000
    89.2791     6207.00000
    89.2922     6075.00000
    89.3054     6128.00000
    89.3185     6059.00000
    89.3316     6097.00000
    89.3448     5994.00000
    89.3579     6125.00000
    89.3710     6285.00000
    89.3842     6228.00000
    89.3973     6083.00000
    89.4104     6176.00000
    89.4235     6234.00000
    89.4367     6131.00000
    89.4498     6428.00000
    89.4629     6342.00000
    89.4761     6244.00000
    89.4892     6574.00000
    89.5023     6457.00000
    89.5155     6629.00000
    89.5286     6563.00000
    89.5417     6553.00000
    89.5548     6542.00000
    89.5680     6318.00000
    89.5811     6499.00000
    89.5942     6280.00000
    89.6074     6283.00000
    89.6205     6178.00000
    89.6336     6236.00000
    89.6468     6220.00000
    89.6599     6263.00000
    89.6730     6539.00000
    89.6861     6476.00000
    89.6993     6324.00000
    89.7124     6376.00000
    89.7255     6498.00000
    89.7387     6533.00000
    89.7518     6616.00000
    89.7649     6621.00000
    89.7781     6616.00000
    89.7912     6699.00000
    89.8043     6694.00000
    89.8175     6797.00000
    89.8306     6530.00000
    89.8437     6639.00000
    89.8568     6718.00000
    89.8700     6698.00000
    89.8831     6889.00000
    89.8962     6901.00000
    89.9094     6771.00000
    89.9225     6607.00000
    89.9356     6623.00000
    89.9488     6508.00000
    89.9619     6509.00000
    89.9750     6268.00000
    89.9882     6535.00000
    90.0013     6458.00000
    90.0144     6204.00000
    90.0275     6212.00000
    90.0407     6059.00000
    90.0538     6323.00000
    90.0669     6337.00000
    90.0801     6150.00000
    90.0932     6109.00000
    90.1063     6067.00000
    90.1195     6133.00000
    90.1326     6031.00000
    90.1457     6058.00000
    90.1588     6249.00000
    90.1720     6123.00000
    90.1851     6109.00000
    90.1982     6176.00000
    90.2114     6013.00000
    90.2245     6062.00000
    90.2376     5926.00000
    90.2508     5883.00000
    90.2639     5934.00000
    90.2770     6004.00000
    90.2901     5955.00000
    90.3033     5835.00000
    90.3164     5843.00000
    90.3295     5907.00000
    90.3427     5809.00000
    90.3558     5766.00000
    90.3689     5819.00000
    90.3821     5813.00000
    90.3952     5676.00000
    90.4083     5928.00000
    90.4214     5888.00000
    90.4346     5791.00000
    90.4477     5640.00000
    90.4608     5729.00000
    90.4740     5802.00000
    90.4871     5694.00000
    90.5002     5741.00000
    90.5134     5738.00000
    90.5265     5707.00000
    90.5396     5891.00000
    90.5527     5644.00000
    90.5659     5758.00000
    90.5790     5802.00000
    90.5921     5621.00000
    90.6053     5763.00000
    90.6184     5686.00000
    90.6315     5839.00000
    90.6447     5740.00000
    90.6578     5742.00000
    90.6709     5899.00000
    90.6841     5826.00000
    90.6972     5837.00000
    90.7103     5866.00000
    90.7234     5754.00000
    90.7366     5774.00000
    90.7497     5766.00000
    90.7628     5746.00000
    90.7760     5849.00000
    90.7891     5685.00000
    90.8022     5667.00000
    90.8154     5720.00000
    90.8285     5783.00000
    90.8416     5975.00000
    90.8548     5743.00000
    90.8679     5769.00000
    90.8810     5941.00000
    90.8941     5882.00000
    90.9073     5709.00000
    90.9204     5804.00000
    90.9335     5906.00000
    90.9467     5792.00000
    90.9598     5775.00000
    90.9729     5734.00000
    90.9861     5742.00000
    90.9992     5770.00000
    91.0123     5830.00000
    91.0254     5827.00000
    91.0386     5796.00000
    91.0517     5770.00000
    91.0648     5912.00000
    91.0780     5771.00000
    91.0911     5854.00000
    91.1042     5757.00000
    91.1174     5697.00000
    91.1305     5861.00000
    91.1436     5825.00000
    91.1567     5926.00000
    91.1699     5800.00000
    91.1830     5884.00000
    91.1961     5802.00000
    91.2093     5789.00000
    91.2224     5846.00000
    91.2355     5703.00000
    91.2487     5746.00000
    91.2618     5870.00000
    91.2749     5863.00000
    91.2880     5808.00000
    91.3012     5809.00000
    91.3143     5717.00000
    91.3274     5816.00000
    91.3406     5941.00000
    91.3537     5791.00000
    91.3668     5909.00000
    91.3800     5895.00000
    91.3931     5894.00000
    91.4062     6034.00000
    91.4193     5809.00000
    91.4325     5843.00000
    91.4456     6028.00000
    91.4587     6084.00000
    91.4719     5788.00000
    91.4850     5700.00000
    91.4981     6040.00000
    91.5113     6070.00000
    91.5244     6026.00000
    91.5375     6122.00000
    91.5507     6235.00000
    91.5638     6048.00000
    91.5769     6019.00000
    91.5900     6165.00000
    91.6032     6191.00000
    91.6163     6253.00000
    91.6294     6076.00000
    91.6426     5991.00000
    91.6557     6012.00000
    91.6688     6036.00000
    91.6820     6001.00000
    91.6951     5971.00000
    91.7082     6095.00000
    91.7213     6062.00000
    91.7345     5836.00000
    91.7476     5967.00000
    91.7607     5964.00000
    91.7739     5955.00000
    91.7870     5839.00000
    91.8001     6150.00000
    91.8133     6105.00000
    91.8264     6325.00000
    91.8395     6055.00000
    91.8526     6028.00000
    91.8658     6089.00000
    91.8789     6105.00000
    91.8920     6151.00000
    91.9052     6234.00000
    91.9183     6117.00000
    91.9314     6186.00000
    91.9446     6032.00000
    91.9577     6360.00000
    91.9708     6444.00000
    91.9840     6268.00000
    91.9971     6414.00000
    92.0102     6409.00000
    92.0233     6274.00000
    92.0365     6234.00000
    92.0496     6174.00000
    92.0627     6252.00000
    92.0759     6151.00000
    92.0890     6179.00000
    92.1021     6037.00000
    92.1153     6024.00000
    92.1284     6082.00000
    92.1415     6094.00000
    92.1546     6057.00000
    92.1678     6156.00000
    92.1809     6029.00000
    92.1940     6205.00000
    92.2072     6323.00000
    92.2203     6329.00000
    92.2334     6417.00000
    92.2466     6543.00000
    92.2597     6647.00000
    92.2728     6712.00000
    92.2859     6919.00000
    92.2991     6673.00000
    92.3122     6697.00000
    92.3253     6918.00000
    92.3385     6835.00000
    92.3516     7171.00000
    92.3647     7007.00000
    92.3779     7001.00000
    92.3910     6738.00000
    92.4041     6624.00000
    92.4173     6822.00000
    92.4304     6779.00000
    92.4435     6810.00000
    92.4566     6668.00000
    92.4698     6541.00000
    92.4829     6429.00000
    92.4960     6436.00000
    92.5092     6449.00000
    92.5223     6425.00000
    92.5354     6108.00000
    92.5486     6159.00000
    92.5617     6237.00000
    92.5748     6291.00000
    92.5879     6257.00000
    92.6011     6181.00000
    92.6142     6235.00000
    92.6273     6458.00000
    92.6405     6242.00000
    92.6536     6412.00000
    92.6667     6333.00000
    92.6799     6262.00000
    92.6930     6187.00000
    92.7061     6220.00000
    92.7192     6248.00000
    92.7324     6130.00000
    92.7455     6376.00000
    92.7586     6220.00000
    92.7718     6018.00000
    92.7849     5988.00000
    92.7980     5976.00000
    92.8112     5924.00000
    92.8243     5991.00000
    92.8374     5749.00000
    92.8505     5885.00000
    92.8637     5878.00000
    92.8768     5866.00000
    92.8899     5843.00000
    92.9031     5759.00000
    92.9162     5701.00000
    92.9293     5766.00000
    92.9425     5888.00000
    92.9556     5654.00000
    92.9687     5681.00000
    92.9819     5734.00000
    92.9950     5718.00000
    93.0081     5711.00000
    93.0212     5835.00000
    93.0344     5812.00000
    93.0475     5676.00000
    93.0606     5727.00000
    93.0738     5868.00000
    93.0869     5926.00000
    93.1000     5800.00000
    93.1132     5890.00000
    93.1263     5874.00000
    93.1394     5854.00000
    93.1525     5863.00000
    93.1657     6010.00000
    93.1788     5788.00000
    93.1919     5806.00000
    93.2051     5864.00000
    93.2182     5947.00000
    93.2313     5982.00000
    93.2445     6151.00000
    93.2576     5740.00000
    93.2707     5848.00000
    93.2839     5990.00000
    93.2970     5976.00000
    93.3101     5966.00000
    93.3232     5917.00000
    93.3364     6004.00000
    93.3495     5909.00000
    93.3626     5876.00000
    93.3758     5901.00000
    93.3889     5885.00000
    93.4020     5911.00000
    93.4152     5753.00000
    93.4283     5942.00000
    93.4414     5927.00000
    93.4545     6040.00000
    93.4677     5770.00000
    93.4808     5925.00000
    93.4939     5741.00000
    93.5071     5636.00000
    93.5202     5991.00000
    93.5333     5874.00000
    93.5465     5880.00000
    93.5596     6010.00000
    93.5727     5979.00000
    93.5858     5761.00000
    93.5990     5765.00000
    93.6121     5791.00000
    93.6252     5617.00000
    93.6384     5776.00000
    93.6515     6053.00000
    93.6646     5824.00000
    93.6778     5847.00000
    93.6909     5626.00000
    93.7040     5712.00000
    93.7171     5631.00000
    93.7303     5846.00000
    93.7434     5750.00000
    93.7565     5884.00000
    93.7697     5600.00000
    93.7828     5783.00000
    93.7959     5579.00000
    93.8091     5781.00000
    93.8222     5723.00000
    93.8353     5801.00000
    93.8484     5872.00000
    93.8616     5954.00000
    93.8747     5834.00000
    93.8878     5773.00000
    93.9010     5771.00000
    93.9141     5790.00000
    93.9272     5827.00000
    93.9404     5819.00000
    93.9535     5973.00000
    93.9666     6079.00000
    93.9798     5751.00000
    93.9929     5905.00000
    94.0060     5836.00000
    94.0191     6018.00000
    94.0323     6059.00000
    94.0454     6204.00000
    94.0585     6194.00000
    94.0717     6136.00000
    94.0848     6229.00000
    94.0979     6238.00000
    94.1111     6354.00000
    94.1242     6378.00000
    94.1373     6346.00000
    94.1505     6523.00000
    94.1636     6335.00000
    94.1767     6242.00000
    94.1898     6286.00000
    94.2030     6398.00000
    94.2161     6273.00000
    94.2292     6229.00000
    94.2424     6071.00000
    94.2555     6121.00000
    94.2686     6076.00000
    94.2818     6042.00000
    94.2949     5717.00000
    94.3080     5849.00000
    94.3211     5988.00000
    94.3343     5901.00000
    94.3474     6016.00000
    94.3605     6028.00000
    94.3737     6065.00000
    94.3868     6039.00000
    94.3999     6132.00000
    94.4131     6042.00000
    94.4262     5867.00000
    94.4393     6092.00000
    94.4524     6193.00000
    94.4656     6028.00000
    94.4787     5876.00000
    94.4918     6139.00000
    94.5050     6184.00000
    94.5181     6084.00000
    94.5312     6093.00000
    94.5444     5856.00000
    94.5575     5888.00000
    94.5706     5894.00000
    94.5837     5759.00000
    94.5969     5849.00000
    94.6100     5950.00000
    94.6231     5603.00000
    94.6363     5677.00000
    94.6494     5731.00000
    94.6625     5685.00000
    94.6757     5794.00000
    94.6888     5881.00000
    94.7019     5685.00000
    94.7150     5866.00000
    94.7282     5837.00000
    94.7413     5800.00000
    94.7544     5620.00000
    94.7676     5700.00000
    94.7807     5892.00000
    94.7938     5843.00000
    94.8070     5904.00000
    94.8201     5885.00000
    94.8332     5888.00000
    94.8464     6028.00000
    94.8595     6119.00000
    94.8726     6056.00000
    94.8857     6032.00000
    94.8989     5883.00000
    94.9120     5979.00000
    94.9251     6107.00000
    94.9383     6038.00000
    94.9514     6156.00000
    94.9645     6134.00000
    94.9777     6274.00000
    94.9908     6289.00000
    95.0039     6400.00000
    95.0170     6339.00000
    95.0302     6326.00000
    95.0433     6321.00000
    95.0564     6270.00000
    95.0696     6383.00000
    95.0827     6306.00000
    95.0958     6190.00000
    95.1090     6585.00000
    95.1221     6150.00000
    95.1352     6207.00000
    95.1484     6249.00000
    95.1615     6102.00000
    95.1746     6187.00000
    95.1877     6367.00000
    95.2009     6139.00000
    95.2140     6102.00000
    95.2271     6179.00000
    95.2403     6258.00000
    95.2534     6131.00000
    95.2665     6132.00000
    95.2797     6121.00000
    95.2928     6233.00000
    95.3059     6223.00000
    95.3190     6459.00000
    95.3322     6417.00000
    95.3453     6392.00000
    95.3584     6351.00000
    95.3716     6472.00000
    95.3847     6546.00000
    95.3978     6424.00000
    95.4110     6527.00000
    95.4241     6440.00000
    95.4372     6463.00000
    95.4503     6420.00000
    95.4635     6122.00000
    95.4766     6215.00000
    95.4897     6211.00000
    95.5029     6363.00000
    95.5160     6106.00000
    95.5291     6195.00000
    95.5423     6248.00000
    95.5554     5936.00000
    95.5685     6125.00000
    95.5816     6253.00000
    95.5948     6257.00000
    95.6079     6395.00000
    95.6210     6301.00000
    95.6342     6485.00000
    95.6473     6467.00000
    95.6604     6442.00000
    95.6736     6367.00000
    95.6867     6390.00000
    95.6998     6384.00000
    95.7130     6115.00000
    95.7261     6214.00000
    95.7392     6117.00000
    95.7523     5965.00000
    95.7655     6077.00000
    95.7786     5914.00000
    95.7917     6027.00000
    95.8049     5832.00000
    95.8180     5902.00000
    95.8311     6069.00000
    95.8443     5966.00000
    95.8574     5894.00000
    95.8705     5986.00000
    95.8836     5920.00000
    95.8968     6153.00000
    95.9099     6078.00000
    95.9230     6200.00000
    95.9362     6150.00000
    95.9493     6064.00000
    95.9624     6276.00000
    95.9756     6280.00000
    95.9887     6278.00000
    96.0018     6511.00000
    96.0149     6396.00000
    96.0281     6336.00000
    96.0412     6320.00000
    96.0543     6495.00000
    96.0675     6417.00000
    96.0806     6476.00000
    96.0937     6280.00000
    96.1069     6053.00000
    96.1200     6183.00000
    96.1331     6249.00000
    96.1463     6123.00000
    96.1594     6013.00000
    96.1725     5783.00000
    96.1856     5789.00000
    96.1988     5768.00000
    96.2119     5952.00000
    96.2250     5863.00000
    96.2382     5871.00000
    96.2513     5950.00000
    96.2644     5959.00000
    96.2776     5695.00000
    96.2907     5740.00000
    96.3038     5916.00000
    96.3169     6152.00000
    96.3301     5999.00000
    96.3432     5839.00000
    96.3563     5682.00000
    96.3695     5906.00000
    96.3826     5723.00000
    96.3957     5926.00000
    96.4089     5838.00000
    96.4220     5904.00000
    96.4351     5941.00000
    96.4482     6046.00000
    96.4614     5862.00000
    96.4745     5722.00000
    96.4876     5845.00000
    96.5008     5818.00000
    96.5139     5712.00000
    96.5270     5714.00000
    96.5402     5705.00000
    96.5533     5771.00000
    96.5664     5788.00000
    96.5796     5798.00000
    96.5927     5772.00000
    96.6058     5639.00000
    96.6189     5801.00000
    96.6321     5644.00000
    96.6452     5619.00000
    96.6583     5589.00000
    96.6715     5773.00000
    96.6846     5753.00000
    96.6977     5695.00000
    96.7109     5660.00000
    96.7240     5658.00000
    96.7371     5733.00000
    96.7502     5634.00000
    96.7634     5661.00000
    96.7765     5651.00000
    96.7896     5454.00000
    96.8028     5819.00000
    96.8159     5841.00000
    96.8290     5779.00000
    96.8422     5778.00000
    96.8553     5537.00000
    96.8684     5582.00000
    96.8815     5625.00000
    96.8947     5730.00000
    96.9078     5605.00000
    96.9209     5644.00000
    96.9341     5606.00000
    96.9472     5700.00000
    96.9603     5662.00000
    96.9735     5782.00000
    96.9866     5647.00000
    96.9997     5574.00000
    97.0128     5721.00000
    97.0260     5759.00000
    97.0391     5792.00000
    97.0522     5761.00000
    97.0654     5722.00000
    97.0785     5718.00000
    97.0916     5670.00000
    97.1048     5650.00000
    97.1179     5935.00000
    97.1310     5764.00000
    97.1442     5675.00000
    97.1573     5885.00000
    97.1704     5762.00000
    97.1835     5796.00000
    97.1967     5727.00000
    97.2098     5825.00000
    97.2229     5842.00000
    97.2361     5787.00000
    97.2492     5887.00000
    97.2623     5850.00000
    97.2755     5837.00000
    97.2886     5709.00000
    97.3017     5863.00000
    97.3148     6003.00000
    97.3280     5882.00000
    97.3411     5907.00000
    97.3542     5837.00000
    97.3674     5794.00000
    97.3805     6190.00000
    97.3936     6034.00000
    97.4068     6028.00000
    97.4199     6212.00000
    97.4330     6069.00000
    97.4462     6344.00000
    97.4593     6213.00000
    97.4724     6247.00000
    97.4855     6405.00000
    97.4987     6211.00000
    97.5118     6188.00000
    97.5249     6275.00000
    97.5381     6187.00000
    97.5512     6261.00000
    97.5643     6139.00000
    97.5775     6211.00000
    97.5906     6142.00000
    97.6037     6056.00000
    97.6168     5989.00000
    97.6300     6207.00000
    97.6431     6208.00000
    97.6562     6077.00000
    97.6694     6039.00000
    97.6825     5925.00000
    97.6956     5936.00000
    97.7088     6029.00000
    97.7219     5849.00000
    97.7350     6020.00000
    97.7481     6150.00000
    97.7613     5985.00000
    97.7744     6001.00000
    97.7875     6111.00000
    97.8007     5776.00000
    97.8138     6031.00000
    97.8269     6046.00000
    97.8401     6029.00000
    97.8532     6090.00000
    97.8663     6104.00000
    97.8794     6101.00000
    97.8926     6102.00000
    97.9057     6084.00000
    97.9188     6088.00000
    97.9320     6054.00000
    97.9451     6141.00000
    97.9582     6069.00000
    97.9714     5897.00000
    97.9845     5926.00000
    97.9976     5862.00000
    98.0107     5969.00000
    98.0239     5852.00000
    98.0370     5770.00000
    98.0501     5873.00000
    98.0633     5800.00000
    98.0764     5751.00000
    98.0895     6023.00000
    98.1027     5788.00000
    98.1158     5759.00000
    98.1289     5878.00000
    98.1421     5754.00000
    98.1552     5911.00000
    98.1683     5821.00000
    98.1814     5737.00000
    98.1946     5780.00000
    98.2077     5848.00000
    98.2208     5732.00000
    98.2340     5605.00000
    98.2471     5756.00000
    98.2602     5853.00000
    98.2734     5840.00000
    98.2865     5699.00000
    98.2996     5848.00000
    98.3128     5746.00000
    98.3259     5754.00000
    98.3390     5613.00000
    98.3521     5833.00000
    98.3653     5775.00000
    98.3784     5760.00000
    98.3915     5769.00000
    98.4047     5696.00000
    98.4178     5632.00000
    98.4309     5747.00000
    98.4441     5865.00000
    98.4572     5955.00000
    98.4703     5903.00000
    98.4834     5758.00000
    98.4966     5997.00000
    98.5097     5845.00000
    98.5228     5830.00000
    98.5360     5759.00000
    98.5491     5812.00000
    98.5622     5726.00000
    98.5754     5694.00000
    98.5885     5979.00000
    98.6016     5978.00000
    98.6147     6098.00000
    98.6279     6084.00000
    98.6410     5953.00000
    98.6541     5954.00000
    98.6673     5920.00000
    98.6804     5902.00000
    98.6935     5959.00000
    98.7067     6004.00000
    98.7198     6126.00000
    98.7329     6070.00000
    98.7460     6082.00000
    98.7592     6223.00000
    98.7723     6221.00000
    98.7854     6096.00000
    98.7986     6063.00000
    98.8117     6255.00000
    98.8248     6253.00000
    98.8380     6068.00000
    98.8511     6144.00000
    98.8642     6104.00000
    98.8773     6075.00000
    98.8905     6061.00000
    98.9036     6072.00000
    98.9167     6002.00000
    98.9299     6062.00000
    98.9430     6100.00000
    98.9561     6104.00000
    98.9693     6059.00000
    98.9824     6177.00000
    98.9955     5971.00000
    99.0087     6168.00000
    99.0218     5926.00000
    99.0349     5978.00000
    99.0480     5850.00000
    99.0612     6034.00000
    99.0743     5808.00000
    99.0874     5959.00000
    99.1006     5789.00000
    99.1137     5950.00000
    99.1268     5903.00000
    99.1400     5951.00000
    99.1531     5858.00000
    99.1662     5875.00000
    99.1793     5974.00000
    99.1925     5941.00000
    99.2056     5919.00000
    99.2187     5843.00000
    99.2319     5919.00000
    99.2450     5889.00000
    99.2581     5806.00000
    99.2713     5817.00000
    99.2844     5814.00000
    99.2975     5962.00000
    99.3107     5971.00000
    99.3238     5842.00000
    99.3369     5799.00000
    99.3500     5848.00000
    99.3632     5819.00000
    99.3763     5796.00000
    99.3894     5802.00000
    99.4026     5826.00000
    99.4157     5934.00000
    99.4288     5836.00000
    99.4420     5794.00000
    99.4551     5816.00000
    99.4682     5802.00000
    99.4813     5610.00000
    99.4945     5761.00000
    99.5076     5766.00000
    99.5207     5707.00000
    99.5339     5701.00000
    99.5470     5659.00000
    99.5601     5794.00000
    99.5733     5776.00000
    99.5864     5692.00000
    99.5995     5753.00000
    99.6126     5677.00000
    99.6258     5612.00000
    99.6389     5669.00000
    99.6520     5876.00000
    99.6652     5546.00000
    99.6783     5857.00000
    99.6914     5665.00000
    99.7046     5635.00000
    99.7177     5610.00000
    99.7308     5849.00000
    99.7439     5854.00000
    99.7571     5827.00000
    99.7702     5702.00000
    99.7833     5571.00000
    99.7965     5729.00000
    99.8096     5911.00000
    99.8227     5719.00000
    99.8359     5740.00000
    99.8490     5761.00000
    99.8621     5822.00000
    99.8753     5732.00000
    99.8884     5837.00000
    99.9015     5713.00000
    99.9146     5671.00000
    99.9278     5659.00000
    99.9409     5556.00000
    99.9540     5581.00000
    99.9672     5703.00000
    99.9803     5592.00000
    99.9934     5627.00000
