! Initial file:   D:\ZAKARY_OUAIL\MA_THESE\Deuxième_année_de_thèse\DRX\Affinement_DRX\Fullprof\Thermodiff3-nuit_NaNbO2F2\160°C\NaNbO2F2-Lent_160°C.xrdml
! Initial format:  58
! WAVE (A):      1.54060     1.54060     1.00000
! REM : data have been multiplied by     1.0000
! X_data : 2 Theta (deg.)                                                                                                                                                                                                                                                  
! Y_data : Intensity (arb. units)                                                                                                                                                                                                                                          
!     X         Y
!--------------------------------------------------------------------------------
    10.0116     7751.00000
    10.0247     7891.00000
    10.0379     7728.00000
    10.0510     7803.00000
    10.0641     7960.00000
    10.0772     7719.00000
    10.0904     7767.00000
    10.1035     8023.00000
    10.1166     7944.00000
    10.1298     8142.00000
    10.1429     7923.00000
    10.1560     7755.00000
    10.1692     8162.00000
    10.1823     7869.00000
    10.1954     8044.00000
    10.2086     7960.00000
    10.2217     7789.00000
    10.2348     7705.00000
    10.2479     7927.00000
    10.2611     7955.00000
    10.2742     8034.00000
    10.2873     7804.00000
    10.3005     7754.00000
    10.3136     7757.00000
    10.3267     7656.00000
    10.3399     7983.00000
    10.3530     7830.00000
    10.3661     7847.00000
    10.3792     7921.00000
    10.3924     7785.00000
    10.4055     7879.00000
    10.4186     8040.00000
    10.4318     7942.00000
    10.4449     7671.00000
    10.4580     7617.00000
    10.4712     7916.00000
    10.4843     7776.00000
    10.4974     7806.00000
    10.5105     7767.00000
    10.5237     7544.00000
    10.5368     7807.00000
    10.5499     7909.00000
    10.5631     8011.00000
    10.5762     7937.00000
    10.5893     7729.00000
    10.6025     7545.00000
    10.6156     7730.00000
    10.6287     7756.00000
    10.6418     7824.00000
    10.6550     8028.00000
    10.6681     7814.00000
    10.6812     7581.00000
    10.6944     7591.00000
    10.7075     7828.00000
    10.7206     7892.00000
    10.7338     7956.00000
    10.7469     7850.00000
    10.7600     7730.00000
    10.7732     7700.00000
    10.7863     7751.00000
    10.7994     7709.00000
    10.8125     7718.00000
    10.8257     7794.00000
    10.8388     7889.00000
    10.8519     8028.00000
    10.8651     8024.00000
    10.8782     8054.00000
    10.8913     8313.00000
    10.9045     8400.00000
    10.9176     8435.00000
    10.9307     8399.00000
    10.9438     8608.00000
    10.9570     8236.00000
    10.9701     8340.00000
    10.9832     8436.00000
    10.9964     8629.00000
    11.0095     8621.00000
    11.0226     8710.00000
    11.0358     8837.00000
    11.0489     8849.00000
    11.0620     9116.00000
    11.0751     9275.00000
    11.0883     9511.00000
    11.1014     9802.00000
    11.1145    10303.00000
    11.1277    11129.00000
    11.1408    12211.00000
    11.1539    13654.00000
    11.1671    16003.00000
    11.1802    18724.00000
    11.1933    23516.00000
    11.2065    31493.00000
    11.2196    44820.00000
    11.2327    61144.00000
    11.2458    74742.00000
    11.2590    80628.00000
    11.2721    74864.00000
    11.2852    61915.00000
    11.2984    46009.00000
    11.3115    32231.00000
    11.3246    22026.00000
    11.3378    15659.00000
    11.3509    11975.00000
    11.3640    10211.00000
    11.3771     9336.00000
    11.3903     8727.00000
    11.4034     8654.00000
    11.4165     8827.00000
    11.4297     8494.00000
    11.4428     8416.00000
    11.4559     8248.00000
    11.4691     8241.00000
    11.4822     8017.00000
    11.4953     7950.00000
    11.5084     8002.00000
    11.5216     7904.00000
    11.5347     8197.00000
    11.5478     8110.00000
    11.5610     8044.00000
    11.5741     7905.00000
    11.5872     8027.00000
    11.6004     7993.00000
    11.6135     7939.00000
    11.6266     8056.00000
    11.6398     7994.00000
    11.6529     7805.00000
    11.6660     7820.00000
    11.6791     7856.00000
    11.6923     7918.00000
    11.7054     7919.00000
    11.7185     7989.00000
    11.7317     8040.00000
    11.7448     7817.00000
    11.7579     8189.00000
    11.7711     8116.00000
    11.7842     8216.00000
    11.7973     8117.00000
    11.8104     8054.00000
    11.8236     8054.00000
    11.8367     8216.00000
    11.8498     8119.00000
    11.8630     7989.00000
    11.8761     8103.00000
    11.8892     8177.00000
    11.9024     8092.00000
    11.9155     8241.00000
    11.9286     8177.00000
    11.9417     8024.00000
    11.9549     7969.00000
    11.9680     8033.00000
    11.9811     8174.00000
    11.9943     8086.00000
    12.0074     7928.00000
    12.0205     8098.00000
    12.0337     7921.00000
    12.0468     8114.00000
    12.0599     8193.00000
    12.0731     8103.00000
    12.0862     8177.00000
    12.0993     8192.00000
    12.1124     8217.00000
    12.1256     8283.00000
    12.1387     8194.00000
    12.1518     8161.00000
    12.1650     8237.00000
    12.1781     8049.00000
    12.1912     8222.00000
    12.2044     8218.00000
    12.2175     8329.00000
    12.2306     8294.00000
    12.2437     8168.00000
    12.2569     8225.00000
    12.2700     8097.00000
    12.2831     8222.00000
    12.2963     8255.00000
    12.3094     8217.00000
    12.3225     8227.00000
    12.3357     8181.00000
    12.3488     8238.00000
    12.3619     8075.00000
    12.3750     8102.00000
    12.3882     8163.00000
    12.4013     8275.00000
    12.4144     8182.00000
    12.4276     8274.00000
    12.4407     8410.00000
    12.4538     8215.00000
    12.4670     8217.00000
    12.4801     8047.00000
    12.4932     8228.00000
    12.5063     8334.00000
    12.5195     8115.00000
    12.5326     7982.00000
    12.5457     8284.00000
    12.5589     8341.00000
    12.5720     8178.00000
    12.5851     8120.00000
    12.5983     8106.00000
    12.6114     8252.00000
    12.6245     8224.00000
    12.6377     8138.00000
    12.6508     8402.00000
    12.6639     8268.00000
    12.6770     8273.00000
    12.6902     8195.00000
    12.7033     8194.00000
    12.7164     8246.00000
    12.7296     8332.00000
    12.7427     8187.00000
    12.7558     8310.00000
    12.7690     8140.00000
    12.7821     8129.00000
    12.7952     8020.00000
    12.8083     8029.00000
    12.8215     8061.00000
    12.8346     8201.00000
    12.8477     8153.00000
    12.8609     8238.00000
    12.8740     8047.00000
    12.8871     8123.00000
    12.9003     8133.00000
    12.9134     8254.00000
    12.9265     8094.00000
    12.9396     8050.00000
    12.9528     8044.00000
    12.9659     7942.00000
    12.9790     8140.00000
    12.9922     7995.00000
    13.0053     7922.00000
    13.0184     8077.00000
    13.0316     8228.00000
    13.0447     7946.00000
    13.0578     8131.00000
    13.0710     8096.00000
    13.0841     8155.00000
    13.0972     8082.00000
    13.1103     8120.00000
    13.1235     8330.00000
    13.1366     8111.00000
    13.1497     8098.00000
    13.1629     7976.00000
    13.1760     7994.00000
    13.1891     8139.00000
    13.2023     8105.00000
    13.2154     8213.00000
    13.2285     8022.00000
    13.2416     8056.00000
    13.2548     7983.00000
    13.2679     7982.00000
    13.2810     7866.00000
    13.2942     8034.00000
    13.3073     8168.00000
    13.3204     7861.00000
    13.3336     7916.00000
    13.3467     7869.00000
    13.3598     7859.00000
    13.3729     7922.00000
    13.3861     7976.00000
    13.3992     7997.00000
    13.4123     7983.00000
    13.4255     8098.00000
    13.4386     7945.00000
    13.4517     8079.00000
    13.4649     7903.00000
    13.4780     8131.00000
    13.4911     8055.00000
    13.5043     8006.00000
    13.5174     7981.00000
    13.5305     8105.00000
    13.5436     8021.00000
    13.5568     7729.00000
    13.5699     7882.00000
    13.5830     8052.00000
    13.5962     7998.00000
    13.6093     7798.00000
    13.6224     7961.00000
    13.6356     7945.00000
    13.6487     8117.00000
    13.6618     8099.00000
    13.6749     8087.00000
    13.6881     8035.00000
    13.7012     8174.00000
    13.7143     8334.00000
    13.7275     8163.00000
    13.7406     8249.00000
    13.7537     8276.00000
    13.7669     8108.00000
    13.7800     8143.00000
    13.7931     8058.00000
    13.8062     7876.00000
    13.8194     8070.00000
    13.8325     7972.00000
    13.8456     7983.00000
    13.8588     8029.00000
    13.8719     7873.00000
    13.8850     7994.00000
    13.8982     7897.00000
    13.9113     7850.00000
    13.9244     7912.00000
    13.9376     7976.00000
    13.9507     8032.00000
    13.9638     7854.00000
    13.9769     7933.00000
    13.9901     8061.00000
    14.0032     7900.00000
    14.0163     7896.00000
    14.0295     7917.00000
    14.0426     7963.00000
    14.0557     8109.00000
    14.0689     8134.00000
    14.0820     8143.00000
    14.0951     7944.00000
    14.1082     7967.00000
    14.1214     8178.00000
    14.1345     8119.00000
    14.1476     7922.00000
    14.1608     7802.00000
    14.1739     8061.00000
    14.1870     8026.00000
    14.2002     7991.00000
    14.2133     8095.00000
    14.2264     8072.00000
    14.2395     8215.00000
    14.2527     8093.00000
    14.2658     7871.00000
    14.2789     8081.00000
    14.2921     7963.00000
    14.3052     8005.00000
    14.3183     7983.00000
    14.3315     8091.00000
    14.3446     7993.00000
    14.3577     7962.00000
    14.3708     7963.00000
    14.3840     7990.00000
    14.3971     8089.00000
    14.4102     7949.00000
    14.4234     8075.00000
    14.4365     8061.00000
    14.4496     8230.00000
    14.4628     8484.00000
    14.4759     8726.00000
    14.4890     8935.00000
    14.5022     9217.00000
    14.5153     9548.00000
    14.5284     9770.00000
    14.5415     9806.00000
    14.5547     9350.00000
    14.5678     9319.00000
    14.5809     9023.00000
    14.5941     8671.00000
    14.6072     8499.00000
    14.6203     8307.00000
    14.6335     8034.00000
    14.6466     7873.00000
    14.6597     7862.00000
    14.6728     8023.00000
    14.6860     7963.00000
    14.6991     7957.00000
    14.7122     7896.00000
    14.7254     7950.00000
    14.7385     7942.00000
    14.7516     7764.00000
    14.7648     7822.00000
    14.7779     7777.00000
    14.7910     7945.00000
    14.8041     7837.00000
    14.8173     7804.00000
    14.8304     8001.00000
    14.8435     7878.00000
    14.8567     8059.00000
    14.8698     7985.00000
    14.8829     7883.00000
    14.8961     7967.00000
    14.9092     7890.00000
    14.9223     7776.00000
    14.9355     7836.00000
    14.9486     7774.00000
    14.9617     7820.00000
    14.9748     7828.00000
    14.9880     7693.00000
    15.0011     7896.00000
    15.0142     7912.00000
    15.0274     7737.00000
    15.0405     7882.00000
    15.0536     7842.00000
    15.0668     7923.00000
    15.0799     7823.00000
    15.0930     7666.00000
    15.1061     7760.00000
    15.1193     7786.00000
    15.1324     7768.00000
    15.1455     7670.00000
    15.1587     7953.00000
    15.1718     7812.00000
    15.1849     7578.00000
    15.1981     7820.00000
    15.2112     7806.00000
    15.2243     7687.00000
    15.2374     7739.00000
    15.2506     7809.00000
    15.2637     7695.00000
    15.2768     7883.00000
    15.2900     7592.00000
    15.3031     7889.00000
    15.3162     7641.00000
    15.3294     7968.00000
    15.3425     7814.00000
    15.3556     7671.00000
    15.3688     7826.00000
    15.3819     7791.00000
    15.3950     7747.00000
    15.4081     7903.00000
    15.4213     7793.00000
    15.4344     7879.00000
    15.4475     7784.00000
    15.4607     7767.00000
    15.4738     7703.00000
    15.4869     7619.00000
    15.5001     7647.00000
    15.5132     7804.00000
    15.5263     7732.00000
    15.5394     7776.00000
    15.5526     7834.00000
    15.5657     7712.00000
    15.5788     7735.00000
    15.5920     7806.00000
    15.6051     7720.00000
    15.6182     7697.00000
    15.6314     7507.00000
    15.6445     7844.00000
    15.6576     7789.00000
    15.6707     7555.00000
    15.6839     7806.00000
    15.6970     7758.00000
    15.7101     7827.00000
    15.7233     7983.00000
    15.7364     7811.00000
    15.7495     7936.00000
    15.7627     7742.00000
    15.7758     7815.00000
    15.7889     7787.00000
    15.8021     7725.00000
    15.8152     8034.00000
    15.8283     8005.00000
    15.8414     7659.00000
    15.8546     7742.00000
    15.8677     7707.00000
    15.8808     7637.00000
    15.8940     7718.00000
    15.9071     7757.00000
    15.9202     7556.00000
    15.9334     7923.00000
    15.9465     7673.00000
    15.9596     7680.00000
    15.9727     7796.00000
    15.9859     7863.00000
    15.9990     7885.00000
    16.0121     7976.00000
    16.0253     7842.00000
    16.0384     7854.00000
    16.0515     8066.00000
    16.0647     7700.00000
    16.0778     7755.00000
    16.0909     7816.00000
    16.1040     7555.00000
    16.1172     7831.00000
    16.1303     7864.00000
    16.1434     7551.00000
    16.1566     7794.00000
    16.1697     7649.00000
    16.1828     7592.00000
    16.1960     7762.00000
    16.2091     7911.00000
    16.2222     7666.00000
    16.2353     7561.00000
    16.2485     7644.00000
    16.2616     7839.00000
    16.2747     7757.00000
    16.2879     7473.00000
    16.3010     7596.00000
    16.3141     7503.00000
    16.3273     7637.00000
    16.3404     7500.00000
    16.3535     7698.00000
    16.3667     7838.00000
    16.3798     7798.00000
    16.3929     7494.00000
    16.4060     7667.00000
    16.4192     7831.00000
    16.4323     7542.00000
    16.4454     7774.00000
    16.4586     7801.00000
    16.4717     7798.00000
    16.4848     7771.00000
    16.4980     7832.00000
    16.5111     7868.00000
    16.5242     7797.00000
    16.5373     7750.00000
    16.5505     7488.00000
    16.5636     7754.00000
    16.5767     7794.00000
    16.5899     7708.00000
    16.6030     7791.00000
    16.6161     7668.00000
    16.6293     7708.00000
    16.6424     7528.00000
    16.6555     7609.00000
    16.6686     7684.00000
    16.6818     7583.00000
    16.6949     7546.00000
    16.7080     7625.00000
    16.7212     7794.00000
    16.7343     7953.00000
    16.7474     7752.00000
    16.7606     7792.00000
    16.7737     8110.00000
    16.7868     8238.00000
    16.8000     8159.00000
    16.8131     8162.00000
    16.8262     8179.00000
    16.8393     8092.00000
    16.8525     7998.00000
    16.8656     8011.00000
    16.8787     7808.00000
    16.8919     7722.00000
    16.9050     7769.00000
    16.9181     7617.00000
    16.9313     7620.00000
    16.9444     7633.00000
    16.9575     7680.00000
    16.9706     7515.00000
    16.9838     7496.00000
    16.9969     7574.00000
    17.0100     7588.00000
    17.0232     7619.00000
    17.0363     7641.00000
    17.0494     7570.00000
    17.0626     7609.00000
    17.0757     7658.00000
    17.0888     7592.00000
    17.1019     7643.00000
    17.1151     7631.00000
    17.1282     7425.00000
    17.1413     7474.00000
    17.1545     7548.00000
    17.1676     7605.00000
    17.1807     7683.00000
    17.1939     7602.00000
    17.2070     7578.00000
    17.2201     7699.00000
    17.2333     7553.00000
    17.2464     7510.00000
    17.2595     7632.00000
    17.2726     7560.00000
    17.2858     7475.00000
    17.2989     7637.00000
    17.3120     7624.00000
    17.3252     7479.00000
    17.3383     7507.00000
    17.3514     7415.00000
    17.3646     7665.00000
    17.3777     7573.00000
    17.3908     7465.00000
    17.4039     7450.00000
    17.4171     7300.00000
    17.4302     7374.00000
    17.4433     7613.00000
    17.4565     7539.00000
    17.4696     7319.00000
    17.4827     7303.00000
    17.4959     7534.00000
    17.5090     7394.00000
    17.5221     7516.00000
    17.5352     7354.00000
    17.5484     7387.00000
    17.5615     7385.00000
    17.5746     7449.00000
    17.5878     7282.00000
    17.6009     7347.00000
    17.6140     7553.00000
    17.6272     7555.00000
    17.6403     7539.00000
    17.6534     7396.00000
    17.6666     7438.00000
    17.6797     7422.00000
    17.6928     7651.00000
    17.7059     7587.00000
    17.7191     7370.00000
    17.7322     7528.00000
    17.7453     7559.00000
    17.7585     7456.00000
    17.7716     7421.00000
    17.7847     7321.00000
    17.7979     7366.00000
    17.8110     7494.00000
    17.8241     7261.00000
    17.8372     7635.00000
    17.8504     7352.00000
    17.8635     7410.00000
    17.8766     7453.00000
    17.8898     7460.00000
    17.9029     7588.00000
    17.9160     7755.00000
    17.9292     7673.00000
    17.9423     7761.00000
    17.9554     7653.00000
    17.9685     7475.00000
    17.9817     7483.00000
    17.9948     7551.00000
    18.0079     7497.00000
    18.0211     7450.00000
    18.0342     7370.00000
    18.0473     7420.00000
    18.0605     7421.00000
    18.0736     7372.00000
    18.0867     7241.00000
    18.0998     7226.00000
    18.1130     7444.00000
    18.1261     7340.00000
    18.1392     7260.00000
    18.1524     7432.00000
    18.1655     7200.00000
    18.1786     7550.00000
    18.1918     7404.00000
    18.2049     7244.00000
    18.2180     7427.00000
    18.2312     7308.00000
    18.2443     7386.00000
    18.2574     7496.00000
    18.2705     7362.00000
    18.2837     7484.00000
    18.2968     7465.00000
    18.3099     7355.00000
    18.3231     7323.00000
    18.3362     7366.00000
    18.3493     7315.00000
    18.3625     7320.00000
    18.3756     7350.00000
    18.3887     7340.00000
    18.4018     7135.00000
    18.4150     7183.00000
    18.4281     7159.00000
    18.4412     7487.00000
    18.4544     7241.00000
    18.4675     7241.00000
    18.4806     7198.00000
    18.4938     7326.00000
    18.5069     7244.00000
    18.5200     7209.00000
    18.5331     7363.00000
    18.5463     7362.00000
    18.5594     7382.00000
    18.5725     7378.00000
    18.5857     7407.00000
    18.5988     7454.00000
    18.6119     7256.00000
    18.6251     7273.00000
    18.6382     7328.00000
    18.6513     7316.00000
    18.6645     7306.00000
    18.6776     7187.00000
    18.6907     6987.00000
    18.7038     7411.00000
    18.7170     7342.00000
    18.7301     7357.00000
    18.7432     7228.00000
    18.7564     7298.00000
    18.7695     7302.00000
    18.7826     7184.00000
    18.7958     7275.00000
    18.8089     7199.00000
    18.8220     7096.00000
    18.8351     7116.00000
    18.8483     7237.00000
    18.8614     7268.00000
    18.8745     7241.00000
    18.8877     7540.00000
    18.9008     7521.00000
    18.9139     7208.00000
    18.9271     7296.00000
    18.9402     7086.00000
    18.9533     7381.00000
    18.9664     7368.00000
    18.9796     7195.00000
    18.9927     7367.00000
    19.0058     7270.00000
    19.0190     7261.00000
    19.0321     7337.00000
    19.0452     7415.00000
    19.0584     7240.00000
    19.0715     7245.00000
    19.0846     7370.00000
    19.0978     7291.00000
    19.1109     7426.00000
    19.1240     7388.00000
    19.1371     7491.00000
    19.1503     7602.00000
    19.1634     7640.00000
    19.1765     7557.00000
    19.1897     7803.00000
    19.2028     7611.00000
    19.2159     7658.00000
    19.2291     7495.00000
    19.2422     7627.00000
    19.2553     7767.00000
    19.2684     7605.00000
    19.2816     7690.00000
    19.2947     7518.00000
    19.3078     7787.00000
    19.3210     7638.00000
    19.3341     7526.00000
    19.3472     7507.00000
    19.3604     7748.00000
    19.3735     7567.00000
    19.3866     7682.00000
    19.3997     7577.00000
    19.4129     7558.00000
    19.4260     7557.00000
    19.4391     7529.00000
    19.4523     7589.00000
    19.4654     7722.00000
    19.4785     7753.00000
    19.4917     7597.00000
    19.5048     7743.00000
    19.5179     7731.00000
    19.5311     7766.00000
    19.5442     7791.00000
    19.5573     8018.00000
    19.5704     7916.00000
    19.5836     7986.00000
    19.5967     8032.00000
    19.6098     8308.00000
    19.6230     8431.00000
    19.6361     8467.00000
    19.6492     8342.00000
    19.6624     8594.00000
    19.6755     8649.00000
    19.6886     8908.00000
    19.7017     9248.00000
    19.7149     9754.00000
    19.7280    10229.00000
    19.7411    11449.00000
    19.7543    12963.00000
    19.7674    15337.00000
    19.7805    18710.00000
    19.7937    24675.00000
    19.8068    33987.00000
    19.8199    47358.00000
    19.8330    63453.00000
    19.8462    81376.00000
    19.8593    94719.00000
    19.8724    94898.00000
    19.8856    85782.00000
    19.8987    75763.00000
    19.9118    64821.00000
    19.9250    51372.00000
    19.9381    37662.00000
    19.9512    26864.00000
    19.9643    19229.00000
    19.9775    14454.00000
    19.9906    12019.00000
    20.0037    10790.00000
    20.0169     9891.00000
    20.0300     9689.00000
    20.0431     9256.00000
    20.0563     8872.00000
    20.0694     8668.00000
    20.0825     8728.00000
    20.0957     8408.00000
    20.1088     8120.00000
    20.1219     7996.00000
    20.1350     8063.00000
    20.1482     7964.00000
    20.1613     7799.00000
    20.1744     7852.00000
    20.1876     7789.00000
    20.2007     7912.00000
    20.2138     7864.00000
    20.2270     7867.00000
    20.2401     7985.00000
    20.2532     7901.00000
    20.2663     7749.00000
    20.2795     7754.00000
    20.2926     7618.00000
    20.3057     7625.00000
    20.3189     7542.00000
    20.3320     7615.00000
    20.3451     7545.00000
    20.3583     7714.00000
    20.3714     7567.00000
    20.3845     7543.00000
    20.3976     7593.00000
    20.4108     7628.00000
    20.4239     7802.00000
    20.4370     7506.00000
    20.4502     7614.00000
    20.4633     7583.00000
    20.4764     7415.00000
    20.4896     7400.00000
    20.5027     7434.00000
    20.5158     7606.00000
    20.5290     7668.00000
    20.5421     7638.00000
    20.5552     7540.00000
    20.5683     7497.00000
    20.5815     7674.00000
    20.5946     7537.00000
    20.6077     7502.00000
    20.6209     7596.00000
    20.6340     7625.00000
    20.6471     7649.00000
    20.6603     7334.00000
    20.6734     7590.00000
    20.6865     7454.00000
    20.6996     7372.00000
    20.7128     7440.00000
    20.7259     7423.00000
    20.7390     7496.00000
    20.7522     7432.00000
    20.7653     7662.00000
    20.7784     7464.00000
    20.7916     7412.00000
    20.8047     7337.00000
    20.8178     7417.00000
    20.8309     7464.00000
    20.8441     7438.00000
    20.8572     7511.00000
    20.8703     7485.00000
    20.8835     7426.00000
    20.8966     7503.00000
    20.9097     7637.00000
    20.9229     7403.00000
    20.9360     7358.00000
    20.9491     7514.00000
    20.9623     7409.00000
    20.9754     7539.00000
    20.9885     7523.00000
    21.0016     7540.00000
    21.0148     7438.00000
    21.0279     7499.00000
    21.0410     7396.00000
    21.0542     7467.00000
    21.0673     7427.00000
    21.0804     7532.00000
    21.0936     7359.00000
    21.1067     7353.00000
    21.1198     7418.00000
    21.1329     7456.00000
    21.1461     7406.00000
    21.1592     7511.00000
    21.1723     7573.00000
    21.1855     7473.00000
    21.1986     7552.00000
    21.2117     7328.00000
    21.2249     7430.00000
    21.2380     7572.00000
    21.2511     7281.00000
    21.2642     7376.00000
    21.2774     7285.00000
    21.2905     7433.00000
    21.3036     7406.00000
    21.3168     7401.00000
    21.3299     7321.00000
    21.3430     7377.00000
    21.3562     7538.00000
    21.3693     7501.00000
    21.3824     7556.00000
    21.3956     7561.00000
    21.4087     7649.00000
    21.4218     7457.00000
    21.4349     7464.00000
    21.4481     7327.00000
    21.4612     7537.00000
    21.4743     7483.00000
    21.4875     7546.00000
    21.5006     7572.00000
    21.5137     7460.00000
    21.5269     7473.00000
    21.5400     7513.00000
    21.5531     7386.00000
    21.5662     7524.00000
    21.5794     7345.00000
    21.5925     7378.00000
    21.6056     7383.00000
    21.6188     7544.00000
    21.6319     7490.00000
    21.6450     7512.00000
    21.6582     7627.00000
    21.6713     7482.00000
    21.6844     7482.00000
    21.6975     7471.00000
    21.7107     7401.00000
    21.7238     7422.00000
    21.7369     7390.00000
    21.7501     7439.00000
    21.7632     7556.00000
    21.7763     7709.00000
    21.7895     7591.00000
    21.8026     7393.00000
    21.8157     7573.00000
    21.8288     7505.00000
    21.8420     7563.00000
    21.8551     7468.00000
    21.8682     7667.00000
    21.8814     7417.00000
    21.8945     7622.00000
    21.9076     7523.00000
    21.9208     7721.00000
    21.9339     7701.00000
    21.9470     7430.00000
    21.9602     7742.00000
    21.9733     7504.00000
    21.9864     7490.00000
    21.9995     7533.00000
    22.0127     7516.00000
    22.0258     7474.00000
    22.0389     7500.00000
    22.0521     7329.00000
    22.0652     7519.00000
    22.0783     7404.00000
    22.0915     7425.00000
    22.1046     7529.00000
    22.1177     7573.00000
    22.1308     7329.00000
    22.1440     7341.00000
    22.1571     7535.00000
    22.1702     7418.00000
    22.1834     7382.00000
    22.1965     7399.00000
    22.2096     7476.00000
    22.2228     7502.00000
    22.2359     7477.00000
    22.2490     7345.00000
    22.2621     7374.00000
    22.2753     7448.00000
    22.2884     7569.00000
    22.3015     7433.00000
    22.3147     7441.00000
    22.3278     7644.00000
    22.3409     7481.00000
    22.3541     7605.00000
    22.3672     7545.00000
    22.3803     7407.00000
    22.3935     7470.00000
    22.4066     7649.00000
    22.4197     7863.00000
    22.4328     7848.00000
    22.4460     7708.00000
    22.4591     7732.00000
    22.4722     7865.00000
    22.4854     8119.00000
    22.4985     8181.00000
    22.5116     8723.00000
    22.5248     9148.00000
    22.5379     9899.00000
    22.5510    11581.00000
    22.5641    13916.00000
    22.5773    18314.00000
    22.5904    24603.00000
    22.6035    31040.00000
    22.6167    34089.00000
    22.6298    32700.00000
    22.6429    29957.00000
    22.6561    26930.00000
    22.6692    24388.00000
    22.6823    21533.00000
    22.6954    17897.00000
    22.7086    14328.00000
    22.7217    11310.00000
    22.7348     9983.00000
    22.7480     8842.00000
    22.7611     8199.00000
    22.7742     8059.00000
    22.7874     7959.00000
    22.8005     7844.00000
    22.8136     7749.00000
    22.8268     7784.00000
    22.8399     7723.00000
    22.8530     7490.00000
    22.8661     7450.00000
    22.8793     7733.00000
    22.8924     7462.00000
    22.9055     7462.00000
    22.9187     7366.00000
    22.9318     7396.00000
    22.9449     7538.00000
    22.9581     7403.00000
    22.9712     7383.00000
    22.9843     7642.00000
    22.9974     7353.00000
    23.0106     7465.00000
    23.0237     7456.00000
    23.0368     7544.00000
    23.0500     7507.00000
    23.0631     7438.00000
    23.0762     7342.00000
    23.0894     7535.00000
    23.1025     7454.00000
    23.1156     7314.00000
    23.1287     7446.00000
    23.1419     7353.00000
    23.1550     7612.00000
    23.1681     7463.00000
    23.1813     7518.00000
    23.1944     7475.00000
    23.2075     7642.00000
    23.2207     7516.00000
    23.2338     7655.00000
    23.2469     7560.00000
    23.2601     7648.00000
    23.2732     7743.00000
    23.2863     7556.00000
    23.2994     7591.00000
    23.3126     7623.00000
    23.3257     7563.00000
    23.3388     7560.00000
    23.3520     7664.00000
    23.3651     7536.00000
    23.3782     7528.00000
    23.3914     7594.00000
    23.4045     7482.00000
    23.4176     7622.00000
    23.4307     7660.00000
    23.4439     7628.00000
    23.4570     7462.00000
    23.4701     7485.00000
    23.4833     7518.00000
    23.4964     7701.00000
    23.5095     7503.00000
    23.5227     7679.00000
    23.5358     7666.00000
    23.5489     7715.00000
    23.5620     7550.00000
    23.5752     7745.00000
    23.5883     7549.00000
    23.6014     7743.00000
    23.6146     7687.00000
    23.6277     7876.00000
    23.6408     7880.00000
    23.6540     7746.00000
    23.6671     7950.00000
    23.6802     8075.00000
    23.6933     8166.00000
    23.7065     8291.00000
    23.7196     8493.00000
    23.7327     8997.00000
    23.7459     9873.00000
    23.7590    11624.00000
    23.7721    14249.00000
    23.7853    18273.00000
    23.7984    23980.00000
    23.8115    28704.00000
    23.8247    29740.00000
    23.8378    28371.00000
    23.8509    25008.00000
    23.8640    23130.00000
    23.8772    21495.00000
    23.8903    19308.00000
    23.9034    16595.00000
    23.9166    13547.00000
    23.9297    11275.00000
    23.9428     9830.00000
    23.9560     9324.00000
    23.9691     9172.00000
    23.9822     8888.00000
    23.9953     8795.00000
    24.0085     8887.00000
    24.0216     9016.00000
    24.0347     9621.00000
    24.0479    10090.00000
    24.0610    11384.00000
    24.0741    13424.00000
    24.0873    17136.00000
    24.1004    23350.00000
    24.1135    31095.00000
    24.1266    38260.00000
    24.1398    38061.00000
    24.1529    33107.00000
    24.1660    29829.00000
    24.1792    27893.00000
    24.1923    26101.00000
    24.2054    22012.00000
    24.2186    17526.00000
    24.2317    14230.00000
    24.2448    11540.00000
    24.2580     9757.00000
    24.2711     9037.00000
    24.2842     8444.00000
    24.2973     8435.00000
    24.3105     8257.00000
    24.3236     8085.00000
    24.3367     7904.00000
    24.3499     7956.00000
    24.3630     8180.00000
    24.3761     8191.00000
    24.3893     8029.00000
    24.4024     8048.00000
    24.4155     7866.00000
    24.4286     7480.00000
    24.4418     7769.00000
    24.4549     7681.00000
    24.4680     7751.00000
    24.4812     7585.00000
    24.4943     7573.00000
    24.5074     7600.00000
    24.5206     7521.00000
    24.5337     7523.00000
    24.5468     7495.00000
    24.5599     7490.00000
    24.5731     7311.00000
    24.5862     7451.00000
    24.5993     7350.00000
    24.6125     7374.00000
    24.6256     7456.00000
    24.6387     7472.00000
    24.6519     7374.00000
    24.6650     7357.00000
    24.6781     7484.00000
    24.6913     7577.00000
    24.7044     7512.00000
    24.7175     7509.00000
    24.7306     7308.00000
    24.7438     7451.00000
    24.7569     7483.00000
    24.7700     7382.00000
    24.7832     7454.00000
    24.7963     7471.00000
    24.8094     7397.00000
    24.8226     7371.00000
    24.8357     7414.00000
    24.8488     7257.00000
    24.8619     7259.00000
    24.8751     7464.00000
    24.8882     7288.00000
    24.9013     7475.00000
    24.9145     7310.00000
    24.9276     7286.00000
    24.9407     7328.00000
    24.9539     7541.00000
    24.9670     7276.00000
    24.9801     7239.00000
    24.9932     7192.00000
    25.0064     7530.00000
    25.0195     7454.00000
    25.0326     7602.00000
    25.0458     7555.00000
    25.0589     7578.00000
    25.0720     7355.00000
    25.0852     7340.00000
    25.0983     7367.00000
    25.1114     7347.00000
    25.1246     7316.00000
    25.1377     7249.00000
    25.1508     7244.00000
    25.1639     7342.00000
    25.1771     7353.00000
    25.1902     7539.00000
    25.2033     7314.00000
    25.2165     7487.00000
    25.2296     7500.00000
    25.2427     7485.00000
    25.2559     7582.00000
    25.2690     7459.00000
    25.2821     7578.00000
    25.2952     7686.00000
    25.3084     7532.00000
    25.3215     7382.00000
    25.3346     7289.00000
    25.3478     7298.00000
    25.3609     7400.00000
    25.3740     7372.00000
    25.3872     7239.00000
    25.4003     7325.00000
    25.4134     7267.00000
    25.4265     7379.00000
    25.4397     7138.00000
    25.4528     7617.00000
    25.4659     7472.00000
    25.4791     7198.00000
    25.4922     7194.00000
    25.5053     7443.00000
    25.5185     7344.00000
    25.5316     7284.00000
    25.5447     7284.00000
    25.5579     7245.00000
    25.5710     7396.00000
    25.5841     7169.00000
    25.5972     7158.00000
    25.6104     7353.00000
    25.6235     7229.00000
    25.6366     7230.00000
    25.6498     7277.00000
    25.6629     7446.00000
    25.6760     7296.00000
    25.6892     7321.00000
    25.7023     7411.00000
    25.7154     7439.00000
    25.7285     7322.00000
    25.7417     7119.00000
    25.7548     7218.00000
    25.7679     7284.00000
    25.7811     7335.00000
    25.7942     7329.00000
    25.8073     7488.00000
    25.8205     7337.00000
    25.8336     7273.00000
    25.8467     7464.00000
    25.8598     7355.00000
    25.8730     7269.00000
    25.8861     7241.00000
    25.8992     7154.00000
    25.9124     7412.00000
    25.9255     7401.00000
    25.9386     7535.00000
    25.9518     7299.00000
    25.9649     7324.00000
    25.9780     7485.00000
    25.9911     7476.00000
    26.0043     7439.00000
    26.0174     7341.00000
    26.0305     7406.00000
    26.0437     7503.00000
    26.0568     7277.00000
    26.0699     7112.00000
    26.0831     7272.00000
    26.0962     7126.00000
    26.1093     7335.00000
    26.1225     7450.00000
    26.1356     7385.00000
    26.1487     7326.00000
    26.1618     7312.00000
    26.1750     7272.00000
    26.1881     7342.00000
    26.2012     7120.00000
    26.2144     7327.00000
    26.2275     7236.00000
    26.2406     7399.00000
    26.2538     7201.00000
    26.2669     7124.00000
    26.2800     7069.00000
    26.2931     7094.00000
    26.3063     7352.00000
    26.3194     7403.00000
    26.3325     7236.00000
    26.3457     7097.00000
    26.3588     7330.00000
    26.3719     7291.00000
    26.3851     7223.00000
    26.3982     7207.00000
    26.4113     7249.00000
    26.4244     7185.00000
    26.4376     7318.00000
    26.4507     7146.00000
    26.4638     7098.00000
    26.4770     7255.00000
    26.4901     7031.00000
    26.5032     7232.00000
    26.5164     7291.00000
    26.5295     7287.00000
    26.5426     7116.00000
    26.5558     7134.00000
    26.5689     7253.00000
    26.5820     7055.00000
    26.5951     7006.00000
    26.6083     7234.00000
    26.6214     7307.00000
    26.6345     7146.00000
    26.6477     6997.00000
    26.6608     7183.00000
    26.6739     7205.00000
    26.6871     7202.00000
    26.7002     7070.00000
    26.7133     7244.00000
    26.7264     7178.00000
    26.7396     7219.00000
    26.7527     7110.00000
    26.7658     7241.00000
    26.7790     7085.00000
    26.7921     6973.00000
    26.8052     7103.00000
    26.8184     7153.00000
    26.8315     7234.00000
    26.8446     7298.00000
    26.8577     7299.00000
    26.8709     7185.00000
    26.8840     7077.00000
    26.8971     7249.00000
    26.9103     7295.00000
    26.9234     7159.00000
    26.9365     6987.00000
    26.9497     7070.00000
    26.9628     7375.00000
    26.9759     7341.00000
    26.9891     7346.00000
    27.0022     7264.00000
    27.0153     7333.00000
    27.0284     7344.00000
    27.0416     7509.00000
    27.0547     7534.00000
    27.0678     7459.00000
    27.0810     7369.00000
    27.0941     7524.00000
    27.1072     7526.00000
    27.1204     7509.00000
    27.1335     7488.00000
    27.1466     7151.00000
    27.1597     7395.00000
    27.1729     7394.00000
    27.1860     7579.00000
    27.1991     7456.00000
    27.2123     7709.00000
    27.2254     7586.00000
    27.2385     7413.00000
    27.2517     7458.00000
    27.2648     7558.00000
    27.2779     7497.00000
    27.2910     7613.00000
    27.3042     7356.00000
    27.3173     7570.00000
    27.3304     7317.00000
    27.3436     7388.00000
    27.3567     7441.00000
    27.3698     7507.00000
    27.3830     7392.00000
    27.3961     7470.00000
    27.4092     7439.00000
    27.4224     7383.00000
    27.4355     7423.00000
    27.4486     7473.00000
    27.4617     7385.00000
    27.4749     7318.00000
    27.4880     7272.00000
    27.5011     7413.00000
    27.5143     7495.00000
    27.5274     7438.00000
    27.5405     7431.00000
    27.5537     7534.00000
    27.5668     7599.00000
    27.5799     7586.00000
    27.5930     7574.00000
    27.6062     7439.00000
    27.6193     7488.00000
    27.6324     7506.00000
    27.6456     7514.00000
    27.6587     7642.00000
    27.6718     7757.00000
    27.6850     7795.00000
    27.6981     7792.00000
    27.7112     7944.00000
    27.7243     7909.00000
    27.7375     8318.00000
    27.7506     8258.00000
    27.7637     8488.00000
    27.7769     8471.00000
    27.7900     8647.00000
    27.8031     8894.00000
    27.8163     8888.00000
    27.8294     9190.00000
    27.8425     9710.00000
    27.8556     9984.00000
    27.8688    10675.00000
    27.8819    11067.00000
    27.8950    12002.00000
    27.9082    13484.00000
    27.9213    15748.00000
    27.9344    19257.00000
    27.9476    25316.00000
    27.9607    34866.00000
    27.9738    50110.00000
    27.9870    66741.00000
    28.0001    82548.00000
    28.0132    90257.00000
    28.0263    86920.00000
    28.0395    77799.00000
    28.0526    69357.00000
    28.0657    63138.00000
    28.0789    58255.00000
    28.0920    52044.00000
    28.1051    43074.00000
    28.1183    33504.00000
    28.1314    24784.00000
    28.1445    18690.00000
    28.1576    14712.00000
    28.1708    12591.00000
    28.1839    11302.00000
    28.1970    10546.00000
    28.2102    10095.00000
    28.2233     9411.00000
    28.2364     9098.00000
    28.2496     8872.00000
    28.2627     8585.00000
    28.2758     8493.00000
    28.2889     8277.00000
    28.3021     8323.00000
    28.3152     8014.00000
    28.3283     7895.00000
    28.3415     8003.00000
    28.3546     7854.00000
    28.3677     7716.00000
    28.3809     7747.00000
    28.3940     7736.00000
    28.4071     7763.00000
    28.4203     7735.00000
    28.4334     7788.00000
    28.4465     7835.00000
    28.4596     7880.00000
    28.4728     8189.00000
    28.4859     8116.00000
    28.4990     8473.00000
    28.5122     8871.00000
    28.5253     9134.00000
    28.5384     8858.00000
    28.5516     8593.00000
    28.5647     8561.00000
    28.5778     8253.00000
    28.5909     8413.00000
    28.6041     8158.00000
    28.6172     8285.00000
    28.6303     7849.00000
    28.6435     7797.00000
    28.6566     7804.00000
    28.6697     7590.00000
    28.6829     7497.00000
    28.6960     7552.00000
    28.7091     7760.00000
    28.7222     7595.00000
    28.7354     7593.00000
    28.7485     7751.00000
    28.7616     7656.00000
    28.7748     7657.00000
    28.7879     7754.00000
    28.8010     7797.00000
    28.8142     7787.00000
    28.8273     7851.00000
    28.8404     7807.00000
    28.8536     8413.00000
    28.8667     8377.00000
    28.8798     8441.00000
    28.8929     8728.00000
    28.9061     9019.00000
    28.9192     9464.00000
    28.9323    10974.00000
    28.9455    13245.00000
    28.9586    17540.00000
    28.9717    24861.00000
    28.9849    33957.00000
    28.9980    40022.00000
    29.0111    39183.00000
    29.0242    33550.00000
    29.0374    28453.00000
    29.0505    26258.00000
    29.0636    26464.00000
    29.0768    25623.00000
    29.0899    22835.00000
    29.1030    18551.00000
    29.1162    14798.00000
    29.1293    11768.00000
    29.1424    10131.00000
    29.1555     9414.00000
    29.1687     8670.00000
    29.1818     8749.00000
    29.1949     8986.00000
    29.2081     9235.00000
    29.2212     9631.00000
    29.2343    10267.00000
    29.2475    11761.00000
    29.2606    13045.00000
    29.2737    14160.00000
    29.2869    15249.00000
    29.3000    16098.00000
    29.3131    16719.00000
    29.3262    17084.00000
    29.3394    16210.00000
    29.3525    14777.00000
    29.3656    13982.00000
    29.3788    13190.00000
    29.3919    12539.00000
    29.4050    12056.00000
    29.4182    10689.00000
    29.4313     9702.00000
    29.4444     9049.00000
    29.4575     8539.00000
    29.4707     8321.00000
    29.4838     7928.00000
    29.4969     7622.00000
    29.5101     7646.00000
    29.5232     7691.00000
    29.5363     7472.00000
    29.5495     7603.00000
    29.5626     7344.00000
    29.5757     7239.00000
    29.5888     7377.00000
    29.6020     7246.00000
    29.6151     7308.00000
    29.6282     7181.00000
    29.6414     7178.00000
    29.6545     7131.00000
    29.6676     7391.00000
    29.6808     7088.00000
    29.6939     7196.00000
    29.7070     7177.00000
    29.7201     7237.00000
    29.7333     6997.00000
    29.7464     7308.00000
    29.7595     7324.00000
    29.7727     7040.00000
    29.7858     7206.00000
    29.7989     7259.00000
    29.8121     7093.00000
    29.8252     7235.00000
    29.8383     7100.00000
    29.8515     7240.00000
    29.8646     7261.00000
    29.8777     7239.00000
    29.8908     7193.00000
    29.9040     7048.00000
    29.9171     6978.00000
    29.9302     7077.00000
    29.9434     7112.00000
    29.9565     6957.00000
    29.9696     6962.00000
    29.9828     6946.00000
    29.9959     7141.00000
    30.0090     6970.00000
    30.0221     7094.00000
    30.0353     7007.00000
    30.0484     7056.00000
    30.0615     7079.00000
    30.0747     7156.00000
    30.0878     6995.00000
    30.1009     7036.00000
    30.1141     7069.00000
    30.1272     7030.00000
    30.1403     7022.00000
    30.1535     7049.00000
    30.1666     6991.00000
    30.1797     7067.00000
    30.1928     7162.00000
    30.2060     7198.00000
    30.2191     7069.00000
    30.2322     6995.00000
    30.2454     6920.00000
    30.2585     7069.00000
    30.2716     6965.00000
    30.2848     7127.00000
    30.2979     6922.00000
    30.3110     7130.00000
    30.3241     6956.00000
    30.3373     7046.00000
    30.3504     6994.00000
    30.3635     6915.00000
    30.3767     7064.00000
    30.3898     7067.00000
    30.4029     7071.00000
    30.4161     6916.00000
    30.4292     7146.00000
    30.4423     7097.00000
    30.4554     7066.00000
    30.4686     7038.00000
    30.4817     7044.00000
    30.4948     6991.00000
    30.5080     7014.00000
    30.5211     7032.00000
    30.5342     7016.00000
    30.5474     6931.00000
    30.5605     6950.00000
    30.5736     6889.00000
    30.5868     6929.00000
    30.5999     7044.00000
    30.6130     6958.00000
    30.6261     6914.00000
    30.6393     7119.00000
    30.6524     7079.00000
    30.6655     6874.00000
    30.6787     6862.00000
    30.6918     6905.00000
    30.7049     6805.00000
    30.7181     6895.00000
    30.7312     6955.00000
    30.7443     7030.00000
    30.7574     6970.00000
    30.7706     7032.00000
    30.7837     7037.00000
    30.7968     7140.00000
    30.8100     6952.00000
    30.8231     7042.00000
    30.8362     6962.00000
    30.8494     6906.00000
    30.8625     7058.00000
    30.8756     6907.00000
    30.8887     6737.00000
    30.9019     6978.00000
    30.9150     6880.00000
    30.9281     6769.00000
    30.9413     6914.00000
    30.9544     6845.00000
    30.9675     6828.00000
    30.9807     6916.00000
    30.9938     6856.00000
    31.0069     6871.00000
    31.0200     6842.00000
    31.0332     6869.00000
    31.0463     7055.00000
    31.0594     6983.00000
    31.0726     6667.00000
    31.0857     6735.00000
    31.0988     6921.00000
    31.1120     7097.00000
    31.1251     6905.00000
    31.1382     6757.00000
    31.1514     6855.00000
    31.1645     6987.00000
    31.1776     6756.00000
    31.1907     6837.00000
    31.2039     6782.00000
    31.2170     6887.00000
    31.2301     6821.00000
    31.2433     6936.00000
    31.2564     6863.00000
    31.2695     6959.00000
    31.2827     6925.00000
    31.2958     6928.00000
    31.3089     7012.00000
    31.3220     7027.00000
    31.3352     6907.00000
    31.3483     6895.00000
    31.3614     6842.00000
    31.3746     6851.00000
    31.3877     6934.00000
    31.4008     6694.00000
    31.4140     6763.00000
    31.4271     6767.00000
    31.4402     6814.00000
    31.4533     6836.00000
    31.4665     6741.00000
    31.4796     6950.00000
    31.4927     6962.00000
    31.5059     6815.00000
    31.5190     6911.00000
    31.5321     6763.00000
    31.5453     6585.00000
    31.5584     6914.00000
    31.5715     6755.00000
    31.5847     6808.00000
    31.5978     6762.00000
    31.6109     6664.00000
    31.6240     6702.00000
    31.6372     6920.00000
    31.6503     6765.00000
    31.6634     6894.00000
    31.6766     6791.00000
    31.6897     6819.00000
    31.7028     6871.00000
    31.7160     6817.00000
    31.7291     6803.00000
    31.7422     6669.00000
    31.7553     6693.00000
    31.7685     6809.00000
    31.7816     6927.00000
    31.7947     6855.00000
    31.8079     6756.00000
    31.8210     6881.00000
    31.8341     6890.00000
    31.8473     6810.00000
    31.8604     6760.00000
    31.8735     6712.00000
    31.8866     7013.00000
    31.8998     6878.00000
    31.9129     6793.00000
    31.9260     6959.00000
    31.9392     6821.00000
    31.9523     6735.00000
    31.9654     6958.00000
    31.9786     6905.00000
    31.9917     6952.00000
    32.0048     6885.00000
    32.0180     6801.00000
    32.0311     6731.00000
    32.0442     6797.00000
    32.0573     6984.00000
    32.0705     6940.00000
    32.0836     6898.00000
    32.0967     6874.00000
    32.1099     6758.00000
    32.1230     6900.00000
    32.1361     6946.00000
    32.1493     6765.00000
    32.1624     6772.00000
    32.1755     6924.00000
    32.1886     6906.00000
    32.2018     6861.00000
    32.2149     6733.00000
    32.2280     6900.00000
    32.2412     6870.00000
    32.2543     6904.00000
    32.2674     6988.00000
    32.2806     6759.00000
    32.2937     7039.00000
    32.3068     6977.00000
    32.3199     7000.00000
    32.3331     6946.00000
    32.3462     6996.00000
    32.3593     6929.00000
    32.3725     6884.00000
    32.3856     7054.00000
    32.3987     6933.00000
    32.4119     6765.00000
    32.4250     6837.00000
    32.4381     7032.00000
    32.4512     6980.00000
    32.4644     6864.00000
    32.4775     6945.00000
    32.4906     7092.00000
    32.5038     7000.00000
    32.5169     6834.00000
    32.5300     6890.00000
    32.5432     6819.00000
    32.5563     6699.00000
    32.5694     6750.00000
    32.5826     6931.00000
    32.5957     6949.00000
    32.6088     6875.00000
    32.6219     7021.00000
    32.6351     7014.00000
    32.6482     6966.00000
    32.6613     7144.00000
    32.6745     6907.00000
    32.6876     6930.00000
    32.7007     7056.00000
    32.7139     7036.00000
    32.7270     6895.00000
    32.7401     6990.00000
    32.7532     6986.00000
    32.7664     7069.00000
    32.7795     7313.00000
    32.7926     7293.00000
    32.8058     7240.00000
    32.8189     7179.00000
    32.8320     7227.00000
    32.8452     7459.00000
    32.8583     7521.00000
    32.8714     7953.00000
    32.8845     7993.00000
    32.8977     8694.00000
    32.9108     9464.00000
    32.9239    11177.00000
    32.9371    13486.00000
    32.9502    15903.00000
    32.9633    17358.00000
    32.9765    17182.00000
    32.9896    17759.00000
    33.0027    19983.00000
    33.0159    22898.00000
    33.0290    24590.00000
    33.0421    23682.00000
    33.0552    20494.00000
    33.0684    17465.00000
    33.0815    15757.00000
    33.0946    15018.00000
    33.1078    14875.00000
    33.1209    14336.00000
    33.1340    12644.00000
    33.1472    10798.00000
    33.1603     9593.00000
    33.1734     8549.00000
    33.1865     8067.00000
    33.1997     7673.00000
    33.2128     7692.00000
    33.2259     7374.00000
    33.2391     7319.00000
    33.2522     7230.00000
    33.2653     7095.00000
    33.2785     7140.00000
    33.2916     7090.00000
    33.3047     7121.00000
    33.3178     7059.00000
    33.3310     7114.00000
    33.3441     7109.00000
    33.3572     7156.00000
    33.3704     6760.00000
    33.3835     7026.00000
    33.3966     7043.00000
    33.4098     6934.00000
    33.4229     6918.00000
    33.4360     7059.00000
    33.4492     6974.00000
    33.4623     6936.00000
    33.4754     7008.00000
    33.4885     7075.00000
    33.5017     7074.00000
    33.5148     7096.00000
    33.5279     6880.00000
    33.5411     7113.00000
    33.5542     6972.00000
    33.5673     7154.00000
    33.5805     7044.00000
    33.5936     7207.00000
    33.6067     7350.00000
    33.6198     7275.00000
    33.6330     7375.00000
    33.6461     7986.00000
    33.6592     8361.00000
    33.6724     9137.00000
    33.6855    10379.00000
    33.6986    12129.00000
    33.7118    13513.00000
    33.7249    14807.00000
    33.7380    15062.00000
    33.7511    14388.00000
    33.7643    12857.00000
    33.7774    11792.00000
    33.7905    11229.00000
    33.8037    11479.00000
    33.8168    11267.00000
    33.8299    10906.00000
    33.8431    10078.00000
    33.8562     8926.00000
    33.8693     8456.00000
    33.8825     7983.00000
    33.8956     7625.00000
    33.9087     7514.00000
    33.9218     7716.00000
    33.9350     7700.00000
    33.9481     7678.00000
    33.9612     7899.00000
    33.9744     7847.00000
    33.9875     7658.00000
    34.0006     7737.00000
    34.0138     7591.00000
    34.0269     7557.00000
    34.0400     7469.00000
    34.0531     7360.00000
    34.0663     7627.00000
    34.0794     7462.00000
    34.0925     7588.00000
    34.1057     7296.00000
    34.1188     7349.00000
    34.1319     7625.00000
    34.1451     7840.00000
    34.1582     8574.00000
    34.1713     9535.00000
    34.1844    11296.00000
    34.1976    13015.00000
    34.2107    14061.00000
    34.2238    13273.00000
    34.2370    12232.00000
    34.2501    10769.00000
    34.2632    10193.00000
    34.2764    10184.00000
    34.2895    10673.00000
    34.3026    10481.00000
    34.3158     9994.00000
    34.3289     9284.00000
    34.3420     8382.00000
    34.3551     7797.00000
    34.3683     7243.00000
    34.3814     7101.00000
    34.3945     7040.00000
    34.4077     6983.00000
    34.4208     6878.00000
    34.4339     6999.00000
    34.4471     6865.00000
    34.4602     6907.00000
    34.4733     6897.00000
    34.4864     6759.00000
    34.4996     6829.00000
    34.5127     6839.00000
    34.5258     6759.00000
    34.5390     6789.00000
    34.5521     6744.00000
    34.5652     6864.00000
    34.5784     6820.00000
    34.5915     6617.00000
    34.6046     6685.00000
    34.6177     6742.00000
    34.6309     6800.00000
    34.6440     6896.00000
    34.6571     6848.00000
    34.6703     6719.00000
    34.6834     6556.00000
    34.6965     6824.00000
    34.7097     6714.00000
    34.7228     6796.00000
    34.7359     6842.00000
    34.7491     7018.00000
    34.7622     6939.00000
    34.7753     6818.00000
    34.7884     6878.00000
    34.8016     6739.00000
    34.8147     6863.00000
    34.8278     7105.00000
    34.8410     7186.00000
    34.8541     7341.00000
    34.8672     7797.00000
    34.8804     8502.00000
    34.8935     9165.00000
    34.9066    10429.00000
    34.9197    11416.00000
    34.9329    11666.00000
    34.9460    11168.00000
    34.9591    10487.00000
    34.9723    10033.00000
    34.9854     9597.00000
    34.9985     9611.00000
    35.0117     9582.00000
    35.0248     9554.00000
    35.0379     8896.00000
    35.0510     8621.00000
    35.0642     8234.00000
    35.0773     7697.00000
    35.0904     7329.00000
    35.1036     7302.00000
    35.1167     7513.00000
    35.1298     7706.00000
    35.1430     7632.00000
    35.1561     7465.00000
    35.1692     7383.00000
    35.1824     7213.00000
    35.1955     7245.00000
    35.2086     7063.00000
    35.2217     6983.00000
    35.2349     7021.00000
    35.2480     6944.00000
    35.2611     7060.00000
    35.2743     6732.00000
    35.2874     6705.00000
    35.3005     6684.00000
    35.3137     6458.00000
    35.3268     6701.00000
    35.3399     6661.00000
    35.3530     6681.00000
    35.3662     6724.00000
    35.3793     6645.00000
    35.3924     6630.00000
    35.4056     6713.00000
    35.4187     6547.00000
    35.4318     6565.00000
    35.4450     6532.00000
    35.4581     6624.00000
    35.4712     6716.00000
    35.4843     6701.00000
    35.4975     6754.00000
    35.5106     6629.00000
    35.5237     6614.00000
    35.5369     6526.00000
    35.5500     6639.00000
    35.5631     6631.00000
    35.5763     6699.00000
    35.5894     6633.00000
    35.6025     6597.00000
    35.6156     6629.00000
    35.6288     6627.00000
    35.6419     6633.00000
    35.6550     6686.00000
    35.6682     6466.00000
    35.6813     6529.00000
    35.6944     6631.00000
    35.7076     6545.00000
    35.7207     6626.00000
    35.7338     6495.00000
    35.7470     6524.00000
    35.7601     6549.00000
    35.7732     6625.00000
    35.7863     6543.00000
    35.7995     6505.00000
    35.8126     6669.00000
    35.8257     6529.00000
    35.8389     6485.00000
    35.8520     6631.00000
    35.8651     6633.00000
    35.8783     6523.00000
    35.8914     6505.00000
    35.9045     6602.00000
    35.9176     6615.00000
    35.9308     6617.00000
    35.9439     6600.00000
    35.9570     6544.00000
    35.9702     6509.00000
    35.9833     6572.00000
    35.9964     6621.00000
    36.0096     6364.00000
    36.0227     6543.00000
    36.0358     6647.00000
    36.0489     6595.00000
    36.0621     6515.00000
    36.0752     6654.00000
    36.0883     6623.00000
    36.1015     6558.00000
    36.1146     6524.00000
    36.1277     6593.00000
    36.1409     6763.00000
    36.1540     6615.00000
    36.1671     6525.00000
    36.1802     6822.00000
    36.1934     6803.00000
    36.2065     6741.00000
    36.2196     6668.00000
    36.2328     6683.00000
    36.2459     6737.00000
    36.2590     6623.00000
    36.2722     6595.00000
    36.2853     6644.00000
    36.2984     6710.00000
    36.3116     6656.00000
    36.3247     6592.00000
    36.3378     6647.00000
    36.3509     6875.00000
    36.3641     6659.00000
    36.3772     6605.00000
    36.3903     6877.00000
    36.4035     6643.00000
    36.4166     6828.00000
    36.4297     7054.00000
    36.4429     7542.00000
    36.4560     8060.00000
    36.4691     8956.00000
    36.4822     9887.00000
    36.4954     9940.00000
    36.5085     9500.00000
    36.5216     8852.00000
    36.5348     8382.00000
    36.5479     8286.00000
    36.5610     7982.00000
    36.5742     8344.00000
    36.5873     8331.00000
    36.6004     8334.00000
    36.6135     7740.00000
    36.6267     7303.00000
    36.6398     6859.00000
    36.6529     6820.00000
    36.6661     6634.00000
    36.6792     6771.00000
    36.6923     6702.00000
    36.7055     6616.00000
    36.7186     6599.00000
    36.7317     6710.00000
    36.7449     6550.00000
    36.7580     6663.00000
    36.7711     6653.00000
    36.7842     6493.00000
    36.7974     6786.00000
    36.8105     6661.00000
    36.8236     6470.00000
    36.8368     6469.00000
    36.8499     6510.00000
    36.8630     6634.00000
    36.8762     6524.00000
    36.8893     6567.00000
    36.9024     6492.00000
    36.9155     6509.00000
    36.9287     6396.00000
    36.9418     6568.00000
    36.9549     6786.00000
    36.9681     6578.00000
    36.9812     6613.00000
    36.9943     6561.00000
    37.0075     6491.00000
    37.0206     6559.00000
    37.0337     6469.00000
    37.0468     6459.00000
    37.0600     6562.00000
    37.0731     6596.00000
    37.0862     6630.00000
    37.0994     6431.00000
    37.1125     6565.00000
    37.1256     6543.00000
    37.1388     6500.00000
    37.1519     6662.00000
    37.1650     6594.00000
    37.1782     6412.00000
    37.1913     6470.00000
    37.2044     6492.00000
    37.2175     6500.00000
    37.2307     6516.00000
    37.2438     6522.00000
    37.2569     6586.00000
    37.2701     6552.00000
    37.2832     6635.00000
    37.2963     6461.00000
    37.3095     6452.00000
    37.3226     6616.00000
    37.3357     6450.00000
    37.3488     6522.00000
    37.3620     6529.00000
    37.3751     6539.00000
    37.3882     6538.00000
    37.4014     6663.00000
    37.4145     6378.00000
    37.4276     6660.00000
    37.4408     6630.00000
    37.4539     6561.00000
    37.4670     6903.00000
    37.4801     6739.00000
    37.4933     6883.00000
    37.5064     7022.00000
    37.5195     7059.00000
    37.5327     7242.00000
    37.5458     7382.00000
    37.5589     7495.00000
    37.5721     7619.00000
    37.5852     7608.00000
    37.5983     7343.00000
    37.6115     7324.00000
    37.6246     7412.00000
    37.6377     7472.00000
    37.6508     7821.00000
    37.6640     8040.00000
    37.6771     8630.00000
    37.6902     9428.00000
    37.7034    10522.00000
    37.7165    11294.00000
    37.7296    11955.00000
    37.7428    11926.00000
    37.7559    11711.00000
    37.7690    11113.00000
    37.7821    11087.00000
    37.7953    11351.00000
    37.8084    11800.00000
    37.8215    11811.00000
    37.8347    11517.00000
    37.8478    10723.00000
    37.8609     9830.00000
    37.8741     9287.00000
    37.8872     8720.00000
    37.9003     8446.00000
    37.9134     8308.00000
    37.9266     8073.00000
    37.9397     7637.00000
    37.9528     7538.00000
    37.9660     6997.00000
    37.9791     6933.00000
    37.9922     6858.00000
    38.0054     6804.00000
    38.0185     6761.00000
    38.0316     6661.00000
    38.0448     6731.00000
    38.0579     6635.00000
    38.0710     6589.00000
    38.0841     6790.00000
    38.0973     6631.00000
    38.1104     6664.00000
    38.1235     6638.00000
    38.1367     6666.00000
    38.1498     6654.00000
    38.1629     6682.00000
    38.1761     6614.00000
    38.1892     6532.00000
    38.2023     6641.00000
    38.2154     6517.00000
    38.2286     6691.00000
    38.2417     6589.00000
    38.2548     6606.00000
    38.2680     6692.00000
    38.2811     6434.00000
    38.2942     6657.00000
    38.3074     6634.00000
    38.3205     6568.00000
    38.3336     6564.00000
    38.3467     6435.00000
    38.3599     6621.00000
    38.3730     6455.00000
    38.3861     6487.00000
    38.3993     6487.00000
    38.4124     6513.00000
    38.4255     6483.00000
    38.4387     6435.00000
    38.4518     6364.00000
    38.4649     6416.00000
    38.4781     6448.00000
    38.4912     6614.00000
    38.5043     6574.00000
    38.5174     6569.00000
    38.5306     6364.00000
    38.5437     6490.00000
    38.5568     6305.00000
    38.5700     6441.00000
    38.5831     6460.00000
    38.5962     6430.00000
    38.6094     6618.00000
    38.6225     6453.00000
    38.6356     6478.00000
    38.6487     6402.00000
    38.6619     6489.00000
    38.6750     6360.00000
    38.6881     6369.00000
    38.7013     6358.00000
    38.7144     6563.00000
    38.7275     6427.00000
    38.7407     6322.00000
    38.7538     6505.00000
    38.7669     6534.00000
    38.7800     6420.00000
    38.7932     6346.00000
    38.8063     6436.00000
    38.8194     6529.00000
    38.8326     6447.00000
    38.8457     6560.00000
    38.8588     6526.00000
    38.8720     6406.00000
    38.8851     6535.00000
    38.8982     6520.00000
    38.9114     6635.00000
    38.9245     6354.00000
    38.9376     6429.00000
    38.9507     6281.00000
    38.9639     6401.00000
    38.9770     6560.00000
    38.9901     6503.00000
    39.0033     6553.00000
    39.0164     6516.00000
    39.0295     6750.00000
    39.0427     6492.00000
    39.0558     6571.00000
    39.0689     6576.00000
    39.0820     6594.00000
    39.0952     6710.00000
    39.1083     6551.00000
    39.1214     6600.00000
    39.1346     6666.00000
    39.1477     6638.00000
    39.1608     6646.00000
    39.1740     6963.00000
    39.1871     7104.00000
    39.2002     7524.00000
    39.2133     7852.00000
    39.2265     8623.00000
    39.2396     9325.00000
    39.2527     9617.00000
    39.2659     9217.00000
    39.2790     8437.00000
    39.2921     7927.00000
    39.3053     7720.00000
    39.3184     7545.00000
    39.3315     7926.00000
    39.3446     7877.00000
    39.3578     8079.00000
    39.3709     7789.00000
    39.3840     7149.00000
    39.3972     7038.00000
    39.4103     6790.00000
    39.4234     6725.00000
    39.4366     6475.00000
    39.4497     6554.00000
    39.4628     6435.00000
    39.4760     6538.00000
    39.4891     6522.00000
    39.5022     6606.00000
    39.5153     6596.00000
    39.5285     6551.00000
    39.5416     6602.00000
    39.5547     6246.00000
    39.5679     6525.00000
    39.5810     6562.00000
    39.5941     6559.00000
    39.6073     6433.00000
    39.6204     6579.00000
    39.6335     6516.00000
    39.6466     6560.00000
    39.6598     6488.00000
    39.6729     6346.00000
    39.6860     6500.00000
    39.6992     6314.00000
    39.7123     6485.00000
    39.7254     6561.00000
    39.7386     6454.00000
    39.7517     6521.00000
    39.7648     6510.00000
    39.7779     6491.00000
    39.7911     6500.00000
    39.8042     6473.00000
    39.8173     6561.00000
    39.8305     6427.00000
    39.8436     6404.00000
    39.8567     6627.00000
    39.8699     6558.00000
    39.8830     6532.00000
    39.8961     6382.00000
    39.9092     6241.00000
    39.9224     6369.00000
    39.9355     6618.00000
    39.9486     6520.00000
    39.9618     6343.00000
    39.9749     6324.00000
    39.9880     6489.00000
    40.0012     6527.00000
    40.0143     6667.00000
    40.0274     6498.00000
    40.0406     6388.00000
    40.0537     6497.00000
    40.0668     6471.00000
    40.0799     6485.00000
    40.0931     6625.00000
    40.1062     6487.00000
    40.1193     6614.00000
    40.1325     6566.00000
    40.1456     6830.00000
    40.1587     6841.00000
    40.1719     6945.00000
    40.1850     7157.00000
    40.1981     7437.00000
    40.2112     7622.00000
    40.2244     7487.00000
    40.2375     7466.00000
    40.2506     7322.00000
    40.2638     7429.00000
    40.2769     7470.00000
    40.2900     7717.00000
    40.3032     8117.00000
    40.3163     8451.00000
    40.3294     9218.00000
    40.3425     9633.00000
    40.3557     9670.00000
    40.3688     9470.00000
    40.3819     8852.00000
    40.3951     8349.00000
    40.4082     8225.00000
    40.4213     8181.00000
    40.4345     8112.00000
    40.4476     8162.00000
    40.4607     8103.00000
    40.4739     7781.00000
    40.4870     7637.00000
    40.5001     7311.00000
    40.5132     6769.00000
    40.5264     6659.00000
    40.5395     6680.00000
    40.5526     6745.00000
    40.5658     6665.00000
    40.5789     6595.00000
    40.5920     6508.00000
    40.6052     6423.00000
    40.6183     6561.00000
    40.6314     6524.00000
    40.6445     6494.00000
    40.6577     6423.00000
    40.6708     6546.00000
    40.6839     6405.00000
    40.6971     6572.00000
    40.7102     6398.00000
    40.7233     6451.00000
    40.7365     6498.00000
    40.7496     6525.00000
    40.7627     6494.00000
    40.7758     6481.00000
    40.7890     6419.00000
    40.8021     6550.00000
    40.8152     6419.00000
    40.8284     6572.00000
    40.8415     6474.00000
    40.8546     6555.00000
    40.8678     6447.00000
    40.8809     6448.00000
    40.8940     6552.00000
    40.9072     6466.00000
    40.9203     6471.00000
    40.9334     6574.00000
    40.9465     6573.00000
    40.9597     6457.00000
    40.9728     6637.00000
    40.9859     6637.00000
    40.9991     6631.00000
    41.0122     6881.00000
    41.0253     7157.00000
    41.0385     7392.00000
    41.0516     7757.00000
    41.0647     8083.00000
    41.0778     7999.00000
    41.0910     8287.00000
    41.1041     8167.00000
    41.1172     8249.00000
    41.1304     8406.00000
    41.1435     9061.00000
    41.1566     9872.00000
    41.1698    10886.00000
    41.1829    11727.00000
    41.1960    11996.00000
    41.2091    11785.00000
    41.2223    11556.00000
    41.2354    11127.00000
    41.2485    11167.00000
    41.2617    11198.00000
    41.2748    11296.00000
    41.2879    11005.00000
    41.3011    10728.00000
    41.3142    10205.00000
    41.3273     9649.00000
    41.3405     8866.00000
    41.3536     8571.00000
    41.3667     8385.00000
    41.3798     8343.00000
    41.3930     7889.00000
    41.4061     7556.00000
    41.4192     7212.00000
    41.4324     7074.00000
    41.4455     6763.00000
    41.4586     6707.00000
    41.4718     6652.00000
    41.4849     6708.00000
    41.4980     6671.00000
    41.5111     6700.00000
    41.5243     6592.00000
    41.5374     6488.00000
    41.5505     6774.00000
    41.5637     6587.00000
    41.5768     6556.00000
    41.5899     6423.00000
    41.6031     6531.00000
    41.6162     6437.00000
    41.6293     6617.00000
    41.6424     6483.00000
    41.6556     6390.00000
    41.6687     6469.00000
    41.6818     6383.00000
    41.6950     6318.00000
    41.7081     6497.00000
    41.7212     6404.00000
    41.7344     6424.00000
    41.7475     6403.00000
    41.7606     6471.00000
    41.7738     6329.00000
    41.7869     6358.00000
    41.8000     6354.00000
    41.8131     6330.00000
    41.8263     6422.00000
    41.8394     6572.00000
    41.8525     6340.00000
    41.8657     6392.00000
    41.8788     6246.00000
    41.8919     6520.00000
    41.9051     6481.00000
    41.9182     6387.00000
    41.9313     6652.00000
    41.9444     6578.00000
    41.9576     6474.00000
    41.9707     6429.00000
    41.9838     6318.00000
    41.9970     6423.00000
    42.0101     6365.00000
    42.0232     6398.00000
    42.0364     6436.00000
    42.0495     6459.00000
    42.0626     6438.00000
    42.0757     6460.00000
    42.0889     6655.00000
    42.1020     6515.00000
    42.1151     6527.00000
    42.1283     6402.00000
    42.1414     6291.00000
    42.1545     6355.00000
    42.1677     6312.00000
    42.1808     6477.00000
    42.1939     6612.00000
    42.2071     6398.00000
    42.2202     6387.00000
    42.2333     6482.00000
    42.2464     6371.00000
    42.2596     6376.00000
    42.2727     6383.00000
    42.2858     6568.00000
    42.2990     6461.00000
    42.3121     6360.00000
    42.3252     6547.00000
    42.3384     6295.00000
    42.3515     6411.00000
    42.3646     6437.00000
    42.3777     6459.00000
    42.3909     6369.00000
    42.4040     6412.00000
    42.4171     6419.00000
    42.4303     6513.00000
    42.4434     6249.00000
    42.4565     6321.00000
    42.4697     6518.00000
    42.4828     6389.00000
    42.4959     6333.00000
    42.5090     6252.00000
    42.5222     6363.00000
    42.5353     6464.00000
    42.5484     6289.00000
    42.5616     6289.00000
    42.5747     6375.00000
    42.5878     6413.00000
    42.6010     6458.00000
    42.6141     6489.00000
    42.6272     6414.00000
    42.6404     6415.00000
    42.6535     6256.00000
    42.6666     6485.00000
    42.6797     6387.00000
    42.6929     6239.00000
    42.7060     6206.00000
    42.7191     6413.00000
    42.7323     6202.00000
    42.7454     6435.00000
    42.7585     6386.00000
    42.7717     6254.00000
    42.7848     6499.00000
    42.7979     6267.00000
    42.8110     6349.00000
    42.8242     6502.00000
    42.8373     6340.00000
    42.8504     6426.00000
    42.8636     6384.00000
    42.8767     6440.00000
    42.8898     6322.00000
    42.9030     6273.00000
    42.9161     6260.00000
    42.9292     6318.00000
    42.9423     6306.00000
    42.9555     6302.00000
    42.9686     6518.00000
    42.9817     6480.00000
    42.9949     6451.00000
    43.0080     6315.00000
    43.0211     6280.00000
    43.0343     6417.00000
    43.0474     6409.00000
    43.0605     6491.00000
    43.0736     6260.00000
    43.0868     6443.00000
    43.0999     6417.00000
    43.1130     6501.00000
    43.1262     6329.00000
    43.1393     6386.00000
    43.1524     6452.00000
    43.1656     6348.00000
    43.1787     6422.00000
    43.1918     6508.00000
    43.2050     6465.00000
    43.2181     6442.00000
    43.2312     6557.00000
    43.2443     6509.00000
    43.2575     6476.00000
    43.2706     6381.00000
    43.2837     6432.00000
    43.2969     6520.00000
    43.3100     6392.00000
    43.3231     6237.00000
    43.3363     6283.00000
    43.3494     6442.00000
    43.3625     6613.00000
    43.3756     6507.00000
    43.3888     6490.00000
    43.4019     6488.00000
    43.4150     6451.00000
    43.4282     6285.00000
    43.4413     6377.00000
    43.4544     6283.00000
    43.4676     6334.00000
    43.4807     6160.00000
    43.4938     6336.00000
    43.5069     6358.00000
    43.5201     6434.00000
    43.5332     6744.00000
    43.5463     6727.00000
    43.5595     6741.00000
    43.5726     6887.00000
    43.5857     7129.00000
    43.5989     7312.00000
    43.6120     7606.00000
    43.6251     7897.00000
    43.6383     8051.00000
    43.6514     7979.00000
    43.6645     7640.00000
    43.6776     7560.00000
    43.6908     7101.00000
    43.7039     7217.00000
    43.7170     7010.00000
    43.7302     7069.00000
    43.7433     7302.00000
    43.7564     7188.00000
    43.7696     7319.00000
    43.7827     6848.00000
    43.7958     6806.00000
    43.8089     6751.00000
    43.8221     6632.00000
    43.8352     6474.00000
    43.8483     6363.00000
    43.8615     6414.00000
    43.8746     6361.00000
    43.8877     6314.00000
    43.9009     6351.00000
    43.9140     6363.00000
    43.9271     6369.00000
    43.9402     6478.00000
    43.9534     6457.00000
    43.9665     6291.00000
    43.9796     6286.00000
    43.9928     6332.00000
    44.0059     6467.00000
    44.0190     6196.00000
    44.0322     6425.00000
    44.0453     6542.00000
    44.0584     6438.00000
    44.0715     6555.00000
    44.0847     6408.00000
    44.0978     6479.00000
    44.1109     6440.00000
    44.1241     6608.00000
    44.1372     6697.00000
    44.1503     6767.00000
    44.1635     6555.00000
    44.1766     6516.00000
    44.1897     6357.00000
    44.2029     6457.00000
    44.2160     6665.00000
    44.2291     6595.00000
    44.2422     6602.00000
    44.2554     6520.00000
    44.2685     6552.00000
    44.2816     6671.00000
    44.2948     6460.00000
    44.3079     6553.00000
    44.3210     6475.00000
    44.3342     6504.00000
    44.3473     6357.00000
    44.3604     6444.00000
    44.3735     6461.00000
    44.3867     6457.00000
    44.3998     6418.00000
    44.4129     6424.00000
    44.4261     6526.00000
    44.4392     6730.00000
    44.4523     6456.00000
    44.4655     6568.00000
    44.4786     6648.00000
    44.4917     6539.00000
    44.5048     6778.00000
    44.5180     6884.00000
    44.5311     6893.00000
    44.5442     6754.00000
    44.5574     7098.00000
    44.5705     7069.00000
    44.5836     7409.00000
    44.5968     7501.00000
    44.6099     7742.00000
    44.6230     8496.00000
    44.6362     9188.00000
    44.6493    10109.00000
    44.6624    11479.00000
    44.6755    12666.00000
    44.6887    13522.00000
    44.7018    13111.00000
    44.7149    12462.00000
    44.7281    11267.00000
    44.7412    10205.00000
    44.7543     9546.00000
    44.7675     9300.00000
    44.7806     9623.00000
    44.7937    10081.00000
    44.8068     9931.00000
    44.8200     9844.00000
    44.8331     9449.00000
    44.8462     8804.00000
    44.8594     8094.00000
    44.8725     7548.00000
    44.8856     7126.00000
    44.8988     7040.00000
    44.9119     6775.00000
    44.9250     6886.00000
    44.9381     6653.00000
    44.9513     6475.00000
    44.9644     6374.00000
    44.9775     6537.00000
    44.9907     6458.00000
    45.0038     6368.00000
    45.0169     6418.00000
    45.0301     6416.00000
    45.0432     6564.00000
    45.0563     6649.00000
    45.0695     6380.00000
    45.0826     6425.00000
    45.0957     6431.00000
    45.1088     6396.00000
    45.1220     6510.00000
    45.1351     6316.00000
    45.1482     6273.00000
    45.1614     6246.00000
    45.1745     6419.00000
    45.1876     6487.00000
    45.2008     6312.00000
    45.2139     6372.00000
    45.2270     6405.00000
    45.2401     6442.00000
    45.2533     6445.00000
    45.2664     6352.00000
    45.2795     6556.00000
    45.2927     6264.00000
    45.3058     6452.00000
    45.3189     6482.00000
    45.3321     6364.00000
    45.3452     6367.00000
    45.3583     6293.00000
    45.3714     6347.00000
    45.3846     6247.00000
    45.3977     6448.00000
    45.4108     6527.00000
    45.4240     6321.00000
    45.4371     6330.00000
    45.4502     6435.00000
    45.4634     6515.00000
    45.4765     6433.00000
    45.4896     6278.00000
    45.5028     6288.00000
    45.5159     6475.00000
    45.5290     6262.00000
    45.5421     6308.00000
    45.5553     6190.00000
    45.5684     6329.00000
    45.5815     6339.00000
    45.5947     6299.00000
    45.6078     6365.00000
    45.6209     6345.00000
    45.6341     6420.00000
    45.6472     6248.00000
    45.6603     6396.00000
    45.6734     6318.00000
    45.6866     6415.00000
    45.6997     6424.00000
    45.7128     6491.00000
    45.7260     6435.00000
    45.7391     6531.00000
    45.7522     6392.00000
    45.7654     6364.00000
    45.7785     6445.00000
    45.7916     6468.00000
    45.8047     6440.00000
    45.8179     6409.00000
    45.8310     6403.00000
    45.8441     6332.00000
    45.8573     6420.00000
    45.8704     6458.00000
    45.8835     6455.00000
    45.8967     6517.00000
    45.9098     6513.00000
    45.9229     6585.00000
    45.9361     6594.00000
    45.9492     6923.00000
    45.9623     6653.00000
    45.9754     6736.00000
    45.9886     6836.00000
    46.0017     6848.00000
    46.0148     7078.00000
    46.0280     6927.00000
    46.0411     6959.00000
    46.0542     7039.00000
    46.0674     7409.00000
    46.0805     7641.00000
    46.0936     7922.00000
    46.1067     8605.00000
    46.1199     9855.00000
    46.1330    11798.00000
    46.1461    14693.00000
    46.1593    17846.00000
    46.1724    20005.00000
    46.1855    19987.00000
    46.1987    18958.00000
    46.2118    16454.00000
    46.2249    14107.00000
    46.2380    12369.00000
    46.2512    11601.00000
    46.2643    11953.00000
    46.2774    13009.00000
    46.2906    14112.00000
    46.3037    13820.00000
    46.3168    13840.00000
    46.3300    12347.00000
    46.3431    10971.00000
    46.3562     9791.00000
    46.3694     8586.00000
    46.3825     7858.00000
    46.3956     7396.00000
    46.4087     7231.00000
    46.4219     7356.00000
    46.4350     7243.00000
    46.4481     7163.00000
    46.4613     7026.00000
    46.4744     6802.00000
    46.4875     6682.00000
    46.5007     6854.00000
    46.5138     6725.00000
    46.5269     6742.00000
    46.5400     6727.00000
    46.5532     6650.00000
    46.5663     6583.00000
    46.5794     6477.00000
    46.5926     6588.00000
    46.6057     6475.00000
    46.6188     6604.00000
    46.6320     6513.00000
    46.6451     6682.00000
    46.6582     6582.00000
    46.6713     6558.00000
    46.6845     6424.00000
    46.6976     6506.00000
    46.7107     6481.00000
    46.7239     6526.00000
    46.7370     6310.00000
    46.7501     6363.00000
    46.7633     6298.00000
    46.7764     6569.00000
    46.7895     6408.00000
    46.8027     6435.00000
    46.8158     6626.00000
    46.8289     6469.00000
    46.8420     6460.00000
    46.8552     6417.00000
    46.8683     6473.00000
    46.8814     6560.00000
    46.8946     6710.00000
    46.9077     6401.00000
    46.9208     6359.00000
    46.9340     6213.00000
    46.9471     6387.00000
    46.9602     6341.00000
    46.9733     6423.00000
    46.9865     6287.00000
    46.9996     6177.00000
    47.0127     6465.00000
    47.0259     6383.00000
    47.0390     6405.00000
    47.0521     6408.00000
    47.0653     6354.00000
    47.0784     6518.00000
    47.0915     6371.00000
    47.1046     6385.00000
    47.1178     6406.00000
    47.1309     6411.00000
    47.1440     6479.00000
    47.1572     6677.00000
    47.1703     6574.00000
    47.1834     6420.00000
    47.1966     6398.00000
    47.2097     6389.00000
    47.2228     6282.00000
    47.2359     6228.00000
    47.2491     6578.00000
    47.2622     6490.00000
    47.2753     6428.00000
    47.2885     6437.00000
    47.3016     6604.00000
    47.3147     6488.00000
    47.3279     6735.00000
    47.3410     6599.00000
    47.3541     6326.00000
    47.3673     6594.00000
    47.3804     6599.00000
    47.3935     6663.00000
    47.4066     6833.00000
    47.4198     6881.00000
    47.4329     6945.00000
    47.4460     6972.00000
    47.4592     7369.00000
    47.4723     7505.00000
    47.4854     8099.00000
    47.4986     8614.00000
    47.5117     8896.00000
    47.5248     9340.00000
    47.5379     9739.00000
    47.5511     9813.00000
    47.5642    10501.00000
    47.5773    11045.00000
    47.5905    12145.00000
    47.6036    13541.00000
    47.6167    13997.00000
    47.6299    13185.00000
    47.6430    11740.00000
    47.6561    10413.00000
    47.6692     9695.00000
    47.6824     9028.00000
    47.6955     9169.00000
    47.7086     9378.00000
    47.7218     9762.00000
    47.7349    10032.00000
    47.7480     9725.00000
    47.7612     9308.00000
    47.7743     8549.00000
    47.7874     8023.00000
    47.8005     7608.00000
    47.8137     7370.00000
    47.8268     7124.00000
    47.8399     7215.00000
    47.8531     6864.00000
    47.8662     6797.00000
    47.8793     6686.00000
    47.8925     6833.00000
    47.9056     7064.00000
    47.9187     6869.00000
    47.9319     7012.00000
    47.9450     6799.00000
    47.9581     6999.00000
    47.9712     7052.00000
    47.9844     6943.00000
    47.9975     6988.00000
    48.0106     7041.00000
    48.0238     7138.00000
    48.0369     6933.00000
    48.0500     6933.00000
    48.0632     7056.00000
    48.0763     7276.00000
    48.0894     7221.00000
    48.1025     7343.00000
    48.1157     7582.00000
    48.1288     7991.00000
    48.1419     8221.00000
    48.1551     8881.00000
    48.1682     9731.00000
    48.1813    10848.00000
    48.1945    12552.00000
    48.2076    14211.00000
    48.2207    16674.00000
    48.2338    17876.00000
    48.2470    18585.00000
    48.2601    17814.00000
    48.2732    16659.00000
    48.2864    14812.00000
    48.2995    13515.00000
    48.3126    12457.00000
    48.3258    12180.00000
    48.3389    12561.00000
    48.3520    12730.00000
    48.3652    13070.00000
    48.3783    13068.00000
    48.3914    12537.00000
    48.4045    11710.00000
    48.4177    10298.00000
    48.4308     9334.00000
    48.4439     8871.00000
    48.4571     8072.00000
    48.4702     7520.00000
    48.4833     7370.00000
    48.4965     7262.00000
    48.5096     7047.00000
    48.5227     7078.00000
    48.5358     6907.00000
    48.5490     6822.00000
    48.5621     6712.00000
    48.5752     6760.00000
    48.5884     6865.00000
    48.6015     6555.00000
    48.6146     6530.00000
    48.6278     6888.00000
    48.6409     6673.00000
    48.6540     6776.00000
    48.6671     6734.00000
    48.6803     6869.00000
    48.6934     7061.00000
    48.7065     7201.00000
    48.7197     7374.00000
    48.7328     7723.00000
    48.7459     7827.00000
    48.7591     8068.00000
    48.7722     8070.00000
    48.7853     7825.00000
    48.7985     7730.00000
    48.8116     7696.00000
    48.8247     7751.00000
    48.8378     7775.00000
    48.8510     7781.00000
    48.8641     7924.00000
    48.8772     7905.00000
    48.8904     7558.00000
    48.9035     7513.00000
    48.9166     7495.00000
    48.9298     7387.00000
    48.9429     7512.00000
    48.9560     7226.00000
    48.9691     7070.00000
    48.9823     7070.00000
    48.9954     7115.00000
    49.0085     7045.00000
    49.0217     6900.00000
    49.0348     7065.00000
    49.0479     7009.00000
    49.0611     7058.00000
    49.0742     7038.00000
    49.0873     6834.00000
    49.1004     6978.00000
    49.1136     7010.00000
    49.1267     7201.00000
    49.1398     7198.00000
    49.1530     7107.00000
    49.1661     7388.00000
    49.1792     7617.00000
    49.1924     7844.00000
    49.2055     7892.00000
    49.2186     8371.00000
    49.2318     9259.00000
    49.2449    10374.00000
    49.2580    11847.00000
    49.2711    13514.00000
    49.2843    15284.00000
    49.2974    15920.00000
    49.3105    15488.00000
    49.3237    14662.00000
    49.3368    13330.00000
    49.3499    12189.00000
    49.3631    11461.00000
    49.3762    11499.00000
    49.3893    12071.00000
    49.4024    13219.00000
    49.4156    14667.00000
    49.4287    15283.00000
    49.4418    14569.00000
    49.4550    13172.00000
    49.4681    11776.00000
    49.4812    10188.00000
    49.4944     9267.00000
    49.5075     8654.00000
    49.5206     8464.00000
    49.5337     8541.00000
    49.5469     8775.00000
    49.5600     8735.00000
    49.5731     8627.00000
    49.5863     8280.00000
    49.5994     7849.00000
    49.6125     7280.00000
    49.6257     7035.00000
    49.6388     6996.00000
    49.6519     6855.00000
    49.6651     6811.00000
    49.6782     6841.00000
    49.6913     6864.00000
    49.7044     6853.00000
    49.7176     6945.00000
    49.7307     6934.00000
    49.7438     6918.00000
    49.7570     6889.00000
    49.7701     6845.00000
    49.7832     6941.00000
    49.7964     6844.00000
    49.8095     6820.00000
    49.8226     7162.00000
    49.8357     7066.00000
    49.8489     7228.00000
    49.8620     7505.00000
    49.8751     7582.00000
    49.8883     7842.00000
    49.9014     8378.00000
    49.9145     9317.00000
    49.9277    10530.00000
    49.9408    12087.00000
    49.9539    14100.00000
    49.9670    16784.00000
    49.9802    18876.00000
    49.9933    19409.00000
    50.0064    18350.00000
    50.0196    16411.00000
    50.0327    14118.00000
    50.0458    12432.00000
    50.0590    11155.00000
    50.0721    10977.00000
    50.0852    11651.00000
    50.0984    12401.00000
    50.1115    13231.00000
    50.1246    13325.00000
    50.1377    13110.00000
    50.1509    11818.00000
    50.1640    10345.00000
    50.1771     9493.00000
    50.1903     8411.00000
    50.2034     7918.00000
    50.2165     7695.00000
    50.2297     7307.00000
    50.2428     7031.00000
    50.2559     7059.00000
    50.2690     7073.00000
    50.2822     6801.00000
    50.2953     6897.00000
    50.3084     6692.00000
    50.3216     6498.00000
    50.3347     6711.00000
    50.3478     6780.00000
    50.3610     6614.00000
    50.3741     6664.00000
    50.3872     6593.00000
    50.4003     6693.00000
    50.4135     6544.00000
    50.4266     6743.00000
    50.4397     6608.00000
    50.4529     6712.00000
    50.4660     6750.00000
    50.4791     6802.00000
    50.4923     6846.00000
    50.5054     6920.00000
    50.5185     6990.00000
    50.5317     7112.00000
    50.5448     7272.00000
    50.5579     7346.00000
    50.5710     7660.00000
    50.5842     7703.00000
    50.5973     7673.00000
    50.6104     7762.00000
    50.6236     8073.00000
    50.6367     8375.00000
    50.6498     8437.00000
    50.6630     8724.00000
    50.6761     8506.00000
    50.6892     8379.00000
    50.7023     8001.00000
    50.7155     8227.00000
    50.7286     7881.00000
    50.7417     8065.00000
    50.7549     8191.00000
    50.7680     8761.00000
    50.7811     9189.00000
    50.7943     9622.00000
    50.8074     9877.00000
    50.8205     9938.00000
    50.8336     9629.00000
    50.8468     9118.00000
    50.8599     8737.00000
    50.8730     8465.00000
    50.8862     7930.00000
    50.8993     7737.00000
    50.9124     7713.00000
    50.9256     7919.00000
    50.9387     7824.00000
    50.9518     7959.00000
    50.9649     7749.00000
    50.9781     7571.00000
    50.9912     7476.00000
    51.0043     7295.00000
    51.0175     6912.00000
    51.0306     6773.00000
    51.0437     6852.00000
    51.0569     6734.00000
    51.0700     6767.00000
    51.0831     6369.00000
    51.0963     6568.00000
    51.1094     6403.00000
    51.1225     6629.00000
    51.1356     6597.00000
    51.1488     6432.00000
    51.1619     6588.00000
    51.1750     6559.00000
    51.1882     6550.00000
    51.2013     6526.00000
    51.2144     6449.00000
    51.2276     6630.00000
    51.2407     6551.00000
    51.2538     6641.00000
    51.2669     6409.00000
    51.2801     6485.00000
    51.2932     6464.00000
    51.3063     6568.00000
    51.3195     6460.00000
    51.3326     6474.00000
    51.3457     6534.00000
    51.3589     6429.00000
    51.3720     6445.00000
    51.3851     6471.00000
    51.3982     6356.00000
    51.4114     6445.00000
    51.4245     6344.00000
    51.4376     6456.00000
    51.4508     6449.00000
    51.4639     6594.00000
    51.4770     6524.00000
    51.4902     6636.00000
    51.5033     6493.00000
    51.5164     6461.00000
    51.5296     6612.00000
    51.5427     6573.00000
    51.5558     6471.00000
    51.5689     6664.00000
    51.5821     6603.00000
    51.5952     6692.00000
    51.6083     6688.00000
    51.6215     6789.00000
    51.6346     6890.00000
    51.6477     7030.00000
    51.6609     7055.00000
    51.6740     7738.00000
    51.6871     8294.00000
    51.7002     9159.00000
    51.7134    10734.00000
    51.7265    12548.00000
    51.7396    14538.00000
    51.7528    15329.00000
    51.7659    14314.00000
    51.7790    13199.00000
    51.7922    11952.00000
    51.8053    10917.00000
    51.8184    10091.00000
    51.8315     9559.00000
    51.8447     9614.00000
    51.8578    10017.00000
    51.8709    10633.00000
    51.8841    11366.00000
    51.8972    11611.00000
    51.9103    11291.00000
    51.9235    10743.00000
    51.9366    10013.00000
    51.9497     9309.00000
    51.9628     8874.00000
    51.9760     8363.00000
    51.9891     7887.00000
    52.0022     7280.00000
    52.0154     7201.00000
    52.0285     7026.00000
    52.0416     7126.00000
    52.0548     6869.00000
    52.0679     6988.00000
    52.0810     7144.00000
    52.0942     6940.00000
    52.1073     6890.00000
    52.1204     6856.00000
    52.1335     6700.00000
    52.1467     6595.00000
    52.1598     6498.00000
    52.1729     6444.00000
    52.1861     6391.00000
    52.1992     6428.00000
    52.2123     6637.00000
    52.2255     6421.00000
    52.2386     6512.00000
    52.2517     6400.00000
    52.2648     6470.00000
    52.2780     6372.00000
    52.2911     6515.00000
    52.3042     6396.00000
    52.3174     6487.00000
    52.3305     6447.00000
    52.3436     6479.00000
    52.3568     6305.00000
    52.3699     6525.00000
    52.3830     6496.00000
    52.3961     6589.00000
    52.4093     6479.00000
    52.4224     6567.00000
    52.4355     6455.00000
    52.4487     6248.00000
    52.4618     6298.00000
    52.4749     6562.00000
    52.4881     6402.00000
    52.5012     6352.00000
    52.5143     6301.00000
    52.5275     6471.00000
    52.5406     6351.00000
    52.5537     6184.00000
    52.5668     6444.00000
    52.5800     6315.00000
    52.5931     6374.00000
    52.6062     6502.00000
    52.6194     6506.00000
    52.6325     6664.00000
    52.6456     7024.00000
    52.6588     7269.00000
    52.6719     7799.00000
    52.6850     8138.00000
    52.6981     8188.00000
    52.7113     7750.00000
    52.7244     7360.00000
    52.7375     7186.00000
    52.7507     6999.00000
    52.7638     6725.00000
    52.7769     6798.00000
    52.7901     6840.00000
    52.8032     7034.00000
    52.8163     7206.00000
    52.8294     7253.00000
    52.8426     7018.00000
    52.8557     7151.00000
    52.8688     6936.00000
    52.8820     6777.00000
    52.8951     6689.00000
    52.9082     6643.00000
    52.9214     6568.00000
    52.9345     6538.00000
    52.9476     6424.00000
    52.9608     6458.00000
    52.9739     6573.00000
    52.9870     6376.00000
    53.0001     6348.00000
    53.0133     6396.00000
    53.0264     6253.00000
    53.0395     6394.00000
    53.0527     6552.00000
    53.0658     6341.00000
    53.0789     6397.00000
    53.0921     6541.00000
    53.1052     6536.00000
    53.1183     6565.00000
    53.1314     6255.00000
    53.1446     6318.00000
    53.1577     6324.00000
    53.1708     6371.00000
    53.1840     6293.00000
    53.1971     6174.00000
    53.2102     6351.00000
    53.2234     6359.00000
    53.2365     6269.00000
    53.2496     6242.00000
    53.2627     6207.00000
    53.2759     6328.00000
    53.2890     6354.00000
    53.3021     6366.00000
    53.3153     6435.00000
    53.3284     6408.00000
    53.3415     6515.00000
    53.3547     6620.00000
    53.3678     6557.00000
    53.3809     6415.00000
    53.3941     6507.00000
    53.4072     6378.00000
    53.4203     6404.00000
    53.4334     6387.00000
    53.4466     6437.00000
    53.4597     6282.00000
    53.4728     6454.00000
    53.4860     6404.00000
    53.4991     6290.00000
    53.5122     6365.00000
    53.5254     6415.00000
    53.5385     6454.00000
    53.5516     6222.00000
    53.5647     6286.00000
    53.5779     6367.00000
    53.5910     6224.00000
    53.6041     6295.00000
    53.6173     6224.00000
    53.6304     6204.00000
    53.6435     6046.00000
    53.6567     6203.00000
    53.6698     6216.00000
    53.6829     6322.00000
    53.6960     6323.00000
    53.7092     6345.00000
    53.7223     6275.00000
    53.7354     6274.00000
    53.7486     6307.00000
    53.7617     6214.00000
    53.7748     6328.00000
    53.7880     6406.00000
    53.8011     6353.00000
    53.8142     6284.00000
    53.8274     6421.00000
    53.8405     6261.00000
    53.8536     6271.00000
    53.8667     6182.00000
    53.8799     6253.00000
    53.8930     6508.00000
    53.9061     6412.00000
    53.9193     6404.00000
    53.9324     6306.00000
    53.9455     6348.00000
    53.9587     6483.00000
    53.9718     6318.00000
    53.9849     6308.00000
    53.9980     6287.00000
    54.0112     6352.00000
    54.0243     6104.00000
    54.0374     6214.00000
    54.0506     6218.00000
    54.0637     6192.00000
    54.0768     6355.00000
    54.0900     6452.00000
    54.1031     6296.00000
    54.1162     6357.00000
    54.1293     6248.00000
    54.1425     6314.00000
    54.1556     6295.00000
    54.1687     6181.00000
    54.1819     6277.00000
    54.1950     6169.00000
    54.2081     6268.00000
    54.2213     6128.00000
    54.2344     6193.00000
    54.2475     6282.00000
    54.2607     6041.00000
    54.2738     6107.00000
    54.2869     6249.00000
    54.3000     6233.00000
    54.3132     6230.00000
    54.3263     6205.00000
    54.3394     6293.00000
    54.3526     6320.00000
    54.3657     6309.00000
    54.3788     6310.00000
    54.3920     6321.00000
    54.4051     6153.00000
    54.4182     6275.00000
    54.4313     6144.00000
    54.4445     6172.00000
    54.4576     6410.00000
    54.4707     6215.00000
    54.4839     6225.00000
    54.4970     6273.00000
    54.5101     6345.00000
    54.5233     6185.00000
    54.5364     6327.00000
    54.5495     6301.00000
    54.5626     6208.00000
    54.5758     6314.00000
    54.5889     6245.00000
    54.6020     6256.00000
    54.6152     6237.00000
    54.6283     6347.00000
    54.6414     6361.00000
    54.6546     6358.00000
    54.6677     6363.00000
    54.6808     6282.00000
    54.6940     6265.00000
    54.7071     6358.00000
    54.7202     6119.00000
    54.7333     6318.00000
    54.7465     6270.00000
    54.7596     6293.00000
    54.7727     6278.00000
    54.7859     6231.00000
    54.7990     6229.00000
    54.8121     6308.00000
    54.8253     6401.00000
    54.8384     6296.00000
    54.8515     6110.00000
    54.8646     6363.00000
    54.8778     6465.00000
    54.8909     6304.00000
    54.9040     6082.00000
    54.9172     6392.00000
    54.9303     6282.00000
    54.9434     6455.00000
    54.9566     6301.00000
    54.9697     6109.00000
    54.9828     6432.00000
    54.9959     6406.00000
    55.0091     6322.00000
    55.0222     6345.00000
    55.0353     6378.00000
    55.0485     6273.00000
    55.0616     6277.00000
    55.0747     6220.00000
    55.0879     6237.00000
    55.1010     6366.00000
    55.1141     6388.00000
    55.1272     6296.00000
    55.1404     6213.00000
    55.1535     6264.00000
    55.1666     6265.00000
    55.1798     6477.00000
    55.1929     6262.00000
    55.2060     6096.00000
    55.2192     6211.00000
    55.2323     6274.00000
    55.2454     6376.00000
    55.2586     6389.00000
    55.2717     6362.00000
    55.2848     6180.00000
    55.2979     6397.00000
    55.3111     6247.00000
    55.3242     6235.00000
    55.3373     6410.00000
    55.3505     6375.00000
    55.3636     6226.00000
    55.3767     6349.00000
    55.3899     6332.00000
    55.4030     6394.00000
    55.4161     6353.00000
    55.4292     6405.00000
    55.4424     6550.00000
    55.4555     6574.00000
    55.4686     6787.00000
    55.4818     7042.00000
    55.4949     7256.00000
    55.5080     7870.00000
    55.5212     8216.00000
    55.5343     8462.00000
    55.5474     8372.00000
    55.5605     8034.00000
    55.5737     7624.00000
    55.5868     7240.00000
    55.5999     7034.00000
    55.6131     6901.00000
    55.6262     7006.00000
    55.6393     7264.00000
    55.6525     7364.00000
    55.6656     7683.00000
    55.6787     7803.00000
    55.6918     7795.00000
    55.7050     7706.00000
    55.7181     7834.00000
    55.7312     7518.00000
    55.7444     7456.00000
    55.7575     7616.00000
    55.7706     7783.00000
    55.7838     8145.00000
    55.7969     8204.00000
    55.8100     8752.00000
    55.8232     9274.00000
    55.8363     9926.00000
    55.8494    10746.00000
    55.8625    11764.00000
    55.8757    12354.00000
    55.8888    12660.00000
    55.9019    12556.00000
    55.9151    11670.00000
    55.9282    10700.00000
    55.9413     9792.00000
    55.9545     9320.00000
    55.9676     8866.00000
    55.9807     8792.00000
    55.9938     8741.00000
    56.0070     9281.00000
    56.0201     9568.00000
    56.0332     9713.00000
    56.0464     9558.00000
    56.0595     9200.00000
    56.0726     8779.00000
    56.0858     8046.00000
    56.0989     8020.00000
    56.1120     7757.00000
    56.1251     7415.00000
    56.1383     7305.00000
    56.1514     7290.00000
    56.1645     7247.00000
    56.1777     7238.00000
    56.1908     7208.00000
    56.2039     7027.00000
    56.2171     6901.00000
    56.2302     6873.00000
    56.2433     6774.00000
    56.2565     6782.00000
    56.2696     6739.00000
    56.2827     6820.00000
    56.2958     6676.00000
    56.3090     6835.00000
    56.3221     6895.00000
    56.3352     6893.00000
    56.3484     6876.00000
    56.3615     6932.00000
    56.3746     7005.00000
    56.3878     7348.00000
    56.4009     7763.00000
    56.4140     8261.00000
    56.4271     8750.00000
    56.4403     9316.00000
    56.4534     9684.00000
    56.4665     9348.00000
    56.4797     8769.00000
    56.4928     8142.00000
    56.5059     7874.00000
    56.5191     7557.00000
    56.5322     7404.00000
    56.5453     7419.00000
    56.5584     7511.00000
    56.5716     7832.00000
    56.5847     8180.00000
    56.5978     8464.00000
    56.6110     8286.00000
    56.6241     8451.00000
    56.6372     8130.00000
    56.6504     7512.00000
    56.6635     7505.00000
    56.6766     7554.00000
    56.6898     7545.00000
    56.7029     7774.00000
    56.7160     8242.00000
    56.7291     8719.00000
    56.7423     9848.00000
    56.7554    10329.00000
    56.7685    10640.00000
    56.7817    10692.00000
    56.7948    10189.00000
    56.8079     9525.00000
    56.8211     8774.00000
    56.8342     8018.00000
    56.8473     7887.00000
    56.8604     7568.00000
    56.8736     7687.00000
    56.8867     7845.00000
    56.8998     8237.00000
    56.9130     8554.00000
    56.9261     8629.00000
    56.9392     8789.00000
    56.9524     8062.00000
    56.9655     7779.00000
    56.9786     7709.00000
    56.9917     7434.00000
    57.0049     7228.00000
    57.0180     7251.00000
    57.0311     7036.00000
    57.0443     7077.00000
    57.0574     7025.00000
    57.0705     6953.00000
    57.0837     6880.00000
    57.0968     6860.00000
    57.1099     6816.00000
    57.1231     6652.00000
    57.1362     6705.00000
    57.1493     6485.00000
    57.1624     6782.00000
    57.1756     6679.00000
    57.1887     6499.00000
    57.2018     6911.00000
    57.2150     6740.00000
    57.2281     6728.00000
    57.2412     6779.00000
    57.2544     6520.00000
    57.2675     6577.00000
    57.2806     6602.00000
    57.2937     6302.00000
    57.3069     6264.00000
    57.3200     6439.00000
    57.3331     6600.00000
    57.3463     6473.00000
    57.3594     6550.00000
    57.3725     6562.00000
    57.3857     6521.00000
    57.3988     6344.00000
    57.4119     6430.00000
    57.4250     6384.00000
    57.4382     6441.00000
    57.4513     6408.00000
    57.4644     6258.00000
    57.4776     6382.00000
    57.4907     6275.00000
    57.5038     6396.00000
    57.5170     6367.00000
    57.5301     6302.00000
    57.5432     6414.00000
    57.5564     6460.00000
    57.5695     6576.00000
    57.5826     6305.00000
    57.5957     6507.00000
    57.6089     6397.00000
    57.6220     6475.00000
    57.6351     6519.00000
    57.6483     6248.00000
    57.6614     6489.00000
    57.6745     6428.00000
    57.6877     6352.00000
    57.7008     6536.00000
    57.7139     6560.00000
    57.7270     6601.00000
    57.7402     6850.00000
    57.7533     6645.00000
    57.7664     6567.00000
    57.7796     6802.00000
    57.7927     7220.00000
    57.8058     7123.00000
    57.8190     7484.00000
    57.8321     7664.00000
    57.8452     8202.00000
    57.8583     8802.00000
    57.8715     9235.00000
    57.8846     9688.00000
    57.8977    10165.00000
    57.9109    10176.00000
    57.9240    10163.00000
    57.9371    10073.00000
    57.9503     9910.00000
    57.9634     9906.00000
    57.9765    10372.00000
    57.9897    10584.00000
    58.0028    10615.00000
    58.0159    10627.00000
    58.0290    10634.00000
    58.0422    10063.00000
    58.0553     9605.00000
    58.0684     9459.00000
    58.0816     8972.00000
    58.0947     8718.00000
    58.1078     8482.00000
    58.1210     8474.00000
    58.1341     8341.00000
    58.1472     8362.00000
    58.1603     8316.00000
    58.1735     8069.00000
    58.1866     7661.00000
    58.1997     7454.00000
    58.2129     7264.00000
    58.2260     7084.00000
    58.2391     6918.00000
    58.2523     6751.00000
    58.2654     6598.00000
    58.2785     6620.00000
    58.2916     6330.00000
    58.3048     6451.00000
    58.3179     6544.00000
    58.3310     6377.00000
    58.3442     6466.00000
    58.3573     6432.00000
    58.3704     6335.00000
    58.3836     6410.00000
    58.3967     6388.00000
    58.4098     6239.00000
    58.4230     6311.00000
    58.4361     6355.00000
    58.4492     6437.00000
    58.4623     6320.00000
    58.4755     6354.00000
    58.4886     6238.00000
    58.5017     6186.00000
    58.5149     6221.00000
    58.5280     6217.00000
    58.5411     6413.00000
    58.5543     6528.00000
    58.5674     6353.00000
    58.5805     6545.00000
    58.5936     6576.00000
    58.6068     6625.00000
    58.6199     6718.00000
    58.6330     6713.00000
    58.6462     6635.00000
    58.6593     6940.00000
    58.6724     7255.00000
    58.6856     7532.00000
    58.6987     7524.00000
    58.7118     8022.00000
    58.7249     7896.00000
    58.7381     7699.00000
    58.7512     7609.00000
    58.7643     7537.00000
    58.7775     7440.00000
    58.7906     7465.00000
    58.8037     7370.00000
    58.8169     7278.00000
    58.8300     7527.00000
    58.8431     7723.00000
    58.8562     8286.00000
    58.8694     8554.00000
    58.8825     9045.00000
    58.8956     9114.00000
    58.9088     9478.00000
    58.9219     9365.00000
    58.9350     9136.00000
    58.9482     8628.00000
    58.9613     8558.00000
    58.9744     8600.00000
    58.9876     8603.00000
    59.0007     8983.00000
    59.0138     9391.00000
    59.0269    10238.00000
    59.0401    10996.00000
    59.0532    11390.00000
    59.0663    11496.00000
    59.0795    11419.00000
    59.0926    11469.00000
    59.1057    11097.00000
    59.1189    10836.00000
    59.1320    10426.00000
    59.1451    10262.00000
    59.1582     9631.00000
    59.1714     9377.00000
    59.1845     9299.00000
    59.1976     8983.00000
    59.2108     9114.00000
    59.2239     8879.00000
    59.2370     8884.00000
    59.2502     8996.00000
    59.2633     8965.00000
    59.2764     9100.00000
    59.2895     9232.00000
    59.3027     9263.00000
    59.3158     9394.00000
    59.3289     9756.00000
    59.3421    10155.00000
    59.3552    10113.00000
    59.3683    10013.00000
    59.3815     9686.00000
    59.3946     9375.00000
    59.4077     8425.00000
    59.4208     8060.00000
    59.4340     7642.00000
    59.4471     7540.00000
    59.4602     7525.00000
    59.4734     7549.00000
    59.4865     7891.00000
    59.4996     7843.00000
    59.5128     8139.00000
    59.5259     7989.00000
    59.5390     8045.00000
    59.5522     7774.00000
    59.5653     7455.00000
    59.5784     6985.00000
    59.5915     6655.00000
    59.6047     6847.00000
    59.6178     6531.00000
    59.6309     6580.00000
    59.6441     6440.00000
    59.6572     6595.00000
    59.6703     6244.00000
    59.6835     6297.00000
    59.6966     6224.00000
    59.7097     6380.00000
    59.7228     6207.00000
    59.7360     6548.00000
    59.7491     6283.00000
    59.7622     6481.00000
    59.7754     6431.00000
    59.7885     6629.00000
    59.8016     6353.00000
    59.8148     6405.00000
    59.8279     6564.00000
    59.8410     6551.00000
    59.8541     6471.00000
    59.8673     6532.00000
    59.8804     6554.00000
    59.8935     6588.00000
    59.9067     6416.00000
    59.9198     6595.00000
    59.9329     6794.00000
    59.9461     6848.00000
    59.9592     7174.00000
    59.9723     7090.00000
    59.9855     7404.00000
    59.9986     7858.00000
    60.0117     8515.00000
    60.0248     9332.00000
    60.0380    10217.00000
    60.0511    11582.00000
    60.0642    12194.00000
    60.0774    12290.00000
    60.0905    11908.00000
    60.1036    10958.00000
    60.1168     9798.00000
    60.1299     9030.00000
    60.1430     8435.00000
    60.1561     7976.00000
    60.1693     7994.00000
    60.1824     8216.00000
    60.1955     8494.00000
    60.2087     8876.00000
    60.2218     9162.00000
    60.2349     9312.00000
    60.2481     9313.00000
    60.2612     8859.00000
    60.2743     8110.00000
    60.2874     7774.00000
    60.3006     7384.00000
    60.3137     6922.00000
    60.3268     6750.00000
    60.3400     6506.00000
    60.3531     6494.00000
    60.3662     6424.00000
    60.3794     6541.00000
    60.3925     6499.00000
    60.4056     6404.00000
    60.4188     6432.00000
    60.4319     6552.00000
    60.4450     6204.00000
    60.4581     6416.00000
    60.4713     6246.00000
    60.4844     6461.00000
    60.4975     6361.00000
    60.5107     6357.00000
    60.5238     6349.00000
    60.5369     6287.00000
    60.5501     6579.00000
    60.5632     6490.00000
    60.5763     6318.00000
    60.5894     6522.00000
    60.6026     6562.00000
    60.6157     6794.00000
    60.6288     7083.00000
    60.6420     7221.00000
    60.6551     7662.00000
    60.6682     8006.00000
    60.6814     8606.00000
    60.6945     8936.00000
    60.7076     9157.00000
    60.7207     8584.00000
    60.7339     8389.00000
    60.7470     7721.00000
    60.7601     7411.00000
    60.7733     7159.00000
    60.7864     7388.00000
    60.7995     7254.00000
    60.8127     7537.00000
    60.8258     7698.00000
    60.8389     7870.00000
    60.8521     8083.00000
    60.8652     7936.00000
    60.8783     7884.00000
    60.8914     7558.00000
    60.9046     7303.00000
    60.9177     6985.00000
    60.9308     6880.00000
    60.9440     6753.00000
    60.9571     6731.00000
    60.9702     6690.00000
    60.9834     6765.00000
    60.9965     6703.00000
    61.0096     6547.00000
    61.0227     6545.00000
    61.0359     6404.00000
    61.0490     6522.00000
    61.0621     6426.00000
    61.0753     6574.00000
    61.0884     6536.00000
    61.1015     6597.00000
    61.1147     6644.00000
    61.1278     6652.00000
    61.1409     6460.00000
    61.1540     6622.00000
    61.1672     6736.00000
    61.1803     6562.00000
    61.1934     6747.00000
    61.2066     6779.00000
    61.2197     6810.00000
    61.2328     6791.00000
    61.2460     7211.00000
    61.2591     7356.00000
    61.2722     7615.00000
    61.2854     7849.00000
    61.2985     8363.00000
    61.3116     9257.00000
    61.3247    10216.00000
    61.3379    11625.00000
    61.3510    12966.00000
    61.3641    13941.00000
    61.3773    14194.00000
    61.3904    14100.00000
    61.4035    13528.00000
    61.4167    12621.00000
    61.4298    11654.00000
    61.4429    10716.00000
    61.4560     9844.00000
    61.4692     9255.00000
    61.4823     9213.00000
    61.4954     9406.00000
    61.5086     9835.00000
    61.5217    10062.00000
    61.5348    10432.00000
    61.5480    10633.00000
    61.5611    10421.00000
    61.5742    10101.00000
    61.5873     9486.00000
    61.6005     9003.00000
    61.6136     8547.00000
    61.6267     8145.00000
    61.6399     7804.00000
    61.6530     7747.00000
    61.6661     7886.00000
    61.6793     8125.00000
    61.6924     7997.00000
    61.7055     7931.00000
    61.7187     7463.00000
    61.7318     7297.00000
    61.7449     7209.00000
    61.7580     6880.00000
    61.7712     6753.00000
    61.7843     6473.00000
    61.7974     6718.00000
    61.8106     6757.00000
    61.8237     6662.00000
    61.8368     6764.00000
    61.8500     6904.00000
    61.8631     6895.00000
    61.8762     6862.00000
    61.8893     6714.00000
    61.9025     6560.00000
    61.9156     6525.00000
    61.9287     6424.00000
    61.9419     6199.00000
    61.9550     6235.00000
    61.9681     6090.00000
    61.9813     6135.00000
    61.9944     6165.00000
    62.0075     6273.00000
    62.0206     6161.00000
    62.0338     6137.00000
    62.0469     6265.00000
    62.0600     6373.00000
    62.0732     6211.00000
    62.0863     6077.00000
    62.0994     6136.00000
    62.1126     5958.00000
    62.1257     6102.00000
    62.1388     6096.00000
    62.1520     6198.00000
    62.1651     6088.00000
    62.1782     6045.00000
    62.1913     5974.00000
    62.2045     6147.00000
    62.2176     6112.00000
    62.2307     6130.00000
    62.2439     6127.00000
    62.2570     6008.00000
    62.2701     6162.00000
    62.2833     6137.00000
    62.2964     6053.00000
    62.3095     5962.00000
    62.3226     6016.00000
    62.3358     6091.00000
    62.3489     6178.00000
    62.3620     6130.00000
    62.3752     6060.00000
    62.3883     6125.00000
    62.4014     6156.00000
    62.4146     6180.00000
    62.4277     6098.00000
    62.4408     6167.00000
    62.4539     6235.00000
    62.4671     6314.00000
    62.4802     6134.00000
    62.4933     5918.00000
    62.5065     6133.00000
    62.5196     6089.00000
    62.5327     6205.00000
    62.5459     6236.00000
    62.5590     6206.00000
    62.5721     6085.00000
    62.5852     6085.00000
    62.5984     5999.00000
    62.6115     5866.00000
    62.6246     5875.00000
    62.6378     6085.00000
    62.6509     6086.00000
    62.6640     6096.00000
    62.6772     6252.00000
    62.6903     6113.00000
    62.7034     6131.00000
    62.7166     5966.00000
    62.7297     5947.00000
    62.7428     6138.00000
    62.7559     5927.00000
    62.7691     6261.00000
    62.7822     6001.00000
    62.7953     6104.00000
    62.8085     6229.00000
    62.8216     6166.00000
    62.8347     6106.00000
    62.8479     6122.00000
    62.8610     6187.00000
    62.8741     6090.00000
    62.8872     5880.00000
    62.9004     5975.00000
    62.9135     6090.00000
    62.9266     6108.00000
    62.9398     6260.00000
    62.9529     6192.00000
    62.9660     6149.00000
    62.9792     6184.00000
    62.9923     6465.00000
    63.0054     6301.00000
    63.0185     5996.00000
    63.0317     6059.00000
    63.0448     6154.00000
    63.0579     6017.00000
    63.0711     6182.00000
    63.0842     6140.00000
    63.0973     6106.00000
    63.1105     6195.00000
    63.1236     6215.00000
    63.1367     6164.00000
    63.1499     6053.00000
    63.1630     6182.00000
    63.1761     6181.00000
    63.1892     6121.00000
    63.2024     6255.00000
    63.2155     6160.00000
    63.2286     6334.00000
    63.2418     6285.00000
    63.2549     6204.00000
    63.2680     6304.00000
    63.2812     6289.00000
    63.2943     6171.00000
    63.3074     6355.00000
    63.3205     6354.00000
    63.3337     6449.00000
    63.3468     6344.00000
    63.3599     6719.00000
    63.3731     6739.00000
    63.3862     6972.00000
    63.3993     7429.00000
    63.4125     7335.00000
    63.4256     7411.00000
    63.4387     7709.00000
    63.4518     7414.00000
    63.4650     7399.00000
    63.4781     7382.00000
    63.4912     7306.00000
    63.5044     7294.00000
    63.5175     7488.00000
    63.5306     7427.00000
    63.5438     8335.00000
    63.5569     8397.00000
    63.5700     8374.00000
    63.5831     8181.00000
    63.5963     8077.00000
    63.6094     7869.00000
    63.6225     7458.00000
    63.6357     7409.00000
    63.6488     6936.00000
    63.6619     6966.00000
    63.6751     7097.00000
    63.6882     7042.00000
    63.7013     6821.00000
    63.7145     7005.00000
    63.7276     7091.00000
    63.7407     7337.00000
    63.7538     7083.00000
    63.7670     7047.00000
    63.7801     6891.00000
    63.7932     6746.00000
    63.8064     6763.00000
    63.8195     6556.00000
    63.8326     6535.00000
    63.8458     6319.00000
    63.8589     6268.00000
    63.8720     6365.00000
    63.8851     6232.00000
    63.8983     6079.00000
    63.9114     6148.00000
    63.9245     6292.00000
    63.9377     6280.00000
    63.9508     6102.00000
    63.9639     6119.00000
    63.9771     6171.00000
    63.9902     6080.00000
    64.0033     6095.00000
    64.0164     6191.00000
    64.0296     6099.00000
    64.0427     6182.00000
    64.0558     6139.00000
    64.0690     6105.00000
    64.0821     6113.00000
    64.0952     6013.00000
    64.1084     6126.00000
    64.1215     6146.00000
    64.1346     6090.00000
    64.1478     6043.00000
    64.1609     6054.00000
    64.1740     6239.00000
    64.1871     5958.00000
    64.2003     6096.00000
    64.2134     6020.00000
    64.2265     6114.00000
    64.2397     5963.00000
    64.2528     5908.00000
    64.2659     6017.00000
    64.2791     5926.00000
    64.2922     6029.00000
    64.3053     6170.00000
    64.3184     6210.00000
    64.3316     6073.00000
    64.3447     6049.00000
    64.3578     6012.00000
    64.3710     6234.00000
    64.3841     6298.00000
    64.3972     6363.00000
    64.4104     6498.00000
    64.4235     6371.00000
    64.4366     6564.00000
    64.4498     6718.00000
    64.4629     6893.00000
    64.4760     7012.00000
    64.4891     7058.00000
    64.5023     7165.00000
    64.5154     7096.00000
    64.5285     7138.00000
    64.5417     7082.00000
    64.5548     6815.00000
    64.5679     6626.00000
    64.5811     6471.00000
    64.5942     6647.00000
    64.6073     6533.00000
    64.6204     6462.00000
    64.6336     6478.00000
    64.6467     6583.00000
    64.6598     6790.00000
    64.6730     6671.00000
    64.6861     6944.00000
    64.6992     6744.00000
    64.7124     6642.00000
    64.7255     6791.00000
    64.7386     6533.00000
    64.7517     6413.00000
    64.7649     6229.00000
    64.7780     6221.00000
    64.7911     6065.00000
    64.8043     6116.00000
    64.8174     6219.00000
    64.8305     6181.00000
    64.8437     6101.00000
    64.8568     6131.00000
    64.8699     6189.00000
    64.8830     6148.00000
    64.8962     6257.00000
    64.9093     6172.00000
    64.9224     6069.00000
    64.9356     6228.00000
    64.9487     6291.00000
    64.9618     6044.00000
    64.9750     6102.00000
    64.9881     5979.00000
    65.0012     6114.00000
    65.0144     6040.00000
    65.0275     6026.00000
    65.0406     5967.00000
    65.0537     5931.00000
    65.0669     6026.00000
    65.0800     5895.00000
    65.0931     6118.00000
    65.1063     6187.00000
    65.1194     6015.00000
    65.1325     5997.00000
    65.1457     6074.00000
    65.1588     6093.00000
    65.1719     6051.00000
    65.1850     5998.00000
    65.1982     5930.00000
    65.2113     6002.00000
    65.2244     6229.00000
    65.2376     6184.00000
    65.2507     6114.00000
    65.2638     6130.00000
    65.2770     5971.00000
    65.2901     6013.00000
    65.3032     6026.00000
    65.3163     6037.00000
    65.3295     6140.00000
    65.3426     6108.00000
    65.3557     6060.00000
    65.3689     6168.00000
    65.3820     6335.00000
    65.3951     6158.00000
    65.4083     6020.00000
    65.4214     6060.00000
    65.4345     6342.00000
    65.4476     6244.00000
    65.4608     6099.00000
    65.4739     6167.00000
    65.4870     6216.00000
    65.5002     6232.00000
    65.5133     6381.00000
    65.5264     6169.00000
    65.5396     6178.00000
    65.5527     6058.00000
    65.5658     6149.00000
    65.5790     6176.00000
    65.5921     5947.00000
    65.6052     6032.00000
    65.6183     5992.00000
    65.6315     6148.00000
    65.6446     6063.00000
    65.6577     6066.00000
    65.6709     5945.00000
    65.6840     6013.00000
    65.6971     6073.00000
    65.7103     5981.00000
    65.7234     5966.00000
    65.7365     6060.00000
    65.7496     5944.00000
    65.7628     6067.00000
    65.7759     6007.00000
    65.7890     5947.00000
    65.8022     5912.00000
    65.8153     5917.00000
    65.8284     6005.00000
    65.8416     5828.00000
    65.8547     6137.00000
    65.8678     5987.00000
    65.8810     5905.00000
    65.8941     5962.00000
    65.9072     5871.00000
    65.9203     5955.00000
    65.9335     5822.00000
    65.9466     5842.00000
    65.9597     6014.00000
    65.9729     6055.00000
    65.9860     5972.00000
    65.9991     6017.00000
    66.0123     5959.00000
    66.0254     6001.00000
    66.0385     6075.00000
    66.0516     6089.00000
    66.0648     5801.00000
    66.0779     6030.00000
    66.0910     5919.00000
    66.1042     5879.00000
    66.1173     6013.00000
    66.1304     6085.00000
    66.1436     6013.00000
    66.1567     5902.00000
    66.1698     5970.00000
    66.1829     5901.00000
    66.1961     6023.00000
    66.2092     5899.00000
    66.2223     5991.00000
    66.2355     6033.00000
    66.2486     6004.00000
    66.2617     5905.00000
    66.2749     6035.00000
    66.2880     5942.00000
    66.3011     6005.00000
    66.3142     6106.00000
    66.3274     6242.00000
    66.3405     6111.00000
    66.3536     5966.00000
    66.3668     5921.00000
    66.3799     5999.00000
    66.3930     5886.00000
    66.4062     5800.00000
    66.4193     5987.00000
    66.4324     6023.00000
    66.4455     6106.00000
    66.4587     5888.00000
    66.4718     5876.00000
    66.4849     5974.00000
    66.4981     6042.00000
    66.5112     6211.00000
    66.5243     6135.00000
    66.5375     6242.00000
    66.5506     6262.00000
    66.5637     5995.00000
    66.5769     6246.00000
    66.5900     6139.00000
    66.6031     6250.00000
    66.6162     5982.00000
    66.6294     5999.00000
    66.6425     6169.00000
    66.6556     5920.00000
    66.6688     6030.00000
    66.6819     5970.00000
    66.6950     6015.00000
    66.7082     6141.00000
    66.7213     6045.00000
    66.7344     6055.00000
    66.7476     6022.00000
    66.7607     6043.00000
    66.7738     5953.00000
    66.7869     5924.00000
    66.8001     5994.00000
    66.8132     6104.00000
    66.8263     5884.00000
    66.8395     6010.00000
    66.8526     6029.00000
    66.8657     6004.00000
    66.8789     6071.00000
    66.8920     5833.00000
    66.9051     5849.00000
    66.9182     6036.00000
    66.9314     6017.00000
    66.9445     6142.00000
    66.9576     5757.00000
    66.9708     5989.00000
    66.9839     6049.00000
    66.9970     6044.00000
    67.0102     5920.00000
    67.0233     5934.00000
    67.0364     5833.00000
    67.0495     5901.00000
    67.0627     6003.00000
    67.0758     5793.00000
    67.0889     5995.00000
    67.1021     5914.00000
    67.1152     5935.00000
    67.1283     5976.00000
    67.1415     5967.00000
    67.1546     6046.00000
    67.1677     5967.00000
    67.1808     6006.00000
    67.1940     5986.00000
    67.2071     6010.00000
    67.2202     6093.00000
    67.2334     6012.00000
    67.2465     5844.00000
    67.2596     5892.00000
    67.2728     5909.00000
    67.2859     6002.00000
    67.2990     5886.00000
    67.3121     5955.00000
    67.3253     6150.00000
    67.3384     5922.00000
    67.3515     6022.00000
    67.3647     5964.00000
    67.3778     6047.00000
    67.3909     6253.00000
    67.4041     6240.00000
    67.4172     6092.00000
    67.4303     6279.00000
    67.4435     6026.00000
    67.4566     6077.00000
    67.4697     5989.00000
    67.4828     5970.00000
    67.4960     5917.00000
    67.5091     6007.00000
    67.5222     6039.00000
    67.5354     5999.00000
    67.5485     5961.00000
    67.5616     6031.00000
    67.5748     6012.00000
    67.5879     5998.00000
    67.6010     6066.00000
    67.6142     6056.00000
    67.6273     6093.00000
    67.6404     5934.00000
    67.6535     6072.00000
    67.6667     5938.00000
    67.6798     6115.00000
    67.6929     5983.00000
    67.7061     6012.00000
    67.7192     5971.00000
    67.7323     6048.00000
    67.7455     6037.00000
    67.7586     6139.00000
    67.7717     6068.00000
    67.7848     5991.00000
    67.7980     5989.00000
    67.8111     6103.00000
    67.8242     6053.00000
    67.8374     5938.00000
    67.8505     5933.00000
    67.8636     6122.00000
    67.8768     5981.00000
    67.8899     5860.00000
    67.9030     5855.00000
    67.9161     5948.00000
    67.9293     5910.00000
    67.9424     6041.00000
    67.9555     5935.00000
    67.9687     5958.00000
    67.9818     6069.00000
    67.9949     6099.00000
    68.0081     6022.00000
    68.0212     5993.00000
    68.0343     5849.00000
    68.0474     5884.00000
    68.0606     6055.00000
    68.0737     6127.00000
    68.0868     5942.00000
    68.1000     6018.00000
    68.1131     5815.00000
    68.1262     5979.00000
    68.1394     6038.00000
    68.1525     5967.00000
    68.1656     6031.00000
    68.1787     6022.00000
    68.1919     5899.00000
    68.2050     5947.00000
    68.2181     6068.00000
    68.2313     5982.00000
    68.2444     6100.00000
    68.2575     6215.00000
    68.2707     6078.00000
    68.2838     5980.00000
    68.2969     5985.00000
    68.3101     6077.00000
    68.3232     5980.00000
    68.3363     5945.00000
    68.3494     6123.00000
    68.3626     6105.00000
    68.3757     6030.00000
    68.3888     6001.00000
    68.4020     6048.00000
    68.4151     6139.00000
    68.4282     6005.00000
    68.4414     5858.00000
    68.4545     5936.00000
    68.4676     6051.00000
    68.4807     5950.00000
    68.4939     5920.00000
    68.5070     6057.00000
    68.5201     6109.00000
    68.5333     5964.00000
    68.5464     6077.00000
    68.5595     6228.00000
    68.5727     6075.00000
    68.5858     5943.00000
    68.5989     6048.00000
    68.6120     5965.00000
    68.6252     5887.00000
    68.6383     5992.00000
    68.6514     6036.00000
    68.6646     6061.00000
    68.6777     5935.00000
    68.6908     6079.00000
    68.7040     5958.00000
    68.7171     5855.00000
    68.7302     6021.00000
    68.7434     6107.00000
    68.7565     5999.00000
    68.7696     6003.00000
    68.7827     5989.00000
    68.7959     5976.00000
    68.8090     5914.00000
    68.8221     6027.00000
    68.8353     6044.00000
    68.8484     5996.00000
    68.8615     5958.00000
    68.8747     6088.00000
    68.8878     6204.00000
    68.9009     6136.00000
    68.9140     6176.00000
    68.9272     6093.00000
    68.9403     6205.00000
    68.9534     6149.00000
    68.9666     6334.00000
    68.9797     6410.00000
    68.9928     6573.00000
    69.0060     6554.00000
    69.0191     6538.00000
    69.0322     6531.00000
    69.0453     6506.00000
    69.0585     6763.00000
    69.0716     6694.00000
    69.0847     6995.00000
    69.0979     7064.00000
    69.1110     7034.00000
    69.1241     7258.00000
    69.1373     7408.00000
    69.1504     7324.00000
    69.1635     7283.00000
    69.1767     7379.00000
    69.1898     7185.00000
    69.2029     7159.00000
    69.2160     7083.00000
    69.2292     7104.00000
    69.2423     7199.00000
    69.2554     7444.00000
    69.2686     7840.00000
    69.2817     8357.00000
    69.2948     8650.00000
    69.3080     8620.00000
    69.3211     8357.00000
    69.3342     8044.00000
    69.3473     7649.00000
    69.3605     7463.00000
    69.3736     7313.00000
    69.3867     6904.00000
    69.3999     6838.00000
    69.4130     6685.00000
    69.4261     6845.00000
    69.4393     6925.00000
    69.4524     6858.00000
    69.4655     7193.00000
    69.4786     7270.00000
    69.4918     7463.00000
    69.5049     7582.00000
    69.5180     7603.00000
    69.5312     7683.00000
    69.5443     7791.00000
    69.5574     8034.00000
    69.5706     8190.00000
    69.5837     8148.00000
    69.5968     8334.00000
    69.6099     8077.00000
    69.6231     7749.00000
    69.6362     7723.00000
    69.6493     7531.00000
    69.6625     7147.00000
    69.6756     6984.00000
    69.6887     6822.00000
    69.7019     6730.00000
    69.7150     6687.00000
    69.7281     6805.00000
    69.7413     6958.00000
    69.7544     7068.00000
    69.7675     7201.00000
    69.7806     7385.00000
    69.7938     7479.00000
    69.8069     7415.00000
    69.8200     7495.00000
    69.8332     7606.00000
    69.8463     7771.00000
    69.8594     8018.00000
    69.8726     8029.00000
    69.8857     7941.00000
    69.8988     7532.00000
    69.9119     7109.00000
    69.9251     7076.00000
    69.9382     6678.00000
    69.9513     6613.00000
    69.9645     6633.00000
    69.9776     6478.00000
    69.9907     6534.00000
    70.0039     6349.00000
    70.0170     6256.00000
    70.0301     6379.00000
    70.0433     6594.00000
    70.0564     6704.00000
    70.0695     6955.00000
    70.0826     6812.00000
    70.0958     6698.00000
    70.1089     6600.00000
    70.1220     6492.00000
    70.1352     6475.00000
    70.1483     6096.00000
    70.1614     6155.00000
    70.1746     6222.00000
    70.1877     6014.00000
    70.2008     6015.00000
    70.2139     6028.00000
    70.2271     6075.00000
    70.2402     6168.00000
    70.2533     6147.00000
    70.2665     6190.00000
    70.2796     6160.00000
    70.2927     6007.00000
    70.3059     6208.00000
    70.3190     6152.00000
    70.3321     6227.00000
    70.3452     6199.00000
    70.3584     6149.00000
    70.3715     6058.00000
    70.3846     6085.00000
    70.3978     6032.00000
    70.4109     6180.00000
    70.4240     6089.00000
    70.4372     6021.00000
    70.4503     6141.00000
    70.4634     6167.00000
    70.4765     6299.00000
    70.4897     6133.00000
    70.5028     6111.00000
    70.5159     6077.00000
    70.5291     6294.00000
    70.5422     6277.00000
    70.5553     6040.00000
    70.5685     6251.00000
    70.5816     6142.00000
    70.5947     6236.00000
    70.6078     6274.00000
    70.6210     6111.00000
    70.6341     6211.00000
    70.6472     6303.00000
    70.6604     6383.00000
    70.6735     6495.00000
    70.6866     6622.00000
    70.6998     6561.00000
    70.7129     6457.00000
    70.7260     6706.00000
    70.7392     6730.00000
    70.7523     6381.00000
    70.7654     6600.00000
    70.7785     6545.00000
    70.7917     6684.00000
    70.8048     6806.00000
    70.8179     6572.00000
    70.8311     6596.00000
    70.8442     6565.00000
    70.8573     6526.00000
    70.8705     6581.00000
    70.8836     6580.00000
    70.8967     6396.00000
    70.9099     6587.00000
    70.9230     6731.00000
    70.9361     6609.00000
    70.9492     6547.00000
    70.9624     6331.00000
    70.9755     6434.00000
    70.9886     6437.00000
    71.0018     6284.00000
    71.0149     6504.00000
    71.0280     6392.00000
    71.0412     6352.00000
    71.0543     6341.00000
    71.0674     6310.00000
    71.0805     6373.00000
    71.0937     6497.00000
    71.1068     6306.00000
    71.1199     6245.00000
    71.1331     6316.00000
    71.1462     6186.00000
    71.1593     6258.00000
    71.1725     6138.00000
    71.1856     6096.00000
    71.1987     5954.00000
    71.2118     6132.00000
    71.2250     6135.00000
    71.2381     6115.00000
    71.2512     6067.00000
    71.2644     5998.00000
    71.2775     6065.00000
    71.2906     6080.00000
    71.3038     6102.00000
    71.3169     6149.00000
    71.3300     6190.00000
    71.3431     6155.00000
    71.3563     6094.00000
    71.3694     5985.00000
    71.3825     6073.00000
    71.3957     5914.00000
    71.4088     6005.00000
    71.4219     5955.00000
    71.4351     6138.00000
    71.4482     6102.00000
    71.4613     6089.00000
    71.4744     6013.00000
    71.4876     5924.00000
    71.5007     6080.00000
    71.5138     6304.00000
    71.5270     6006.00000
    71.5401     6059.00000
    71.5532     6009.00000
    71.5664     6047.00000
    71.5795     6069.00000
    71.5926     6087.00000
    71.6058     6008.00000
    71.6189     6055.00000
    71.6320     6038.00000
    71.6451     6165.00000
    71.6583     6074.00000
    71.6714     6093.00000
    71.6845     5998.00000
    71.6977     6169.00000
    71.7108     6113.00000
    71.7239     6063.00000
    71.7371     6123.00000
    71.7502     6292.00000
    71.7633     6213.00000
    71.7764     6316.00000
    71.7896     6354.00000
    71.8027     6391.00000
    71.8158     6385.00000
    71.8290     6558.00000
    71.8421     6314.00000
    71.8552     6423.00000
    71.8684     6513.00000
    71.8815     6488.00000
    71.8946     6436.00000
    71.9078     6615.00000
    71.9209     6431.00000
    71.9340     6607.00000
    71.9471     6543.00000
    71.9603     6640.00000
    71.9734     6842.00000
    71.9865     7176.00000
    71.9997     7494.00000
    72.0128     7807.00000
    72.0259     8066.00000
    72.0391     8292.00000
    72.0522     8474.00000
    72.0653     8705.00000
    72.0784     8449.00000
    72.0916     8256.00000
    72.1047     8078.00000
    72.1178     7854.00000
    72.1310     7742.00000
    72.1441     7338.00000
    72.1572     7078.00000
    72.1704     6914.00000
    72.1835     6887.00000
    72.1966     6908.00000
    72.2097     7010.00000
    72.2229     7089.00000
    72.2360     7061.00000
    72.2491     7036.00000
    72.2623     7159.00000
    72.2754     7295.00000
    72.2885     7178.00000
    72.3017     7058.00000
    72.3148     6931.00000
    72.3279     6888.00000
    72.3410     6701.00000
    72.3542     6380.00000
    72.3673     6294.00000
    72.3804     6580.00000
    72.3936     6106.00000
    72.4067     6024.00000
    72.4198     5944.00000
    72.4330     6057.00000
    72.4461     6016.00000
    72.4592     6095.00000
    72.4724     6131.00000
    72.4855     6104.00000
    72.4986     6209.00000
    72.5117     6145.00000
    72.5249     5997.00000
    72.5380     6108.00000
    72.5511     6034.00000
    72.5643     6085.00000
    72.5774     5902.00000
    72.5905     6065.00000
    72.6037     5957.00000
    72.6168     5953.00000
    72.6299     6045.00000
    72.6430     6235.00000
    72.6562     6205.00000
    72.6693     6549.00000
    72.6824     6424.00000
    72.6956     6473.00000
    72.7087     6545.00000
    72.7218     6552.00000
    72.7350     6785.00000
    72.7481     6691.00000
    72.7612     6348.00000
    72.7743     6340.00000
    72.7875     6261.00000
    72.8006     6267.00000
    72.8137     6060.00000
    72.8269     6091.00000
    72.8400     6082.00000
    72.8531     6277.00000
    72.8663     6035.00000
    72.8794     6225.00000
    72.8925     6307.00000
    72.9057     6282.00000
    72.9188     6314.00000
    72.9319     6449.00000
    72.9450     6353.00000
    72.9582     6133.00000
    72.9713     6111.00000
    72.9844     6154.00000
    72.9976     6084.00000
    73.0107     6107.00000
    73.0238     6028.00000
    73.0370     6033.00000
    73.0501     6091.00000
    73.0632     6071.00000
    73.0763     6145.00000
    73.0895     6029.00000
    73.1026     6228.00000
    73.1157     6148.00000
    73.1289     6134.00000
    73.1420     6240.00000
    73.1551     6286.00000
    73.1683     6163.00000
    73.1814     6057.00000
    73.1945     6175.00000
    73.2076     6118.00000
    73.2208     6021.00000
    73.2339     5937.00000
    73.2470     6286.00000
    73.2602     6186.00000
    73.2733     6316.00000
    73.2864     6047.00000
    73.2996     6182.00000
    73.3127     6147.00000
    73.3258     6307.00000
    73.3390     6248.00000
    73.3521     6272.00000
    73.3652     6321.00000
    73.3783     6396.00000
    73.3915     6446.00000
    73.4046     6631.00000
    73.4177     6767.00000
    73.4309     7073.00000
    73.4440     7080.00000
    73.4571     7252.00000
    73.4703     7518.00000
    73.4834     7199.00000
    73.4965     7177.00000
    73.5096     7134.00000
    73.5228     7047.00000
    73.5359     6828.00000
    73.5490     6795.00000
    73.5622     6833.00000
    73.5753     6647.00000
    73.5884     6378.00000
    73.6016     6302.00000
    73.6147     6441.00000
    73.6278     6418.00000
    73.6409     6605.00000
    73.6541     6595.00000
    73.6672     6717.00000
    73.6803     6713.00000
    73.6935     6773.00000
    73.7066     6821.00000
    73.7197     6758.00000
    73.7329     6533.00000
    73.7460     6577.00000
    73.7591     6476.00000
    73.7722     6492.00000
    73.7854     6312.00000
    73.7985     6364.00000
    73.8116     6348.00000
    73.8248     6105.00000
    73.8379     6213.00000
    73.8510     6074.00000
    73.8642     6095.00000
    73.8773     6063.00000
    73.8904     5926.00000
    73.9035     6052.00000
    73.9167     6059.00000
    73.9298     6075.00000
    73.9429     6122.00000
    73.9561     6154.00000
    73.9692     6008.00000
    73.9823     6089.00000
    73.9955     6302.00000
    74.0086     6038.00000
    74.0217     6146.00000
    74.0349     6214.00000
    74.0480     6238.00000
    74.0611     6223.00000
    74.0742     6283.00000
    74.0874     6238.00000
    74.1005     6162.00000
    74.1136     6140.00000
    74.1268     6189.00000
    74.1399     6156.00000
    74.1530     6067.00000
    74.1662     6229.00000
    74.1793     6214.00000
    74.1924     6112.00000
    74.2056     6334.00000
    74.2187     6148.00000
    74.2318     6350.00000
    74.2449     6658.00000
    74.2581     6601.00000
    74.2712     6738.00000
    74.2843     6812.00000
    74.2975     6857.00000
    74.3106     6777.00000
    74.3237     6965.00000
    74.3369     6655.00000
    74.3500     6955.00000
    74.3631     7084.00000
    74.3762     7068.00000
    74.3894     7386.00000
    74.4025     7388.00000
    74.4156     7749.00000
    74.4288     7710.00000
    74.4419     7648.00000
    74.4550     7753.00000
    74.4682     7564.00000
    74.4813     7498.00000
    74.4944     7228.00000
    74.5075     7092.00000
    74.5207     6987.00000
    74.5338     7014.00000
    74.5469     6785.00000
    74.5601     6593.00000
    74.5732     6695.00000
    74.5863     6752.00000
    74.5995     6736.00000
    74.6126     6760.00000
    74.6257     6943.00000
    74.6388     6794.00000
    74.6520     6655.00000
    74.6651     6741.00000
    74.6782     6757.00000
    74.6914     6674.00000
    74.7045     6440.00000
    74.7176     6358.00000
    74.7308     6317.00000
    74.7439     6153.00000
    74.7570     6277.00000
    74.7701     6146.00000
    74.7833     6076.00000
    74.7964     6117.00000
    74.8095     6092.00000
    74.8227     6116.00000
    74.8358     6046.00000
    74.8489     5953.00000
    74.8621     6065.00000
    74.8752     5999.00000
    74.8883     5956.00000
    74.9015     6027.00000
    74.9146     5996.00000
    74.9277     5992.00000
    74.9408     6096.00000
    74.9540     5914.00000
    74.9671     6007.00000
    74.9802     6121.00000
    74.9934     6114.00000
    75.0065     6004.00000
    75.0196     6078.00000
    75.0328     6077.00000
    75.0459     6060.00000
    75.0590     5849.00000
    75.0722     5709.00000
    75.0853     5813.00000
    75.0984     5763.00000
    75.1115     5928.00000
    75.1247     5891.00000
    75.1378     5783.00000
    75.1509     5876.00000
    75.1641     6026.00000
    75.1772     6025.00000
    75.1903     5901.00000
    75.2035     5936.00000
    75.2166     5936.00000
    75.2297     6014.00000
    75.2428     6035.00000
    75.2560     6034.00000
    75.2691     5935.00000
    75.2822     5971.00000
    75.2954     5895.00000
    75.3085     5991.00000
    75.3216     5797.00000
    75.3348     5659.00000
    75.3479     6048.00000
    75.3610     5842.00000
    75.3741     5737.00000
    75.3873     5735.00000
    75.4004     5749.00000
    75.4135     5773.00000
    75.4267     5980.00000
    75.4398     6002.00000
    75.4529     5906.00000
    75.4661     5761.00000
    75.4792     5884.00000
    75.4923     5856.00000
    75.5054     5720.00000
    75.5186     5767.00000
    75.5317     5774.00000
    75.5448     6045.00000
    75.5580     5805.00000
    75.5711     5951.00000
    75.5842     5879.00000
    75.5974     5796.00000
    75.6105     5821.00000
    75.6236     6008.00000
    75.6367     5919.00000
    75.6499     5777.00000
    75.6630     5843.00000
    75.6761     5951.00000
    75.6893     5860.00000
    75.7024     5968.00000
    75.7155     5831.00000
    75.7287     5868.00000
    75.7418     5948.00000
    75.7549     6063.00000
    75.7681     5955.00000
    75.7812     5876.00000
    75.7943     5956.00000
    75.8074     5974.00000
    75.8206     6084.00000
    75.8337     6231.00000
    75.8468     6196.00000
    75.8600     6165.00000
    75.8731     6323.00000
    75.8862     6324.00000
    75.8994     6082.00000
    75.9125     6217.00000
    75.9256     6247.00000
    75.9387     6008.00000
    75.9519     6098.00000
    75.9650     5845.00000
    75.9781     5823.00000
    75.9913     6135.00000
    76.0044     6147.00000
    76.0175     5944.00000
    76.0307     6043.00000
    76.0438     6184.00000
    76.0569     6075.00000
    76.0701     6188.00000
    76.0832     6056.00000
    76.0963     6107.00000
    76.1094     6241.00000
    76.1226     6165.00000
    76.1357     6166.00000
    76.1488     6058.00000
    76.1620     5954.00000
    76.1751     5998.00000
    76.1882     5980.00000
    76.2014     6034.00000
    76.2145     5868.00000
    76.2276     6003.00000
    76.2407     6096.00000
    76.2539     5963.00000
    76.2670     5997.00000
    76.2801     5864.00000
    76.2933     5929.00000
    76.3064     6036.00000
    76.3195     6072.00000
    76.3327     5986.00000
    76.3458     6093.00000
    76.3589     5884.00000
    76.3720     5956.00000
    76.3852     6117.00000
    76.3983     5966.00000
    76.4114     6005.00000
    76.4246     6140.00000
    76.4377     6230.00000
    76.4508     6138.00000
    76.4640     6170.00000
    76.4771     6073.00000
    76.4902     6361.00000
    76.5033     6433.00000
    76.5165     6219.00000
    76.5296     6136.00000
    76.5427     6087.00000
    76.5559     5941.00000
    76.5690     6051.00000
    76.5821     5908.00000
    76.5953     5957.00000
    76.6084     6123.00000
    76.6215     6040.00000
    76.6347     5953.00000
    76.6478     6001.00000
    76.6609     6146.00000
    76.6740     6206.00000
    76.6872     6240.00000
    76.7003     6333.00000
    76.7134     6367.00000
    76.7266     6199.00000
    76.7397     6375.00000
    76.7528     6358.00000
    76.7660     6377.00000
    76.7791     6236.00000
    76.7922     6216.00000
    76.8053     6441.00000
    76.8185     6583.00000
    76.8316     6407.00000
    76.8447     6429.00000
    76.8579     6460.00000
    76.8710     6627.00000
    76.8841     6712.00000
    76.8973     6897.00000
    76.9104     7224.00000
    76.9235     7369.00000
    76.9366     7498.00000
    76.9498     7672.00000
    76.9629     7905.00000
    76.9760     8021.00000
    76.9892     8209.00000
    77.0023     8163.00000
    77.0154     7722.00000
    77.0286     7472.00000
    77.0417     6985.00000
    77.0548     6966.00000
    77.0679     6681.00000
    77.0811     6588.00000
    77.0942     6643.00000
    77.1073     6597.00000
    77.1205     6591.00000
    77.1336     6652.00000
    77.1467     6802.00000
    77.1599     6813.00000
    77.1730     6601.00000
    77.1861     6915.00000
    77.1993     7094.00000
    77.2124     7048.00000
    77.2255     6971.00000
    77.2386     6963.00000
    77.2518     6808.00000
    77.2649     6566.00000
    77.2780     6371.00000
    77.2912     6121.00000
    77.3043     6193.00000
    77.3174     6218.00000
    77.3306     6200.00000
    77.3437     6161.00000
    77.3568     6310.00000
    77.3699     6222.00000
    77.3831     6070.00000
    77.3962     6141.00000
    77.4093     6377.00000
    77.4225     6181.00000
    77.4356     6160.00000
    77.4487     5990.00000
    77.4619     6178.00000
    77.4750     6141.00000
    77.4881     6239.00000
    77.5013     6405.00000
    77.5144     6483.00000
    77.5275     6795.00000
    77.5406     6739.00000
    77.5538     6697.00000
    77.5669     6662.00000
    77.5800     6645.00000
    77.5932     6433.00000
    77.6063     6363.00000
    77.6194     6647.00000
    77.6326     6495.00000
    77.6457     6570.00000
    77.6588     6603.00000
    77.6719     6674.00000
    77.6851     6597.00000
    77.6982     6541.00000
    77.7113     6382.00000
    77.7245     6494.00000
    77.7376     6294.00000
    77.7507     6326.00000
    77.7639     6365.00000
    77.7770     6340.00000
    77.7901     6310.00000
    77.8032     6016.00000
    77.8164     6108.00000
    77.8295     6048.00000
    77.8426     6210.00000
    77.8558     6117.00000
    77.8689     5966.00000
    77.8820     6147.00000
    77.8952     6251.00000
    77.9083     6126.00000
    77.9214     6156.00000
    77.9345     6024.00000
    77.9477     6217.00000
    77.9608     6014.00000
    77.9739     5919.00000
    77.9871     5832.00000
    78.0002     5977.00000
    78.0133     5908.00000
    78.0265     5945.00000
    78.0396     5771.00000
    78.0527     5875.00000
    78.0658     5915.00000
    78.0790     5738.00000
    78.0921     5793.00000
    78.1052     5767.00000
    78.1184     5749.00000
    78.1315     5833.00000
    78.1446     5991.00000
    78.1578     5727.00000
    78.1709     5949.00000
    78.1840     5958.00000
    78.1972     5908.00000
    78.2103     5875.00000
    78.2234     5811.00000
    78.2365     6086.00000
    78.2497     6006.00000
    78.2628     5938.00000
    78.2759     5953.00000
    78.2891     5904.00000
    78.3022     5814.00000
    78.3153     5958.00000
    78.3285     5821.00000
    78.3416     5709.00000
    78.3547     5813.00000
    78.3679     5820.00000
    78.3810     5931.00000
    78.3941     5936.00000
    78.4072     6020.00000
    78.4204     5932.00000
    78.4335     5868.00000
    78.4466     5933.00000
    78.4598     5935.00000
    78.4729     5974.00000
    78.4860     5748.00000
    78.4992     5931.00000
    78.5123     5867.00000
    78.5254     6006.00000
    78.5385     5748.00000
    78.5517     6007.00000
    78.5648     5965.00000
    78.5779     5876.00000
    78.5911     5927.00000
    78.6042     5831.00000
    78.6173     5669.00000
    78.6305     5891.00000
    78.6436     6011.00000
    78.6567     5837.00000
    78.6698     5943.00000
    78.6830     6105.00000
    78.6961     5957.00000
    78.7092     5989.00000
    78.7224     5866.00000
    78.7355     6009.00000
    78.7486     5997.00000
    78.7618     5927.00000
    78.7749     6063.00000
    78.7880     5967.00000
    78.8011     6006.00000
    78.8143     6077.00000
    78.8274     6099.00000
    78.8405     6046.00000
    78.8537     6052.00000
    78.8668     6107.00000
    78.8799     6082.00000
    78.8931     6077.00000
    78.9062     6079.00000
    78.9193     6049.00000
    78.9324     6194.00000
    78.9456     6011.00000
    78.9587     6110.00000
    78.9718     6045.00000
    78.9850     5958.00000
    78.9981     5973.00000
    79.0112     6056.00000
    79.0244     6278.00000
    79.0375     6240.00000
    79.0506     6225.00000
    79.0638     6325.00000
    79.0769     6312.00000
    79.0900     6345.00000
    79.1031     6441.00000
    79.1163     6510.00000
    79.1294     6819.00000
    79.1425     6831.00000
    79.1557     6793.00000
    79.1688     7080.00000
    79.1819     6829.00000
    79.1951     7109.00000
    79.2082     7240.00000
    79.2213     6908.00000
    79.2345     6913.00000
    79.2476     6873.00000
    79.2607     6681.00000
    79.2738     6408.00000
    79.2870     6589.00000
    79.3001     6689.00000
    79.3132     6350.00000
    79.3264     6421.00000
    79.3395     6323.00000
    79.3526     6432.00000
    79.3658     6586.00000
    79.3789     6534.00000
    79.3920     6577.00000
    79.4051     6806.00000
    79.4183     6833.00000
    79.4314     6930.00000
    79.4445     6784.00000
    79.4577     6769.00000
    79.4708     6571.00000
    79.4839     6438.00000
    79.4971     6498.00000
    79.5102     6323.00000
    79.5233     6354.00000
    79.5364     6225.00000
    79.5496     6298.00000
    79.5627     5923.00000
    79.5758     6189.00000
    79.5890     6134.00000
    79.6021     6087.00000
    79.6152     6117.00000
    79.6284     6325.00000
    79.6415     6214.00000
    79.6546     6122.00000
    79.6677     6220.00000
    79.6809     6202.00000
    79.6940     6482.00000
    79.7071     6450.00000
    79.7203     6380.00000
    79.7334     6538.00000
    79.7465     6671.00000
    79.7597     6656.00000
    79.7728     6848.00000
    79.7859     7071.00000
    79.7990     7197.00000
    79.8122     7131.00000
    79.8253     7049.00000
    79.8384     7012.00000
    79.8516     6830.00000
    79.8647     6693.00000
    79.8778     6926.00000
    79.8910     6923.00000
    79.9041     6837.00000
    79.9172     6747.00000
    79.9304     6429.00000
    79.9435     6376.00000
    79.9566     6324.00000
    79.9697     6316.00000
    79.9829     6389.00000
    79.9960     6493.00000
    80.0091     6651.00000
    80.0223     6611.00000
    80.0354     6574.00000
    80.0485     6494.00000
    80.0617     6461.00000
    80.0748     6443.00000
    80.0879     6509.00000
    80.1010     6343.00000
    80.1142     6312.00000
    80.1273     6326.00000
    80.1404     6631.00000
    80.1536     6290.00000
    80.1667     6234.00000
    80.1798     6340.00000
    80.1930     6356.00000
    80.2061     6116.00000
    80.2192     6308.00000
    80.2323     6175.00000
    80.2455     6024.00000
    80.2586     6040.00000
    80.2717     6108.00000
    80.2849     6095.00000
    80.2980     6103.00000
    80.3111     6087.00000
    80.3243     6068.00000
    80.3374     6059.00000
    80.3505     6001.00000
    80.3637     6018.00000
    80.3768     6071.00000
    80.3899     6040.00000
    80.4030     6106.00000
    80.4162     6220.00000
    80.4293     6005.00000
    80.4424     5923.00000
    80.4556     5985.00000
    80.4687     6085.00000
    80.4818     5948.00000
    80.4950     5892.00000
    80.5081     5971.00000
    80.5212     6250.00000
    80.5343     6106.00000
    80.5475     6184.00000
    80.5606     6287.00000
    80.5737     6215.00000
    80.5869     6292.00000
    80.6000     6214.00000
    80.6131     6310.00000
    80.6263     6154.00000
    80.6394     6193.00000
    80.6525     6211.00000
    80.6656     6151.00000
    80.6788     6248.00000
    80.6919     6072.00000
    80.7050     6180.00000
    80.7182     6356.00000
    80.7313     6441.00000
    80.7444     6399.00000
    80.7576     6433.00000
    80.7707     6609.00000
    80.7838     6625.00000
    80.7970     6858.00000
    80.8101     6751.00000
    80.8232     6839.00000
    80.8363     6732.00000
    80.8495     6761.00000
    80.8626     6658.00000
    80.8757     6643.00000
    80.8889     6587.00000
    80.9020     6331.00000
    80.9151     6571.00000
    80.9283     6735.00000
    80.9414     6666.00000
    80.9545     6691.00000
    80.9676     6598.00000
    80.9808     6822.00000
    80.9939     6707.00000
    81.0070     6757.00000
    81.0202     6826.00000
    81.0333     6806.00000
    81.0464     6728.00000
    81.0596     6656.00000
    81.0727     6626.00000
    81.0858     6614.00000
    81.0989     6483.00000
    81.1121     6408.00000
    81.1252     6392.00000
    81.1383     6294.00000
    81.1515     6475.00000
    81.1646     6351.00000
    81.1777     6416.00000
    81.1909     6302.00000
    81.2040     6406.00000
    81.2171     6599.00000
    81.2302     6561.00000
    81.2434     6444.00000
    81.2565     6601.00000
    81.2696     6330.00000
    81.2828     6355.00000
    81.2959     6392.00000
    81.3090     6329.00000
    81.3222     6332.00000
    81.3353     6201.00000
    81.3484     6219.00000
    81.3616     6173.00000
    81.3747     6362.00000
    81.3878     6138.00000
    81.4009     6362.00000
    81.4141     6367.00000
    81.4272     6461.00000
    81.4403     6262.00000
    81.4535     6490.00000
    81.4666     6510.00000
    81.4797     6618.00000
    81.4929     6790.00000
    81.5060     6813.00000
    81.5191     6750.00000
    81.5322     7020.00000
    81.5454     6910.00000
    81.5585     6772.00000
    81.5716     6843.00000
    81.5848     6636.00000
    81.5979     6668.00000
    81.6110     6580.00000
    81.6242     6541.00000
    81.6373     6356.00000
    81.6504     6413.00000
    81.6636     6520.00000
    81.6767     6501.00000
    81.6898     6512.00000
    81.7029     6302.00000
    81.7161     6357.00000
    81.7292     6278.00000
    81.7423     6467.00000
    81.7555     6414.00000
    81.7686     6287.00000
    81.7817     6203.00000
    81.7949     6507.00000
    81.8080     6424.00000
    81.8211     6314.00000
    81.8342     6404.00000
    81.8474     6417.00000
    81.8605     6321.00000
    81.8736     6148.00000
    81.8868     6118.00000
    81.8999     6012.00000
    81.9130     5826.00000
    81.9262     5845.00000
    81.9393     5868.00000
    81.9524     5978.00000
    81.9655     6071.00000
    81.9787     6040.00000
    81.9918     5954.00000
    82.0049     5975.00000
    82.0181     5952.00000
    82.0312     5966.00000
    82.0443     5951.00000
    82.0575     5968.00000
    82.0706     5940.00000
    82.0837     5882.00000
    82.0968     6112.00000
    82.1100     6129.00000
    82.1231     5959.00000
    82.1362     5932.00000
    82.1494     6080.00000
    82.1625     5865.00000
    82.1756     5935.00000
    82.1888     5930.00000
    82.2019     5996.00000
    82.2150     6019.00000
    82.2281     5870.00000
    82.2413     5766.00000
    82.2544     5962.00000
    82.2675     6046.00000
    82.2807     6023.00000
    82.2938     5929.00000
    82.3069     5913.00000
    82.3201     6030.00000
    82.3332     5874.00000
    82.3463     5987.00000
    82.3595     6029.00000
    82.3726     5943.00000
    82.3857     6117.00000
    82.3988     6184.00000
    82.4120     6180.00000
    82.4251     6145.00000
    82.4382     6130.00000
    82.4514     6173.00000
    82.4645     6217.00000
    82.4776     6316.00000
    82.4908     6228.00000
    82.5039     6413.00000
    82.5170     6284.00000
    82.5302     6274.00000
    82.5433     6286.00000
    82.5564     6322.00000
    82.5695     6323.00000
    82.5827     6413.00000
    82.5958     6358.00000
    82.6089     6164.00000
    82.6221     6239.00000
    82.6352     6164.00000
    82.6483     6266.00000
    82.6615     6180.00000
    82.6746     6265.00000
    82.6877     6319.00000
    82.7008     6172.00000
    82.7140     6176.00000
    82.7271     6119.00000
    82.7402     6314.00000
    82.7534     6293.00000
    82.7665     6359.00000
    82.7796     6383.00000
    82.7928     6474.00000
    82.8059     6324.00000
    82.8190     6447.00000
    82.8321     6186.00000
    82.8453     6342.00000
    82.8584     6353.00000
    82.8715     6231.00000
    82.8847     6115.00000
    82.8978     6369.00000
    82.9109     6228.00000
    82.9241     6162.00000
    82.9372     6129.00000
    82.9503     6104.00000
    82.9634     6112.00000
    82.9766     6179.00000
    82.9897     6037.00000
    83.0028     6331.00000
    83.0160     6304.00000
    83.0291     6560.00000
    83.0422     6448.00000
    83.0554     6759.00000
    83.0685     6748.00000
    83.0816     6670.00000
    83.0947     6659.00000
    83.1079     6464.00000
    83.1210     6244.00000
    83.1341     6336.00000
    83.1473     6364.00000
    83.1604     6099.00000
    83.1735     6052.00000
    83.1867     6035.00000
    83.1998     6227.00000
    83.2129     6053.00000
    83.2261     6016.00000
    83.2392     6069.00000
    83.2523     6103.00000
    83.2654     6203.00000
    83.2786     6070.00000
    83.2917     6106.00000
    83.3048     6238.00000
    83.3180     6115.00000
    83.3311     6039.00000
    83.3442     6225.00000
    83.3574     6122.00000
    83.3705     6126.00000
    83.3836     5855.00000
    83.3967     6038.00000
    83.4099     6110.00000
    83.4230     6068.00000
    83.4361     5898.00000
    83.4493     5907.00000
    83.4624     6144.00000
    83.4755     5859.00000
    83.4887     5962.00000
    83.5018     5994.00000
    83.5149     5909.00000
    83.5281     5963.00000
    83.5412     5857.00000
    83.5543     5911.00000
    83.5674     5934.00000
    83.5806     5858.00000
    83.5937     5930.00000
    83.6068     5924.00000
    83.6200     5988.00000
    83.6331     5860.00000
    83.6462     5889.00000
    83.6594     5847.00000
    83.6725     6035.00000
    83.6856     5831.00000
    83.6987     5856.00000
    83.7119     5881.00000
    83.7250     5799.00000
    83.7381     5746.00000
    83.7513     5788.00000
    83.7644     5938.00000
    83.7775     5780.00000
    83.7907     5923.00000
    83.8038     5748.00000
    83.8169     5737.00000
    83.8300     5842.00000
    83.8432     5672.00000
    83.8563     5792.00000
    83.8694     5800.00000
    83.8826     5663.00000
    83.8957     5794.00000
    83.9088     5871.00000
    83.9220     5948.00000
    83.9351     5847.00000
    83.9482     5768.00000
    83.9613     5786.00000
    83.9745     5786.00000
    83.9876     5813.00000
    84.0007     5837.00000
    84.0139     5793.00000
    84.0270     5815.00000
    84.0401     5760.00000
    84.0533     5720.00000
    84.0664     5814.00000
    84.0795     5618.00000
    84.0927     5897.00000
    84.1058     5817.00000
    84.1189     5630.00000
    84.1320     5851.00000
    84.1452     5739.00000
    84.1583     5877.00000
    84.1714     5788.00000
    84.1846     5712.00000
    84.1977     5947.00000
    84.2108     5798.00000
    84.2240     5797.00000
    84.2371     5787.00000
    84.2502     5760.00000
    84.2633     5665.00000
    84.2765     5830.00000
    84.2896     5910.00000
    84.3027     5917.00000
    84.3159     5916.00000
    84.3290     6101.00000
    84.3421     5971.00000
    84.3553     5981.00000
    84.3684     6047.00000
    84.3815     6100.00000
    84.3946     6067.00000
    84.4078     6130.00000
    84.4209     5951.00000
    84.4340     5921.00000
    84.4472     5834.00000
    84.4603     6047.00000
    84.4734     5852.00000
    84.4866     6038.00000
    84.4997     5937.00000
    84.5128     5920.00000
    84.5260     5943.00000
    84.5391     5979.00000
    84.5522     5843.00000
    84.5653     5886.00000
    84.5785     5920.00000
    84.5916     6052.00000
    84.6047     5905.00000
    84.6179     6057.00000
    84.6310     6202.00000
    84.6441     6131.00000
    84.6573     6239.00000
    84.6704     6308.00000
    84.6835     6180.00000
    84.6966     6192.00000
    84.7098     6280.00000
    84.7229     6244.00000
    84.7360     6504.00000
    84.7492     6324.00000
    84.7623     6177.00000
    84.7754     6080.00000
    84.7886     6210.00000
    84.8017     6364.00000
    84.8148     6214.00000
    84.8279     6324.00000
    84.8411     6132.00000
    84.8542     6358.00000
    84.8673     6376.00000
    84.8805     6358.00000
    84.8936     6320.00000
    84.9067     6306.00000
    84.9199     6215.00000
    84.9330     6267.00000
    84.9461     6101.00000
    84.9593     6182.00000
    84.9724     6252.00000
    84.9855     6245.00000
    84.9986     6095.00000
    85.0118     5956.00000
    85.0249     6202.00000
    85.0380     6098.00000
    85.0512     6013.00000
    85.0643     5869.00000
    85.0774     6023.00000
    85.0906     6051.00000
    85.1037     5944.00000
    85.1168     6035.00000
    85.1299     6046.00000
    85.1431     6059.00000
    85.1562     5928.00000
    85.1693     5945.00000
    85.1825     5931.00000
    85.1956     5902.00000
    85.2087     5898.00000
    85.2219     5991.00000
    85.2350     5838.00000
    85.2481     5778.00000
    85.2612     5687.00000
    85.2744     5962.00000
    85.2875     5861.00000
    85.3006     5804.00000
    85.3138     5783.00000
    85.3269     5844.00000
    85.3400     6083.00000
    85.3532     5854.00000
    85.3663     5831.00000
    85.3794     5945.00000
    85.3925     6002.00000
    85.4057     6091.00000
    85.4188     5887.00000
    85.4319     5866.00000
    85.4451     6023.00000
    85.4582     5804.00000
    85.4713     5906.00000
    85.4845     5800.00000
    85.4976     5793.00000
    85.5107     5753.00000
    85.5238     5828.00000
    85.5370     5797.00000
    85.5501     5843.00000
    85.5632     5951.00000
    85.5764     5922.00000
    85.5895     5834.00000
    85.6026     5835.00000
    85.6158     5959.00000
    85.6289     5833.00000
    85.6420     5976.00000
    85.6552     5982.00000
    85.6683     5917.00000
    85.6814     5907.00000
    85.6945     5819.00000
    85.7077     5901.00000
    85.7208     5781.00000
    85.7339     5939.00000
    85.7471     5804.00000
    85.7602     5845.00000
    85.7733     5774.00000
    85.7865     5992.00000
    85.7996     6064.00000
    85.8127     6135.00000
    85.8259     6208.00000
    85.8390     6226.00000
    85.8521     6052.00000
    85.8652     6074.00000
    85.8784     5962.00000
    85.8915     5947.00000
    85.9046     5976.00000
    85.9178     5859.00000
    85.9309     5812.00000
    85.9440     5829.00000
    85.9572     5977.00000
    85.9703     5818.00000
    85.9834     5963.00000
    85.9965     5973.00000
    86.0097     5819.00000
    86.0228     5936.00000
    86.0359     5898.00000
    86.0491     5804.00000
    86.0622     5971.00000
    86.0753     5797.00000
    86.0885     5914.00000
    86.1016     5997.00000
    86.1147     6078.00000
    86.1278     6111.00000
    86.1410     6088.00000
    86.1541     5933.00000
    86.1672     5887.00000
    86.1804     5903.00000
    86.1935     5961.00000
    86.2066     5879.00000
    86.2198     5770.00000
    86.2329     5788.00000
    86.2460     5806.00000
    86.2591     5882.00000
    86.2723     5640.00000
    86.2854     5828.00000
    86.2985     5801.00000
    86.3117     5898.00000
    86.3248     5882.00000
    86.3379     5792.00000
    86.3511     5698.00000
    86.3642     5600.00000
    86.3773     5819.00000
    86.3904     5986.00000
    86.4036     5834.00000
    86.4167     5803.00000
    86.4298     5853.00000
    86.4430     5958.00000
    86.4561     5953.00000
    86.4692     5867.00000
    86.4824     6000.00000
    86.4955     5920.00000
    86.5086     5996.00000
    86.5218     5940.00000
    86.5349     6020.00000
    86.5480     5978.00000
    86.5611     5991.00000
    86.5743     6157.00000
    86.5874     6159.00000
    86.6005     5916.00000
    86.6137     6113.00000
    86.6268     6110.00000
    86.6399     6152.00000
    86.6531     6261.00000
    86.6662     6025.00000
    86.6793     6247.00000
    86.6925     6133.00000
    86.7056     6299.00000
    86.7187     6320.00000
    86.7318     6108.00000
    86.7450     6204.00000
    86.7581     6311.00000
    86.7712     6275.00000
    86.7844     6108.00000
    86.7975     6290.00000
    86.8106     6445.00000
    86.8238     6426.00000
    86.8369     6393.00000
    86.8500     6645.00000
    86.8631     6567.00000
    86.8763     6562.00000
    86.8894     6592.00000
    86.9025     6653.00000
    86.9157     6360.00000
    86.9288     6694.00000
    86.9419     6611.00000
    86.9551     6598.00000
    86.9682     6561.00000
    86.9813     6683.00000
    86.9944     6715.00000
    87.0076     6825.00000
    87.0207     6780.00000
    87.0338     6591.00000
    87.0470     6435.00000
    87.0601     6571.00000
    87.0732     6399.00000
    87.0864     6270.00000
    87.0995     6394.00000
    87.1126     6435.00000
    87.1257     6536.00000
    87.1389     6582.00000
    87.1520     6446.00000
    87.1651     6570.00000
    87.1783     6510.00000
    87.1914     6588.00000
    87.2045     6629.00000
    87.2177     6719.00000
    87.2308     6620.00000
    87.2439     6766.00000
    87.2570     6683.00000
    87.2702     6853.00000
    87.2833     6852.00000
    87.2964     6880.00000
    87.3096     6699.00000
    87.3227     6768.00000
    87.3358     6371.00000
    87.3490     6432.00000
    87.3621     6462.00000
    87.3752     6397.00000
    87.3884     6364.00000
    87.4015     6356.00000
    87.4146     6127.00000
    87.4277     6288.00000
    87.4409     6237.00000
    87.4540     6182.00000
    87.4671     6139.00000
    87.4803     6151.00000
    87.4934     6033.00000
    87.5065     6204.00000
    87.5197     6320.00000
    87.5328     6040.00000
    87.5459     6008.00000
    87.5590     6187.00000
    87.5722     6052.00000
    87.5853     6144.00000
    87.5984     6119.00000
    87.6116     6100.00000
    87.6247     5952.00000
    87.6378     5967.00000
    87.6510     6045.00000
    87.6641     6168.00000
    87.6772     5989.00000
    87.6904     5918.00000
    87.7035     5786.00000
    87.7166     6060.00000
    87.7297     5792.00000
    87.7429     5889.00000
    87.7560     6010.00000
    87.7691     5759.00000
    87.7823     5947.00000
    87.7954     5957.00000
    87.8085     5828.00000
    87.8217     6020.00000
    87.8348     5938.00000
    87.8479     6101.00000
    87.8610     6031.00000
    87.8742     5920.00000
    87.8873     5938.00000
    87.9004     6019.00000
    87.9136     6069.00000
    87.9267     6029.00000
    87.9398     5956.00000
    87.9530     6080.00000
    87.9661     5954.00000
    87.9792     5942.00000
    87.9923     5962.00000
    88.0055     5850.00000
    88.0186     6006.00000
    88.0317     5758.00000
    88.0449     5938.00000
    88.0580     5996.00000
    88.0711     6024.00000
    88.0843     6038.00000
    88.0974     6152.00000
    88.1105     5956.00000
    88.1236     6156.00000
    88.1368     6185.00000
    88.1499     6111.00000
    88.1630     6247.00000
    88.1762     6327.00000
    88.1893     6510.00000
    88.2024     6491.00000
    88.2156     6408.00000
    88.2287     6453.00000
    88.2418     6542.00000
    88.2550     6597.00000
    88.2681     6689.00000
    88.2812     6602.00000
    88.2943     6571.00000
    88.3075     6604.00000
    88.3206     6417.00000
    88.3337     6397.00000
    88.3469     6107.00000
    88.3600     6113.00000
    88.3731     6146.00000
    88.3863     6031.00000
    88.3994     6019.00000
    88.4125     6002.00000
    88.4256     6027.00000
    88.4388     6077.00000
    88.4519     6010.00000
    88.4650     6157.00000
    88.4782     6059.00000
    88.4913     6010.00000
    88.5044     6211.00000
    88.5176     6212.00000
    88.5307     6449.00000
    88.5438     6385.00000
    88.5569     6158.00000
    88.5701     6238.00000
    88.5832     6206.00000
    88.5963     6365.00000
    88.6095     6060.00000
    88.6226     6011.00000
    88.6357     5920.00000
    88.6489     5956.00000
    88.6620     6058.00000
    88.6751     6104.00000
    88.6882     6187.00000
    88.7014     6218.00000
    88.7145     6366.00000
    88.7276     6366.00000
    88.7408     6353.00000
    88.7539     6303.00000
    88.7670     6289.00000
    88.7802     6142.00000
    88.7933     6109.00000
    88.8064     6059.00000
    88.8196     6099.00000
    88.8327     6129.00000
    88.8458     6065.00000
    88.8589     6014.00000
    88.8721     5941.00000
    88.8852     6064.00000
    88.8983     5960.00000
    88.9115     6051.00000
    88.9246     6111.00000
    88.9377     6231.00000
    88.9509     6444.00000
    88.9640     6284.00000
    88.9771     6308.00000
    88.9902     6483.00000
    89.0034     6475.00000
    89.0165     6595.00000
    89.0296     6377.00000
    89.0428     6443.00000
    89.0559     6341.00000
    89.0690     6260.00000
    89.0822     6162.00000
    89.0953     6137.00000
    89.1084     6356.00000
    89.1216     6314.00000
    89.1347     6317.00000
    89.1478     6358.00000
    89.1609     6357.00000
    89.1741     6313.00000
    89.1872     6343.00000
    89.2003     6382.00000
    89.2135     6308.00000
    89.2266     6369.00000
    89.2397     6091.00000
    89.2529     6274.00000
    89.2660     6287.00000
    89.2791     6020.00000
    89.2922     5994.00000
    89.3054     5886.00000
    89.3185     6038.00000
    89.3316     6027.00000
    89.3448     6036.00000
    89.3579     6177.00000
    89.3710     6002.00000
    89.3842     6043.00000
    89.3973     6117.00000
    89.4104     6018.00000
    89.4235     6189.00000
    89.4367     6535.00000
    89.4498     6416.00000
    89.4629     6551.00000
    89.4761     6489.00000
    89.4892     6631.00000
    89.5023     6801.00000
    89.5155     6834.00000
    89.5286     6672.00000
    89.5417     6540.00000
    89.5548     6430.00000
    89.5680     6596.00000
    89.5811     6609.00000
    89.5942     6568.00000
    89.6074     6645.00000
    89.6205     6451.00000
    89.6336     6536.00000
    89.6468     6535.00000
    89.6599     6458.00000
    89.6730     6427.00000
    89.6861     6335.00000
    89.6993     6249.00000
    89.7124     6397.00000
    89.7255     6378.00000
    89.7387     6280.00000
    89.7518     6340.00000
    89.7649     6336.00000
    89.7781     6612.00000
    89.7912     6389.00000
    89.8043     6708.00000
    89.8175     6804.00000
    89.8306     6779.00000
    89.8437     6876.00000
    89.8568     6945.00000
    89.8700     6819.00000
    89.8831     6840.00000
    89.8962     6716.00000
    89.9094     6741.00000
    89.9225     6503.00000
    89.9356     6461.00000
    89.9488     6310.00000
    89.9619     6279.00000
    89.9750     6107.00000
    89.9882     6168.00000
    90.0013     6080.00000
    90.0144     6034.00000
    90.0275     6119.00000
    90.0407     6069.00000
    90.0538     6014.00000
    90.0669     6144.00000
    90.0801     6001.00000
    90.0932     6024.00000
    90.1063     6214.00000
    90.1195     5994.00000
    90.1326     6036.00000
    90.1457     6071.00000
    90.1588     6269.00000
    90.1720     6242.00000
    90.1851     6022.00000
    90.1982     6052.00000
    90.2114     6010.00000
    90.2245     5989.00000
    90.2376     5893.00000
    90.2508     6043.00000
    90.2639     5752.00000
    90.2770     6017.00000
    90.2901     5788.00000
    90.3033     5730.00000
    90.3164     5684.00000
    90.3295     5799.00000
    90.3427     5722.00000
    90.3558     5787.00000
    90.3689     5623.00000
    90.3821     5767.00000
    90.3952     5575.00000
    90.4083     5951.00000
    90.4214     5778.00000
    90.4346     5628.00000
    90.4477     5793.00000
    90.4608     5573.00000
    90.4740     5736.00000
    90.4871     5695.00000
    90.5002     5573.00000
    90.5134     5702.00000
    90.5265     5758.00000
    90.5396     5786.00000
    90.5527     5792.00000
    90.5659     5786.00000
    90.5790     5836.00000
    90.5921     5729.00000
    90.6053     5843.00000
    90.6184     5720.00000
    90.6315     5827.00000
    90.6447     5790.00000
    90.6578     5829.00000
    90.6709     5717.00000
    90.6841     5806.00000
    90.6972     5732.00000
    90.7103     5901.00000
    90.7234     5982.00000
    90.7366     5908.00000
    90.7497     5639.00000
    90.7628     5675.00000
    90.7760     5722.00000
    90.7891     5961.00000
    90.8022     5855.00000
    90.8154     5932.00000
    90.8285     5718.00000
    90.8416     5931.00000
    90.8548     5810.00000
    90.8679     5705.00000
    90.8810     5753.00000
    90.8941     5766.00000
    90.9073     5910.00000
    90.9204     5769.00000
    90.9335     5745.00000
    90.9467     5689.00000
    90.9598     5922.00000
    90.9729     5852.00000
    90.9861     5791.00000
    90.9992     5912.00000
    91.0123     5762.00000
    91.0254     5765.00000
    91.0386     5882.00000
    91.0517     5936.00000
    91.0648     5737.00000
    91.0780     5947.00000
    91.0911     5858.00000
    91.1042     5932.00000
    91.1174     5726.00000
    91.1305     5925.00000
    91.1436     5765.00000
    91.1567     5777.00000
    91.1699     5925.00000
    91.1830     5927.00000
    91.1961     5834.00000
    91.2093     5914.00000
    91.2224     5868.00000
    91.2355     5930.00000
    91.2487     5871.00000
    91.2618     5910.00000
    91.2749     5962.00000
    91.2880     6010.00000
    91.3012     5953.00000
    91.3143     5825.00000
    91.3274     5937.00000
    91.3406     5999.00000
    91.3537     5956.00000
    91.3668     6093.00000
    91.3800     6021.00000
    91.3931     6141.00000
    91.4062     6149.00000
    91.4193     6111.00000
    91.4325     6193.00000
    91.4456     6209.00000
    91.4587     6285.00000
    91.4719     6229.00000
    91.4850     6124.00000
    91.4981     5966.00000
    91.5113     6060.00000
    91.5244     5946.00000
    91.5375     6244.00000
    91.5507     6147.00000
    91.5638     5815.00000
    91.5769     5980.00000
    91.5900     6064.00000
    91.6032     5846.00000
    91.6163     5998.00000
    91.6294     5801.00000
    91.6426     5838.00000
    91.6557     5797.00000
    91.6688     5977.00000
    91.6820     6032.00000
    91.6951     5950.00000
    91.7082     6054.00000
    91.7213     6062.00000
    91.7345     6194.00000
    91.7476     6121.00000
    91.7607     6103.00000
    91.7739     6159.00000
    91.7870     6215.00000
    91.8001     6181.00000
    91.8133     6259.00000
    91.8264     6360.00000
    91.8395     6215.00000
    91.8526     6233.00000
    91.8658     6300.00000
    91.8789     6322.00000
    91.8920     6286.00000
    91.9052     6210.00000
    91.9183     6236.00000
    91.9314     6140.00000
    91.9446     5947.00000
    91.9577     6054.00000
    91.9708     6049.00000
    91.9840     6022.00000
    91.9971     6067.00000
    92.0102     6032.00000
    92.0233     5905.00000
    92.0365     6256.00000
    92.0496     6228.00000
    92.0627     6117.00000
    92.0759     6409.00000
    92.0890     6439.00000
    92.1021     6467.00000
    92.1153     6402.00000
    92.1284     6526.00000
    92.1415     6616.00000
    92.1546     6542.00000
    92.1678     6774.00000
    92.1809     6829.00000
    92.1940     6753.00000
    92.2072     6759.00000
    92.2203     6608.00000
    92.2334     6516.00000
    92.2466     6511.00000
    92.2597     6781.00000
    92.2728     6628.00000
    92.2859     6677.00000
    92.2991     6652.00000
    92.3122     6580.00000
    92.3253     6612.00000
    92.3385     6549.00000
    92.3516     6797.00000
    92.3647     6600.00000
    92.3779     6579.00000
    92.3910     6573.00000
    92.4041     6349.00000
    92.4173     6386.00000
    92.4304     6403.00000
    92.4435     6418.00000
    92.4566     6240.00000
    92.4698     6355.00000
    92.4829     6200.00000
    92.4960     6317.00000
    92.5092     6465.00000
    92.5223     6349.00000
    92.5354     6111.00000
    92.5486     6340.00000
    92.5617     6202.00000
    92.5748     6243.00000
    92.5879     6411.00000
    92.6011     6240.00000
    92.6142     6156.00000
    92.6273     6321.00000
    92.6405     6290.00000
    92.6536     6096.00000
    92.6667     6318.00000
    92.6799     6099.00000
    92.6930     5990.00000
    92.7061     5976.00000
    92.7192     5922.00000
    92.7324     5977.00000
    92.7455     6070.00000
    92.7586     5884.00000
    92.7718     5879.00000
    92.7849     5735.00000
    92.7980     5954.00000
    92.8112     5837.00000
    92.8243     5838.00000
    92.8374     5749.00000
    92.8505     5755.00000
    92.8637     5633.00000
    92.8768     5778.00000
    92.8899     5804.00000
    92.9031     5849.00000
    92.9162     5706.00000
    92.9293     5850.00000
    92.9425     5907.00000
    92.9556     5890.00000
    92.9687     5826.00000
    92.9819     5808.00000
    92.9950     5806.00000
    93.0081     5771.00000
    93.0212     5783.00000
    93.0344     5803.00000
    93.0475     5990.00000
    93.0606     5836.00000
    93.0738     5849.00000
    93.0869     5897.00000
    93.1000     5962.00000
    93.1132     6053.00000
    93.1263     6071.00000
    93.1394     5969.00000
    93.1525     6239.00000
    93.1657     5889.00000
    93.1788     5868.00000
    93.1919     5851.00000
    93.2051     6001.00000
    93.2182     5964.00000
    93.2313     5931.00000
    93.2445     5923.00000
    93.2576     5865.00000
    93.2707     5848.00000
    93.2839     5908.00000
    93.2970     5812.00000
    93.3101     5751.00000
    93.3232     5691.00000
    93.3364     5912.00000
    93.3495     5976.00000
    93.3626     5884.00000
    93.3758     5891.00000
    93.3889     5795.00000
    93.4020     5853.00000
    93.4152     5704.00000
    93.4283     5811.00000
    93.4414     5843.00000
    93.4545     5862.00000
    93.4677     5920.00000
    93.4808     5821.00000
    93.4939     5949.00000
    93.5071     5804.00000
    93.5202     5987.00000
    93.5333     5791.00000
    93.5465     5752.00000
    93.5596     5832.00000
    93.5727     5680.00000
    93.5858     5707.00000
    93.5990     5688.00000
    93.6121     5624.00000
    93.6252     5811.00000
    93.6384     5774.00000
    93.6515     5812.00000
    93.6646     5890.00000
    93.6778     5663.00000
    93.6909     5773.00000
    93.7040     5958.00000
    93.7171     5844.00000
    93.7303     5864.00000
    93.7434     5940.00000
    93.7565     5865.00000
    93.7697     5716.00000
    93.7828     5870.00000
    93.7959     5853.00000
    93.8091     5855.00000
    93.8222     5966.00000
    93.8353     5854.00000
    93.8484     6008.00000
    93.8616     5938.00000
    93.8747     6043.00000
    93.8878     6131.00000
    93.9010     6165.00000
    93.9141     6168.00000
    93.9272     6357.00000
    93.9404     6162.00000
    93.9535     6393.00000
    93.9666     6483.00000
    93.9798     6500.00000
    93.9929     6465.00000
    94.0060     6268.00000
    94.0191     6230.00000
    94.0323     6178.00000
    94.0454     6343.00000
    94.0585     6204.00000
    94.0717     6339.00000
    94.0848     6216.00000
    94.0979     6069.00000
    94.1111     5939.00000
    94.1242     5897.00000
    94.1373     6065.00000
    94.1505     6144.00000
    94.1636     6206.00000
    94.1767     6108.00000
    94.1898     5871.00000
    94.2030     6080.00000
    94.2161     6060.00000
    94.2292     5824.00000
    94.2424     6005.00000
    94.2555     6172.00000
    94.2686     6178.00000
    94.2818     6153.00000
    94.2949     6257.00000
    94.3080     5978.00000
    94.3211     6045.00000
    94.3343     6048.00000
    94.3474     6143.00000
    94.3605     5935.00000
    94.3737     5920.00000
    94.3868     6088.00000
    94.3999     5736.00000
    94.4131     5914.00000
    94.4262     5825.00000
    94.4393     5811.00000
    94.4524     5801.00000
    94.4656     5786.00000
    94.4787     5828.00000
    94.4918     5910.00000
    94.5050     5792.00000
    94.5181     5813.00000
    94.5312     5758.00000
    94.5444     5771.00000
    94.5575     5812.00000
    94.5706     5855.00000
    94.5837     6005.00000
    94.5969     5829.00000
    94.6100     5858.00000
    94.6231     5601.00000
    94.6363     5754.00000
    94.6494     5727.00000
    94.6625     5861.00000
    94.6757     5988.00000
    94.6888     5890.00000
    94.7019     6003.00000
    94.7150     6011.00000
    94.7282     5959.00000
    94.7413     6018.00000
    94.7544     6129.00000
    94.7676     6156.00000
    94.7807     6145.00000
    94.7938     6128.00000
    94.8070     6222.00000
    94.8201     6169.00000
    94.8332     6364.00000
    94.8464     6290.00000
    94.8595     6270.00000
    94.8726     6351.00000
    94.8857     6427.00000
    94.8989     6323.00000
    94.9120     6276.00000
    94.9251     6116.00000
    94.9383     6276.00000
    94.9514     6183.00000
    94.9645     6192.00000
    94.9777     6296.00000
    94.9908     6111.00000
    95.0039     6109.00000
    95.0170     6166.00000
    95.0302     6018.00000
    95.0433     6346.00000
    95.0564     6208.00000
    95.0696     6249.00000
    95.0827     6091.00000
    95.0958     6190.00000
    95.1090     6163.00000
    95.1221     6111.00000
    95.1352     6221.00000
    95.1484     6052.00000
    95.1615     6101.00000
    95.1746     6399.00000
    95.1877     6327.00000
    95.2009     6291.00000
    95.2140     6373.00000
    95.2271     6362.00000
    95.2403     6274.00000
    95.2534     6451.00000
    95.2665     6243.00000
    95.2797     6516.00000
    95.2928     6267.00000
    95.3059     6398.00000
    95.3190     6323.00000
    95.3322     6391.00000
    95.3453     6195.00000
    95.3584     6240.00000
    95.3716     5965.00000
    95.3847     5968.00000
    95.3978     6053.00000
    95.4110     5959.00000
    95.4241     6037.00000
    95.4372     6011.00000
    95.4503     6037.00000
    95.4635     6094.00000
    95.4766     6127.00000
    95.4897     6130.00000
    95.5029     6174.00000
    95.5160     6372.00000
    95.5291     6425.00000
    95.5423     6452.00000
    95.5554     6613.00000
    95.5685     6661.00000
    95.5816     6585.00000
    95.5948     6403.00000
    95.6079     6438.00000
    95.6210     6381.00000
    95.6342     6287.00000
    95.6473     6077.00000
    95.6604     6051.00000
    95.6736     5893.00000
    95.6867     5900.00000
    95.6998     5987.00000
    95.7130     5969.00000
    95.7261     5988.00000
    95.7392     5999.00000
    95.7523     5910.00000
    95.7655     5906.00000
    95.7786     5767.00000
    95.7917     5776.00000
    95.8049     5988.00000
    95.8180     6039.00000
    95.8311     6273.00000
    95.8443     6262.00000
    95.8574     6115.00000
    95.8705     6262.00000
    95.8836     6272.00000
    95.8968     6326.00000
    95.9099     6524.00000
    95.9230     6320.00000
    95.9362     6528.00000
    95.9493     6246.00000
    95.9624     6178.00000
    95.9756     6258.00000
    95.9887     6195.00000
    96.0018     6056.00000
    96.0149     6141.00000
    96.0281     6231.00000
    96.0412     6039.00000
    96.0543     6006.00000
    96.0675     5915.00000
    96.0806     6067.00000
    96.0937     5936.00000
    96.1069     5873.00000
    96.1200     5927.00000
    96.1331     5806.00000
    96.1463     5876.00000
    96.1594     6010.00000
    96.1725     5917.00000
    96.1856     5873.00000
    96.1988     5877.00000
    96.2119     5969.00000
    96.2250     5952.00000
    96.2382     5959.00000
    96.2513     5844.00000
    96.2644     5807.00000
    96.2776     5945.00000
    96.2907     6000.00000
    96.3038     5974.00000
    96.3169     5897.00000
    96.3301     5739.00000
    96.3432     5814.00000
    96.3563     5946.00000
    96.3695     5789.00000
    96.3826     5814.00000
    96.3957     5932.00000
    96.4089     5849.00000
    96.4220     5673.00000
    96.4351     5510.00000
    96.4482     5720.00000
    96.4614     5676.00000
    96.4745     5776.00000
    96.4876     5813.00000
    96.5008     5710.00000
    96.5139     5632.00000
    96.5270     5822.00000
    96.5402     5591.00000
    96.5533     5640.00000
    96.5664     5889.00000
    96.5796     5798.00000
    96.5927     5742.00000
    96.6058     5693.00000
    96.6189     5709.00000
    96.6321     5596.00000
    96.6452     5632.00000
    96.6583     5607.00000
    96.6715     5539.00000
    96.6846     5893.00000
    96.6977     5892.00000
    96.7109     5684.00000
    96.7240     5627.00000
    96.7371     5729.00000
    96.7502     5692.00000
    96.7634     5565.00000
    96.7765     5709.00000
    96.7896     5941.00000
    96.8028     5756.00000
    96.8159     5723.00000
    96.8290     5582.00000
    96.8422     5564.00000
    96.8553     5748.00000
    96.8684     5692.00000
    96.8815     5724.00000
    96.8947     5629.00000
    96.9078     5774.00000
    96.9209     5792.00000
    96.9341     5811.00000
    96.9472     5983.00000
    96.9603     5957.00000
    96.9735     5790.00000
    96.9866     5823.00000
    96.9997     5858.00000
    97.0128     5789.00000
    97.0260     5916.00000
    97.0391     5904.00000
    97.0522     5896.00000
    97.0654     5841.00000
    97.0785     5858.00000
    97.0916     5780.00000
    97.1048     5722.00000
    97.1179     5883.00000
    97.1310     5851.00000
    97.1442     5894.00000
    97.1573     5733.00000
    97.1704     5940.00000
    97.1835     6037.00000
    97.1967     5973.00000
    97.2098     5898.00000
    97.2229     5873.00000
    97.2361     6109.00000
    97.2492     6004.00000
    97.2623     5901.00000
    97.2755     5884.00000
    97.2886     5954.00000
    97.3017     6070.00000
    97.3148     6067.00000
    97.3280     6074.00000
    97.3411     6158.00000
    97.3542     6137.00000
    97.3674     6187.00000
    97.3805     6135.00000
    97.3936     6155.00000
    97.4068     6111.00000
    97.4199     6149.00000
    97.4330     6137.00000
    97.4462     5967.00000
    97.4593     5968.00000
    97.4724     5932.00000
    97.4855     5888.00000
    97.4987     6077.00000
    97.5118     5922.00000
    97.5249     5976.00000
    97.5381     5787.00000
    97.5512     5927.00000
    97.5643     6088.00000
    97.5775     6125.00000
    97.5906     6282.00000
    97.6037     6204.00000
    97.6168     6387.00000
    97.6300     6367.00000
    97.6431     6207.00000
    97.6562     6298.00000
    97.6694     6178.00000
    97.6825     6268.00000
    97.6956     6336.00000
    97.7088     6300.00000
    97.7219     6163.00000
    97.7350     6105.00000
    97.7481     6070.00000
    97.7613     5953.00000
    97.7744     6027.00000
    97.7875     5836.00000
    97.8007     5869.00000
    97.8138     6070.00000
    97.8269     5948.00000
    97.8401     5910.00000
    97.8532     5678.00000
    97.8663     6035.00000
    97.8794     5859.00000
    97.8926     5703.00000
    97.9057     5924.00000
    97.9188     5972.00000
    97.9320     5854.00000
    97.9451     5796.00000
    97.9582     5832.00000
    97.9714     5861.00000
    97.9845     5806.00000
    97.9976     5848.00000
    98.0107     5828.00000
    98.0239     5866.00000
    98.0370     5998.00000
    98.0501     6014.00000
    98.0633     5872.00000
    98.0764     5908.00000
    98.0895     5720.00000
    98.1027     5839.00000
    98.1158     5757.00000
    98.1289     5820.00000
    98.1421     5726.00000
    98.1552     5785.00000
    98.1683     5592.00000
    98.1814     5826.00000
    98.1946     5686.00000
    98.2077     5660.00000
    98.2208     5787.00000
    98.2340     5846.00000
    98.2471     5705.00000
    98.2602     5630.00000
    98.2734     5718.00000
    98.2865     5516.00000
    98.2996     5792.00000
    98.3128     5817.00000
    98.3259     5891.00000
    98.3390     5785.00000
    98.3521     5792.00000
    98.3653     5757.00000
    98.3784     5854.00000
    98.3915     5928.00000
    98.4047     5824.00000
    98.4178     5741.00000
    98.4309     5891.00000
    98.4441     5972.00000
    98.4572     5959.00000
    98.4703     5845.00000
    98.4834     5868.00000
    98.4966     5780.00000
    98.5097     5787.00000
    98.5228     5761.00000
    98.5360     6001.00000
    98.5491     6022.00000
    98.5622     5897.00000
    98.5754     5842.00000
    98.5885     5915.00000
    98.6016     5910.00000
    98.6147     6173.00000
    98.6279     6195.00000
    98.6410     5992.00000
    98.6541     5962.00000
    98.6673     5985.00000
    98.6804     6004.00000
    98.6935     5898.00000
    98.7067     6128.00000
    98.7198     6318.00000
    98.7329     6296.00000
    98.7460     6060.00000
    98.7592     6129.00000
    98.7723     6045.00000
    98.7854     6308.00000
    98.7986     6273.00000
    98.8117     6435.00000
    98.8248     6319.00000
    98.8380     6284.00000
    98.8511     6024.00000
    98.8642     6108.00000
    98.8773     6105.00000
    98.8905     6117.00000
    98.9036     6059.00000
    98.9167     6002.00000
    98.9299     5953.00000
    98.9430     5972.00000
    98.9561     5999.00000
    98.9693     5770.00000
    98.9824     5866.00000
    98.9955     5848.00000
    99.0087     5942.00000
    99.0218     5874.00000
    99.0349     6000.00000
    99.0480     5906.00000
    99.0612     5891.00000
    99.0743     5745.00000
    99.0874     5985.00000
    99.1006     6001.00000
    99.1137     5987.00000
    99.1268     6087.00000
    99.1400     5895.00000
    99.1531     5895.00000
    99.1662     5857.00000
    99.1793     6018.00000
    99.1925     5943.00000
    99.2056     5997.00000
    99.2187     6033.00000
    99.2319     5848.00000
    99.2450     5898.00000
    99.2581     5810.00000
    99.2713     5845.00000
    99.2844     5935.00000
    99.2975     5965.00000
    99.3107     5889.00000
    99.3238     5967.00000
    99.3369     5727.00000
    99.3500     5813.00000
    99.3632     5648.00000
    99.3763     5821.00000
    99.3894     5662.00000
    99.4026     5771.00000
    99.4157     5852.00000
    99.4288     5710.00000
    99.4420     5629.00000
    99.4551     5804.00000
    99.4682     5781.00000
    99.4813     5748.00000
    99.4945     5566.00000
    99.5076     5770.00000
    99.5207     5838.00000
    99.5339     5761.00000
    99.5470     5607.00000
    99.5601     5665.00000
    99.5733     5804.00000
    99.5864     5691.00000
    99.5995     5675.00000
    99.6126     5663.00000
    99.6258     5780.00000
    99.6389     5691.00000
    99.6520     5778.00000
    99.6652     5760.00000
    99.6783     5666.00000
    99.6914     5794.00000
    99.7046     5685.00000
    99.7177     5687.00000
    99.7308     5710.00000
    99.7439     5657.00000
    99.7571     5726.00000
    99.7702     5901.00000
    99.7833     5672.00000
    99.7965     5666.00000
    99.8096     5605.00000
    99.8227     5746.00000
    99.8359     5743.00000
    99.8490     5686.00000
    99.8621     5810.00000
    99.8753     5756.00000
    99.8884     5551.00000
    99.9015     5617.00000
    99.9146     5717.00000
    99.9278     5689.00000
    99.9409     5790.00000
    99.9540     5753.00000
    99.9672     5674.00000
    99.9803     5715.00000
    99.9934     5661.00000
