! Initial file:   D:\ZAKARY_OUAIL\MA_THESE\Deuxième_année_de_thèse\DRX\Affinement_DRX\Fullprof\Thermodiff3-nuit_NaNbO2F2\200°C\NaNbO2F2-Lent_200°C.xrdml
! Initial format:  58
! WAVE (A):      1.54060     1.54060     1.00000
! REM : data have been multiplied by     1.0000
! X_data : 2 Theta (deg.)                                                                                                                                                                                                                                                  
! Y_data : Intensity (arb. units)                                                                                                                                                                                                                                          
!     X         Y
!--------------------------------------------------------------------------------
    10.0116     7637.00000
    10.0247     7839.00000
    10.0379     7703.00000
    10.0510     7587.00000
    10.0641     7439.00000
    10.0772     7683.00000
    10.0904     7647.00000
    10.1035     7678.00000
    10.1166     7653.00000
    10.1298     7889.00000
    10.1429     8027.00000
    10.1560     8043.00000
    10.1692     8013.00000
    10.1823     8020.00000
    10.1954     7847.00000
    10.2086     7625.00000
    10.2217     7686.00000
    10.2348     7827.00000
    10.2479     7615.00000
    10.2611     7717.00000
    10.2742     7775.00000
    10.2873     7809.00000
    10.3005     7746.00000
    10.3136     7976.00000
    10.3267     7798.00000
    10.3399     7653.00000
    10.3530     7888.00000
    10.3661     7812.00000
    10.3792     7723.00000
    10.3924     7855.00000
    10.4055     7735.00000
    10.4186     7839.00000
    10.4318     7794.00000
    10.4449     7834.00000
    10.4580     7782.00000
    10.4712     7498.00000
    10.4843     7664.00000
    10.4974     7732.00000
    10.5105     7665.00000
    10.5237     7769.00000
    10.5368     7575.00000
    10.5499     7605.00000
    10.5631     7782.00000
    10.5762     7720.00000
    10.5893     7628.00000
    10.6025     7536.00000
    10.6156     7738.00000
    10.6287     7888.00000
    10.6418     7732.00000
    10.6550     7628.00000
    10.6681     7716.00000
    10.6812     7784.00000
    10.6944     7650.00000
    10.7075     7654.00000
    10.7206     7894.00000
    10.7338     7661.00000
    10.7469     7578.00000
    10.7600     7907.00000
    10.7732     7833.00000
    10.7863     7713.00000
    10.7994     7699.00000
    10.8125     7743.00000
    10.8257     7764.00000
    10.8388     7901.00000
    10.8519     8013.00000
    10.8651     8029.00000
    10.8782     8055.00000
    10.8913     8287.00000
    10.9045     8239.00000
    10.9176     8200.00000
    10.9307     8238.00000
    10.9438     8096.00000
    10.9570     8324.00000
    10.9701     8288.00000
    10.9832     8507.00000
    10.9964     8254.00000
    11.0095     8458.00000
    11.0226     8592.00000
    11.0358     8646.00000
    11.0489     8801.00000
    11.0620     8739.00000
    11.0751     9161.00000
    11.0883     9404.00000
    11.1014    10086.00000
    11.1145    10361.00000
    11.1277    11337.00000
    11.1408    12455.00000
    11.1539    14300.00000
    11.1671    16786.00000
    11.1802    20784.00000
    11.1933    26266.00000
    11.2065    36228.00000
    11.2196    51075.00000
    11.2327    66902.00000
    11.2458    77965.00000
    11.2590    78960.00000
    11.2721    70267.00000
    11.2852    55633.00000
    11.2984    39778.00000
    11.3115    27261.00000
    11.3246    18578.00000
    11.3378    13458.00000
    11.3509    10730.00000
    11.3640     9649.00000
    11.3771     8987.00000
    11.3903     8835.00000
    11.4034     8590.00000
    11.4165     8463.00000
    11.4297     8370.00000
    11.4428     8157.00000
    11.4559     8266.00000
    11.4691     8161.00000
    11.4822     7988.00000
    11.4953     7992.00000
    11.5084     8067.00000
    11.5216     7871.00000
    11.5347     7788.00000
    11.5478     7947.00000
    11.5610     7758.00000
    11.5741     7744.00000
    11.5872     7795.00000
    11.6004     7689.00000
    11.6135     7674.00000
    11.6266     7654.00000
    11.6398     7769.00000
    11.6529     7677.00000
    11.6660     7614.00000
    11.6791     7781.00000
    11.6923     7840.00000
    11.7054     7772.00000
    11.7185     7897.00000
    11.7317     7774.00000
    11.7448     7975.00000
    11.7579     7985.00000
    11.7711     7933.00000
    11.7842     7944.00000
    11.7973     8112.00000
    11.8104     8048.00000
    11.8236     8013.00000
    11.8367     8178.00000
    11.8498     7942.00000
    11.8630     7900.00000
    11.8761     7943.00000
    11.8892     8062.00000
    11.9024     8100.00000
    11.9155     7984.00000
    11.9286     8054.00000
    11.9417     7949.00000
    11.9549     8240.00000
    11.9680     8172.00000
    11.9811     7961.00000
    11.9943     8193.00000
    12.0074     7997.00000
    12.0205     8066.00000
    12.0337     7891.00000
    12.0468     8068.00000
    12.0599     8331.00000
    12.0731     8166.00000
    12.0862     8054.00000
    12.0993     8228.00000
    12.1124     8160.00000
    12.1256     8161.00000
    12.1387     8122.00000
    12.1518     8145.00000
    12.1650     7980.00000
    12.1781     8161.00000
    12.1912     8081.00000
    12.2044     8081.00000
    12.2175     8206.00000
    12.2306     8136.00000
    12.2437     8269.00000
    12.2569     8276.00000
    12.2700     8093.00000
    12.2831     8266.00000
    12.2963     8059.00000
    12.3094     8185.00000
    12.3225     8230.00000
    12.3357     8211.00000
    12.3488     8364.00000
    12.3619     8152.00000
    12.3750     8136.00000
    12.3882     8017.00000
    12.4013     8084.00000
    12.4144     8078.00000
    12.4276     8202.00000
    12.4407     8080.00000
    12.4538     8006.00000
    12.4670     8014.00000
    12.4801     8069.00000
    12.4932     8235.00000
    12.5063     8104.00000
    12.5195     8113.00000
    12.5326     8100.00000
    12.5457     8096.00000
    12.5589     8133.00000
    12.5720     8173.00000
    12.5851     8142.00000
    12.5983     7972.00000
    12.6114     7943.00000
    12.6245     8194.00000
    12.6377     8015.00000
    12.6508     8066.00000
    12.6639     8075.00000
    12.6770     7931.00000
    12.6902     7976.00000
    12.7033     8061.00000
    12.7164     8102.00000
    12.7296     7948.00000
    12.7427     7986.00000
    12.7558     7991.00000
    12.7690     8095.00000
    12.7821     8127.00000
    12.7952     7984.00000
    12.8083     8090.00000
    12.8215     8071.00000
    12.8346     7866.00000
    12.8477     8002.00000
    12.8609     7992.00000
    12.8740     8024.00000
    12.8871     7937.00000
    12.9003     7827.00000
    12.9134     8042.00000
    12.9265     7955.00000
    12.9396     7978.00000
    12.9528     8043.00000
    12.9659     8068.00000
    12.9790     7936.00000
    12.9922     8131.00000
    13.0053     8112.00000
    13.0184     7754.00000
    13.0316     7950.00000
    13.0447     8061.00000
    13.0578     8080.00000
    13.0710     8063.00000
    13.0841     8079.00000
    13.0972     8127.00000
    13.1103     7976.00000
    13.1235     8061.00000
    13.1366     8009.00000
    13.1497     8138.00000
    13.1629     8127.00000
    13.1760     8182.00000
    13.1891     7998.00000
    13.2023     7992.00000
    13.2154     8010.00000
    13.2285     8058.00000
    13.2416     8101.00000
    13.2548     7843.00000
    13.2679     8148.00000
    13.2810     7890.00000
    13.2942     8031.00000
    13.3073     7942.00000
    13.3204     7869.00000
    13.3336     7816.00000
    13.3467     7904.00000
    13.3598     7861.00000
    13.3729     7836.00000
    13.3861     7873.00000
    13.3992     7961.00000
    13.4123     7897.00000
    13.4255     8065.00000
    13.4386     8060.00000
    13.4517     7824.00000
    13.4649     7849.00000
    13.4780     7901.00000
    13.4911     7759.00000
    13.5043     7992.00000
    13.5174     8042.00000
    13.5305     7989.00000
    13.5436     7838.00000
    13.5568     7960.00000
    13.5699     7770.00000
    13.5830     7701.00000
    13.5962     7755.00000
    13.6093     7871.00000
    13.6224     7937.00000
    13.6356     7990.00000
    13.6487     8074.00000
    13.6618     7937.00000
    13.6749     8054.00000
    13.6881     8210.00000
    13.7012     8262.00000
    13.7143     8102.00000
    13.7275     7996.00000
    13.7406     8022.00000
    13.7537     8001.00000
    13.7669     7983.00000
    13.7800     7900.00000
    13.7931     7979.00000
    13.8062     8202.00000
    13.8194     7839.00000
    13.8325     7728.00000
    13.8456     7728.00000
    13.8588     7954.00000
    13.8719     7965.00000
    13.8850     7982.00000
    13.8982     7911.00000
    13.9113     7873.00000
    13.9244     7936.00000
    13.9376     8077.00000
    13.9507     7988.00000
    13.9638     7817.00000
    13.9769     7837.00000
    13.9901     7833.00000
    14.0032     7831.00000
    14.0163     7971.00000
    14.0295     7764.00000
    14.0426     7941.00000
    14.0557     7803.00000
    14.0689     7731.00000
    14.0820     7937.00000
    14.0951     7888.00000
    14.1082     7962.00000
    14.1214     7950.00000
    14.1345     7767.00000
    14.1476     8218.00000
    14.1608     8038.00000
    14.1739     8056.00000
    14.1870     8042.00000
    14.2002     7847.00000
    14.2133     7722.00000
    14.2264     7771.00000
    14.2395     7842.00000
    14.2527     7902.00000
    14.2658     7821.00000
    14.2789     7742.00000
    14.2921     7920.00000
    14.3052     7869.00000
    14.3183     7982.00000
    14.3315     8040.00000
    14.3446     7838.00000
    14.3577     7892.00000
    14.3708     8024.00000
    14.3840     7936.00000
    14.3971     7918.00000
    14.4102     8026.00000
    14.4234     8151.00000
    14.4365     8239.00000
    14.4496     8308.00000
    14.4628     8369.00000
    14.4759     8701.00000
    14.4890     8789.00000
    14.5022     9134.00000
    14.5153     9401.00000
    14.5284     9501.00000
    14.5415     9693.00000
    14.5547     9475.00000
    14.5678     9174.00000
    14.5809     8890.00000
    14.5941     8516.00000
    14.6072     8249.00000
    14.6203     8058.00000
    14.6335     8058.00000
    14.6466     7979.00000
    14.6597     7997.00000
    14.6728     7845.00000
    14.6860     7955.00000
    14.6991     7809.00000
    14.7122     7768.00000
    14.7254     7698.00000
    14.7385     7736.00000
    14.7516     7790.00000
    14.7648     7787.00000
    14.7779     7911.00000
    14.7910     7831.00000
    14.8041     7872.00000
    14.8173     7605.00000
    14.8304     7897.00000
    14.8435     7684.00000
    14.8567     7914.00000
    14.8698     7770.00000
    14.8829     7517.00000
    14.8961     7748.00000
    14.9092     7744.00000
    14.9223     7908.00000
    14.9355     7930.00000
    14.9486     7746.00000
    14.9617     7932.00000
    14.9748     7830.00000
    14.9880     7748.00000
    15.0011     7734.00000
    15.0142     7904.00000
    15.0274     7695.00000
    15.0405     7709.00000
    15.0536     7631.00000
    15.0668     7678.00000
    15.0799     7528.00000
    15.0930     7707.00000
    15.1061     7765.00000
    15.1193     7905.00000
    15.1324     7950.00000
    15.1455     7769.00000
    15.1587     7788.00000
    15.1718     7856.00000
    15.1849     7583.00000
    15.1981     7815.00000
    15.2112     7799.00000
    15.2243     7621.00000
    15.2374     7697.00000
    15.2506     7819.00000
    15.2637     7868.00000
    15.2768     7739.00000
    15.2900     7780.00000
    15.3031     7640.00000
    15.3162     7720.00000
    15.3294     7936.00000
    15.3425     7751.00000
    15.3556     7770.00000
    15.3688     7654.00000
    15.3819     7693.00000
    15.3950     7743.00000
    15.4081     7805.00000
    15.4213     7653.00000
    15.4344     7704.00000
    15.4475     7692.00000
    15.4607     7683.00000
    15.4738     7819.00000
    15.4869     7695.00000
    15.5001     7792.00000
    15.5132     7870.00000
    15.5263     7516.00000
    15.5394     7753.00000
    15.5526     7725.00000
    15.5657     7693.00000
    15.5788     7653.00000
    15.5920     7648.00000
    15.6051     7813.00000
    15.6182     7753.00000
    15.6314     7648.00000
    15.6445     7757.00000
    15.6576     7588.00000
    15.6707     7723.00000
    15.6839     7736.00000
    15.6970     7443.00000
    15.7101     7638.00000
    15.7233     7820.00000
    15.7364     7765.00000
    15.7495     7748.00000
    15.7627     7976.00000
    15.7758     7560.00000
    15.7889     7480.00000
    15.8021     7606.00000
    15.8152     7528.00000
    15.8283     7632.00000
    15.8414     7733.00000
    15.8546     7501.00000
    15.8677     7663.00000
    15.8808     7822.00000
    15.8940     7930.00000
    15.9071     7574.00000
    15.9202     7725.00000
    15.9334     7903.00000
    15.9465     7694.00000
    15.9596     7473.00000
    15.9727     7704.00000
    15.9859     7785.00000
    15.9990     7982.00000
    16.0121     7853.00000
    16.0253     7785.00000
    16.0384     7815.00000
    16.0515     7866.00000
    16.0647     7489.00000
    16.0778     7560.00000
    16.0909     7554.00000
    16.1040     7848.00000
    16.1172     7720.00000
    16.1303     7545.00000
    16.1434     7819.00000
    16.1566     7683.00000
    16.1697     7908.00000
    16.1828     7680.00000
    16.1960     7621.00000
    16.2091     7656.00000
    16.2222     7842.00000
    16.2353     7648.00000
    16.2485     7682.00000
    16.2616     7688.00000
    16.2747     7726.00000
    16.2879     7759.00000
    16.3010     7739.00000
    16.3141     7618.00000
    16.3273     7607.00000
    16.3404     7546.00000
    16.3535     7729.00000
    16.3667     7785.00000
    16.3798     7704.00000
    16.3929     7487.00000
    16.4060     7622.00000
    16.4192     7624.00000
    16.4323     7605.00000
    16.4454     7620.00000
    16.4586     7652.00000
    16.4717     7583.00000
    16.4848     7905.00000
    16.4980     7639.00000
    16.5111     7550.00000
    16.5242     7760.00000
    16.5373     7702.00000
    16.5505     7861.00000
    16.5636     7632.00000
    16.5767     7646.00000
    16.5899     7792.00000
    16.6030     7560.00000
    16.6161     7588.00000
    16.6293     7642.00000
    16.6424     7456.00000
    16.6555     7548.00000
    16.6686     7615.00000
    16.6818     7457.00000
    16.6949     7617.00000
    16.7080     7707.00000
    16.7212     7478.00000
    16.7343     7731.00000
    16.7474     7638.00000
    16.7606     7803.00000
    16.7737     8094.00000
    16.7868     8010.00000
    16.8000     7932.00000
    16.8131     8016.00000
    16.8262     7872.00000
    16.8393     7987.00000
    16.8525     7700.00000
    16.8656     7823.00000
    16.8787     7654.00000
    16.8919     7750.00000
    16.9050     7744.00000
    16.9181     7753.00000
    16.9313     7771.00000
    16.9444     7607.00000
    16.9575     7842.00000
    16.9706     7631.00000
    16.9838     7581.00000
    16.9969     7711.00000
    17.0100     7620.00000
    17.0232     7566.00000
    17.0363     7516.00000
    17.0494     7511.00000
    17.0626     7573.00000
    17.0757     7591.00000
    17.0888     7486.00000
    17.1019     7587.00000
    17.1151     7434.00000
    17.1282     7561.00000
    17.1413     7630.00000
    17.1545     7532.00000
    17.1676     7550.00000
    17.1807     7499.00000
    17.1939     7474.00000
    17.2070     7642.00000
    17.2201     7395.00000
    17.2333     7505.00000
    17.2464     7647.00000
    17.2595     7603.00000
    17.2726     7397.00000
    17.2858     7299.00000
    17.2989     7490.00000
    17.3120     7600.00000
    17.3252     7511.00000
    17.3383     7502.00000
    17.3514     7506.00000
    17.3646     7412.00000
    17.3777     7549.00000
    17.3908     7472.00000
    17.4039     7441.00000
    17.4171     7446.00000
    17.4302     7593.00000
    17.4433     7522.00000
    17.4565     7508.00000
    17.4696     7489.00000
    17.4827     7444.00000
    17.4959     7539.00000
    17.5090     7591.00000
    17.5221     7511.00000
    17.5352     7606.00000
    17.5484     7451.00000
    17.5615     7252.00000
    17.5746     7376.00000
    17.5878     7361.00000
    17.6009     7320.00000
    17.6140     7490.00000
    17.6272     7610.00000
    17.6403     7412.00000
    17.6534     7387.00000
    17.6666     7440.00000
    17.6797     7315.00000
    17.6928     7422.00000
    17.7059     7405.00000
    17.7191     7521.00000
    17.7322     7419.00000
    17.7453     7496.00000
    17.7585     7327.00000
    17.7716     7392.00000
    17.7847     7353.00000
    17.7979     7391.00000
    17.8110     7387.00000
    17.8241     7328.00000
    17.8372     7341.00000
    17.8504     7600.00000
    17.8635     7419.00000
    17.8766     7531.00000
    17.8898     7854.00000
    17.9029     7588.00000
    17.9160     7767.00000
    17.9292     7716.00000
    17.9423     7412.00000
    17.9554     7482.00000
    17.9685     7586.00000
    17.9817     7651.00000
    17.9948     7445.00000
    18.0079     7349.00000
    18.0211     7475.00000
    18.0342     7252.00000
    18.0473     7333.00000
    18.0605     7298.00000
    18.0736     7180.00000
    18.0867     7118.00000
    18.0998     7360.00000
    18.1130     7265.00000
    18.1261     7393.00000
    18.1392     7242.00000
    18.1524     7562.00000
    18.1655     7526.00000
    18.1786     7310.00000
    18.1918     7296.00000
    18.2049     7227.00000
    18.2180     7220.00000
    18.2312     7256.00000
    18.2443     7399.00000
    18.2574     7291.00000
    18.2705     7263.00000
    18.2837     7264.00000
    18.2968     7461.00000
    18.3099     7340.00000
    18.3231     7378.00000
    18.3362     7478.00000
    18.3493     7359.00000
    18.3625     7288.00000
    18.3756     7146.00000
    18.3887     7231.00000
    18.4018     7364.00000
    18.4150     7309.00000
    18.4281     7240.00000
    18.4412     7141.00000
    18.4544     7281.00000
    18.4675     7231.00000
    18.4806     7286.00000
    18.4938     7374.00000
    18.5069     7350.00000
    18.5200     7259.00000
    18.5331     7310.00000
    18.5463     7287.00000
    18.5594     7242.00000
    18.5725     7308.00000
    18.5857     7354.00000
    18.5988     7278.00000
    18.6119     7230.00000
    18.6251     7070.00000
    18.6382     7393.00000
    18.6513     7265.00000
    18.6645     7293.00000
    18.6776     7189.00000
    18.6907     7299.00000
    18.7038     7198.00000
    18.7170     7151.00000
    18.7301     7267.00000
    18.7432     7176.00000
    18.7564     7285.00000
    18.7695     7097.00000
    18.7826     7200.00000
    18.7958     7076.00000
    18.8089     7049.00000
    18.8220     7265.00000
    18.8351     7400.00000
    18.8483     7109.00000
    18.8614     7079.00000
    18.8745     7205.00000
    18.8877     7110.00000
    18.9008     7174.00000
    18.9139     7107.00000
    18.9271     7288.00000
    18.9402     7228.00000
    18.9533     7231.00000
    18.9664     7195.00000
    18.9796     7186.00000
    18.9927     7204.00000
    19.0058     7331.00000
    19.0190     7216.00000
    19.0321     7240.00000
    19.0452     7219.00000
    19.0584     7322.00000
    19.0715     7296.00000
    19.0846     7369.00000
    19.0978     7319.00000
    19.1109     7331.00000
    19.1240     7391.00000
    19.1371     7505.00000
    19.1503     7547.00000
    19.1634     7520.00000
    19.1765     7610.00000
    19.1897     7736.00000
    19.2028     7644.00000
    19.2159     7754.00000
    19.2291     7722.00000
    19.2422     7498.00000
    19.2553     7616.00000
    19.2684     7580.00000
    19.2816     7549.00000
    19.2947     7736.00000
    19.3078     7700.00000
    19.3210     7623.00000
    19.3341     7600.00000
    19.3472     7591.00000
    19.3604     7796.00000
    19.3735     7718.00000
    19.3866     7568.00000
    19.3997     7580.00000
    19.4129     7431.00000
    19.4260     7649.00000
    19.4391     7618.00000
    19.4523     7619.00000
    19.4654     7702.00000
    19.4785     7773.00000
    19.4917     7757.00000
    19.5048     7643.00000
    19.5179     7887.00000
    19.5311     7869.00000
    19.5442     7926.00000
    19.5573     7936.00000
    19.5704     7860.00000
    19.5836     8158.00000
    19.5967     8180.00000
    19.6098     8224.00000
    19.6230     8287.00000
    19.6361     8453.00000
    19.6492     8768.00000
    19.6624     8856.00000
    19.6755     9143.00000
    19.6886     9496.00000
    19.7017     9925.00000
    19.7149    10607.00000
    19.7280    11827.00000
    19.7411    14006.00000
    19.7543    17010.00000
    19.7674    20984.00000
    19.7805    27919.00000
    19.7937    39507.00000
    19.8068    54214.00000
    19.8199    71679.00000
    19.8330    88782.00000
    19.8462    98123.00000
    19.8593    93602.00000
    19.8724    81902.00000
    19.8856    71795.00000
    19.8987    59822.00000
    19.9118    45614.00000
    19.9250    32766.00000
    19.9381    23034.00000
    19.9512    16802.00000
    19.9643    12960.00000
    19.9775    11218.00000
    19.9906    10029.00000
    20.0037     9625.00000
    20.0169     9505.00000
    20.0300     9029.00000
    20.0431     8852.00000
    20.0563     8784.00000
    20.0694     8548.00000
    20.0825     8213.00000
    20.0957     8155.00000
    20.1088     8074.00000
    20.1219     7718.00000
    20.1350     7965.00000
    20.1482     8049.00000
    20.1613     8065.00000
    20.1744     8011.00000
    20.1876     7977.00000
    20.2007     8085.00000
    20.2138     7770.00000
    20.2270     7793.00000
    20.2401     8036.00000
    20.2532     7737.00000
    20.2663     7765.00000
    20.2795     7586.00000
    20.2926     7747.00000
    20.3057     7667.00000
    20.3189     7579.00000
    20.3320     7374.00000
    20.3451     7370.00000
    20.3583     7704.00000
    20.3714     7788.00000
    20.3845     7626.00000
    20.3976     7721.00000
    20.4108     7577.00000
    20.4239     7655.00000
    20.4370     7562.00000
    20.4502     7459.00000
    20.4633     7408.00000
    20.4764     7643.00000
    20.4896     7606.00000
    20.5027     7550.00000
    20.5158     7448.00000
    20.5290     7497.00000
    20.5421     7639.00000
    20.5552     7465.00000
    20.5683     7607.00000
    20.5815     7465.00000
    20.5946     7258.00000
    20.6077     7428.00000
    20.6209     7460.00000
    20.6340     7550.00000
    20.6471     7288.00000
    20.6603     7367.00000
    20.6734     7548.00000
    20.6865     7498.00000
    20.6996     7365.00000
    20.7128     7580.00000
    20.7259     7383.00000
    20.7390     7533.00000
    20.7522     7651.00000
    20.7653     7588.00000
    20.7784     7445.00000
    20.7916     7495.00000
    20.8047     7431.00000
    20.8178     7650.00000
    20.8309     7331.00000
    20.8441     7379.00000
    20.8572     7683.00000
    20.8703     7469.00000
    20.8835     7419.00000
    20.8966     7403.00000
    20.9097     7470.00000
    20.9229     7607.00000
    20.9360     7594.00000
    20.9491     7453.00000
    20.9623     7362.00000
    20.9754     7415.00000
    20.9885     7336.00000
    21.0016     7469.00000
    21.0148     7432.00000
    21.0279     7621.00000
    21.0410     7484.00000
    21.0542     7382.00000
    21.0673     7347.00000
    21.0804     7419.00000
    21.0936     7390.00000
    21.1067     7370.00000
    21.1198     7393.00000
    21.1329     7423.00000
    21.1461     7366.00000
    21.1592     7314.00000
    21.1723     7313.00000
    21.1855     7320.00000
    21.1986     7348.00000
    21.2117     7357.00000
    21.2249     7304.00000
    21.2380     7255.00000
    21.2511     7332.00000
    21.2642     7353.00000
    21.2774     7433.00000
    21.2905     7320.00000
    21.3036     7461.00000
    21.3168     7433.00000
    21.3299     7453.00000
    21.3430     7513.00000
    21.3562     7369.00000
    21.3693     7532.00000
    21.3824     7476.00000
    21.3956     7631.00000
    21.4087     7575.00000
    21.4218     7475.00000
    21.4349     7475.00000
    21.4481     7466.00000
    21.4612     7430.00000
    21.4743     7635.00000
    21.4875     7495.00000
    21.5006     7386.00000
    21.5137     7428.00000
    21.5269     7356.00000
    21.5400     7414.00000
    21.5531     7364.00000
    21.5662     7527.00000
    21.5794     7537.00000
    21.5925     7489.00000
    21.6056     7646.00000
    21.6188     7632.00000
    21.6319     7438.00000
    21.6450     7351.00000
    21.6582     7440.00000
    21.6713     7344.00000
    21.6844     7477.00000
    21.6975     7325.00000
    21.7107     7378.00000
    21.7238     7536.00000
    21.7369     7546.00000
    21.7501     7491.00000
    21.7632     7430.00000
    21.7763     7560.00000
    21.7895     7644.00000
    21.8026     7510.00000
    21.8157     7496.00000
    21.8288     7492.00000
    21.8420     7574.00000
    21.8551     7538.00000
    21.8682     7644.00000
    21.8814     7648.00000
    21.8945     7565.00000
    21.9076     7589.00000
    21.9208     7534.00000
    21.9339     7550.00000
    21.9470     7569.00000
    21.9602     7401.00000
    21.9733     7687.00000
    21.9864     7420.00000
    21.9995     7429.00000
    22.0127     7523.00000
    22.0258     7237.00000
    22.0389     7287.00000
    22.0521     7361.00000
    22.0652     7483.00000
    22.0783     7387.00000
    22.0915     7430.00000
    22.1046     7228.00000
    22.1177     7243.00000
    22.1308     7470.00000
    22.1440     7383.00000
    22.1571     7434.00000
    22.1702     7367.00000
    22.1834     7440.00000
    22.1965     7397.00000
    22.2096     7379.00000
    22.2228     7537.00000
    22.2359     7433.00000
    22.2490     7340.00000
    22.2621     7520.00000
    22.2753     7472.00000
    22.2884     7517.00000
    22.3015     7407.00000
    22.3147     7524.00000
    22.3278     7456.00000
    22.3409     7686.00000
    22.3541     7496.00000
    22.3672     7574.00000
    22.3803     7444.00000
    22.3935     7561.00000
    22.4066     7825.00000
    22.4197     7694.00000
    22.4328     7728.00000
    22.4460     7774.00000
    22.4591     7849.00000
    22.4722     8026.00000
    22.4854     8376.00000
    22.4985     8660.00000
    22.5116     9389.00000
    22.5248    10190.00000
    22.5379    11929.00000
    22.5510    14764.00000
    22.5641    19567.00000
    22.5773    25982.00000
    22.5904    31375.00000
    22.6035    33557.00000
    22.6167    32386.00000
    22.6298    29381.00000
    22.6429    26275.00000
    22.6561    23770.00000
    22.6692    20609.00000
    22.6823    16618.00000
    22.6954    13474.00000
    22.7086    10837.00000
    22.7217     9624.00000
    22.7348     8561.00000
    22.7480     8296.00000
    22.7611     8132.00000
    22.7742     7894.00000
    22.7874     7845.00000
    22.8005     7722.00000
    22.8136     7625.00000
    22.8268     7582.00000
    22.8399     7572.00000
    22.8530     7383.00000
    22.8661     7487.00000
    22.8793     7304.00000
    22.8924     7366.00000
    22.9055     7429.00000
    22.9187     7231.00000
    22.9318     7231.00000
    22.9449     7328.00000
    22.9581     7546.00000
    22.9712     7517.00000
    22.9843     7522.00000
    22.9974     7516.00000
    23.0106     7413.00000
    23.0237     7433.00000
    23.0368     7355.00000
    23.0500     7696.00000
    23.0631     7450.00000
    23.0762     7281.00000
    23.0894     7380.00000
    23.1025     7344.00000
    23.1156     7505.00000
    23.1287     7447.00000
    23.1419     7496.00000
    23.1550     7470.00000
    23.1681     7582.00000
    23.1813     7504.00000
    23.1944     7551.00000
    23.2075     7425.00000
    23.2207     7311.00000
    23.2338     7678.00000
    23.2469     7465.00000
    23.2601     7556.00000
    23.2732     7484.00000
    23.2863     7547.00000
    23.2994     7811.00000
    23.3126     7440.00000
    23.3257     7527.00000
    23.3388     7672.00000
    23.3520     7421.00000
    23.3651     7566.00000
    23.3782     7385.00000
    23.3914     7600.00000
    23.4045     7472.00000
    23.4176     7479.00000
    23.4307     7758.00000
    23.4439     7559.00000
    23.4570     7607.00000
    23.4701     7620.00000
    23.4833     7597.00000
    23.4964     7669.00000
    23.5095     7483.00000
    23.5227     7494.00000
    23.5358     7616.00000
    23.5489     7749.00000
    23.5620     7726.00000
    23.5752     7606.00000
    23.5883     7697.00000
    23.6014     7577.00000
    23.6146     7837.00000
    23.6277     7782.00000
    23.6408     7903.00000
    23.6540     7747.00000
    23.6671     7849.00000
    23.6802     8032.00000
    23.6933     8048.00000
    23.7065     8560.00000
    23.7196     8471.00000
    23.7327     9141.00000
    23.7459    10167.00000
    23.7590    11820.00000
    23.7721    14830.00000
    23.7853    19290.00000
    23.7984    25445.00000
    23.8115    29137.00000
    23.8247    29678.00000
    23.8378    27499.00000
    23.8509    24108.00000
    23.8640    22620.00000
    23.8772    20918.00000
    23.8903    18647.00000
    23.9034    15459.00000
    23.9166    12571.00000
    23.9297    10616.00000
    23.9428     9764.00000
    23.9560     9056.00000
    23.9691     8813.00000
    23.9822     8914.00000
    23.9953     9068.00000
    24.0085     9159.00000
    24.0216     9551.00000
    24.0347    10605.00000
    24.0479    11728.00000
    24.0610    13834.00000
    24.0741    18587.00000
    24.0873    25503.00000
    24.1004    33147.00000
    24.1135    39240.00000
    24.1266    37855.00000
    24.1398    33095.00000
    24.1529    30200.00000
    24.1660    28058.00000
    24.1792    25329.00000
    24.1923    21454.00000
    24.2054    16839.00000
    24.2186    13576.00000
    24.2317    10916.00000
    24.2448     9588.00000
    24.2580     8737.00000
    24.2711     8394.00000
    24.2842     8263.00000
    24.2973     8109.00000
    24.3105     8109.00000
    24.3236     8071.00000
    24.3367     8031.00000
    24.3499     8083.00000
    24.3630     8189.00000
    24.3761     8062.00000
    24.3893     8089.00000
    24.4024     7935.00000
    24.4155     7823.00000
    24.4286     7675.00000
    24.4418     7696.00000
    24.4549     7559.00000
    24.4680     7472.00000
    24.4812     7457.00000
    24.4943     7338.00000
    24.5074     7486.00000
    24.5206     7446.00000
    24.5337     7461.00000
    24.5468     7397.00000
    24.5599     7531.00000
    24.5731     7443.00000
    24.5862     7347.00000
    24.5993     7359.00000
    24.6125     7422.00000
    24.6256     7474.00000
    24.6387     7529.00000
    24.6519     7549.00000
    24.6650     7511.00000
    24.6781     7352.00000
    24.6913     7377.00000
    24.7044     7607.00000
    24.7175     7414.00000
    24.7306     7274.00000
    24.7438     7184.00000
    24.7569     7347.00000
    24.7700     7394.00000
    24.7832     7240.00000
    24.7963     7396.00000
    24.8094     7459.00000
    24.8226     7116.00000
    24.8357     7332.00000
    24.8488     7196.00000
    24.8619     7239.00000
    24.8751     7628.00000
    24.8882     7539.00000
    24.9013     7367.00000
    24.9145     7237.00000
    24.9276     7362.00000
    24.9407     7138.00000
    24.9539     7267.00000
    24.9670     7341.00000
    24.9801     7394.00000
    24.9932     7279.00000
    25.0064     7348.00000
    25.0195     7461.00000
    25.0326     7360.00000
    25.0458     7377.00000
    25.0589     7234.00000
    25.0720     7224.00000
    25.0852     7205.00000
    25.0983     7282.00000
    25.1114     7420.00000
    25.1246     7300.00000
    25.1377     7413.00000
    25.1508     7388.00000
    25.1639     7370.00000
    25.1771     7315.00000
    25.1902     7207.00000
    25.2033     7186.00000
    25.2165     7646.00000
    25.2296     7613.00000
    25.2427     7624.00000
    25.2559     7632.00000
    25.2690     7495.00000
    25.2821     7395.00000
    25.2952     7436.00000
    25.3084     7195.00000
    25.3215     7397.00000
    25.3346     7293.00000
    25.3478     7135.00000
    25.3609     7304.00000
    25.3740     7275.00000
    25.3872     7502.00000
    25.4003     7448.00000
    25.4134     7244.00000
    25.4265     7200.00000
    25.4397     7547.00000
    25.4528     7609.00000
    25.4659     7337.00000
    25.4791     7186.00000
    25.4922     7258.00000
    25.5053     7181.00000
    25.5185     7289.00000
    25.5316     7424.00000
    25.5447     7495.00000
    25.5579     7365.00000
    25.5710     7193.00000
    25.5841     7323.00000
    25.5972     7252.00000
    25.6104     7337.00000
    25.6235     7415.00000
    25.6366     7324.00000
    25.6498     7320.00000
    25.6629     7400.00000
    25.6760     7326.00000
    25.6892     7204.00000
    25.7023     7189.00000
    25.7154     7298.00000
    25.7285     7250.00000
    25.7417     7373.00000
    25.7548     7284.00000
    25.7679     7173.00000
    25.7811     7267.00000
    25.7942     7367.00000
    25.8073     7413.00000
    25.8205     7454.00000
    25.8336     7313.00000
    25.8467     7253.00000
    25.8598     7436.00000
    25.8730     7176.00000
    25.8861     7381.00000
    25.8992     7376.00000
    25.9124     7288.00000
    25.9255     7135.00000
    25.9386     7224.00000
    25.9518     7281.00000
    25.9649     7469.00000
    25.9780     7543.00000
    25.9911     7397.00000
    26.0043     7368.00000
    26.0174     7430.00000
    26.0305     7413.00000
    26.0437     7251.00000
    26.0568     7279.00000
    26.0699     7199.00000
    26.0831     7277.00000
    26.0962     7248.00000
    26.1093     7245.00000
    26.1225     7216.00000
    26.1356     7302.00000
    26.1487     7243.00000
    26.1618     7308.00000
    26.1750     7175.00000
    26.1881     7250.00000
    26.2012     7296.00000
    26.2144     7490.00000
    26.2275     7194.00000
    26.2406     7341.00000
    26.2538     7144.00000
    26.2669     7151.00000
    26.2800     7346.00000
    26.2931     7061.00000
    26.3063     7124.00000
    26.3194     7146.00000
    26.3325     7151.00000
    26.3457     7088.00000
    26.3588     7076.00000
    26.3719     7052.00000
    26.3851     7257.00000
    26.3982     7180.00000
    26.4113     7233.00000
    26.4244     7299.00000
    26.4376     7197.00000
    26.4507     7241.00000
    26.4638     7390.00000
    26.4770     7126.00000
    26.4901     7108.00000
    26.5032     7012.00000
    26.5164     7045.00000
    26.5295     7044.00000
    26.5426     7060.00000
    26.5558     7382.00000
    26.5689     7273.00000
    26.5820     7325.00000
    26.5951     7174.00000
    26.6083     7203.00000
    26.6214     7259.00000
    26.6345     7380.00000
    26.6477     7020.00000
    26.6608     7150.00000
    26.6739     7035.00000
    26.6871     7284.00000
    26.7002     7139.00000
    26.7133     7122.00000
    26.7264     7299.00000
    26.7396     7134.00000
    26.7527     7007.00000
    26.7658     6933.00000
    26.7790     7257.00000
    26.7921     7230.00000
    26.8052     7020.00000
    26.8184     7201.00000
    26.8315     7151.00000
    26.8446     7178.00000
    26.8577     7157.00000
    26.8709     7165.00000
    26.8840     7277.00000
    26.8971     7227.00000
    26.9103     7305.00000
    26.9234     7222.00000
    26.9365     7158.00000
    26.9497     7208.00000
    26.9628     7296.00000
    26.9759     7494.00000
    26.9891     7526.00000
    27.0022     7314.00000
    27.0153     7417.00000
    27.0284     7382.00000
    27.0416     7553.00000
    27.0547     7600.00000
    27.0678     7564.00000
    27.0810     7474.00000
    27.0941     7423.00000
    27.1072     7383.00000
    27.1204     7295.00000
    27.1335     7360.00000
    27.1466     7316.00000
    27.1597     7531.00000
    27.1729     7483.00000
    27.1860     7592.00000
    27.1991     7276.00000
    27.2123     7530.00000
    27.2254     7452.00000
    27.2385     7527.00000
    27.2517     7436.00000
    27.2648     7350.00000
    27.2779     7397.00000
    27.2910     7338.00000
    27.3042     7469.00000
    27.3173     7358.00000
    27.3304     7431.00000
    27.3436     7411.00000
    27.3567     7471.00000
    27.3698     7594.00000
    27.3830     7390.00000
    27.3961     7379.00000
    27.4092     7287.00000
    27.4224     7414.00000
    27.4355     7527.00000
    27.4486     7345.00000
    27.4617     7335.00000
    27.4749     7383.00000
    27.4880     7520.00000
    27.5011     7387.00000
    27.5143     7359.00000
    27.5274     7515.00000
    27.5405     7347.00000
    27.5537     7350.00000
    27.5668     7593.00000
    27.5799     7278.00000
    27.5930     7510.00000
    27.6062     7464.00000
    27.6193     7668.00000
    27.6324     7615.00000
    27.6456     7675.00000
    27.6587     7924.00000
    27.6718     7757.00000
    27.6850     7914.00000
    27.6981     8063.00000
    27.7112     8000.00000
    27.7243     8215.00000
    27.7375     8486.00000
    27.7506     8518.00000
    27.7637     8682.00000
    27.7769     8857.00000
    27.7900     8806.00000
    27.8031     9340.00000
    27.8163     9540.00000
    27.8294    10018.00000
    27.8425    10490.00000
    27.8556    11024.00000
    27.8688    11874.00000
    27.8819    13448.00000
    27.8950    15571.00000
    27.9082    18997.00000
    27.9213    25221.00000
    27.9344    34724.00000
    27.9476    48792.00000
    27.9607    66413.00000
    27.9738    82402.00000
    27.9870    89696.00000
    28.0001    88336.00000
    28.0132    79376.00000
    28.0263    71267.00000
    28.0395    63612.00000
    28.0526    58918.00000
    28.0657    52541.00000
    28.0789    44086.00000
    28.0920    34414.00000
    28.1051    25584.00000
    28.1183    19040.00000
    28.1314    15126.00000
    28.1445    12650.00000
    28.1576    11456.00000
    28.1708    10602.00000
    28.1839     9941.00000
    28.1970     9425.00000
    28.2102     9059.00000
    28.2233     8612.00000
    28.2364     8471.00000
    28.2496     8495.00000
    28.2627     8262.00000
    28.2758     8137.00000
    28.2889     8137.00000
    28.3021     7921.00000
    28.3152     7940.00000
    28.3283     7918.00000
    28.3415     7833.00000
    28.3546     7771.00000
    28.3677     7620.00000
    28.3809     7671.00000
    28.3940     7698.00000
    28.4071     7697.00000
    28.4203     7750.00000
    28.4334     7670.00000
    28.4465     7653.00000
    28.4596     7798.00000
    28.4728     8041.00000
    28.4859     8274.00000
    28.4990     8657.00000
    28.5122     8905.00000
    28.5253     8945.00000
    28.5384     8839.00000
    28.5516     8629.00000
    28.5647     8413.00000
    28.5778     8289.00000
    28.5909     8215.00000
    28.6041     8208.00000
    28.6172     8150.00000
    28.6303     7825.00000
    28.6435     7693.00000
    28.6566     7729.00000
    28.6697     7546.00000
    28.6829     7649.00000
    28.6960     7542.00000
    28.7091     7441.00000
    28.7222     7647.00000
    28.7354     7759.00000
    28.7485     7589.00000
    28.7616     7668.00000
    28.7748     7696.00000
    28.7879     7760.00000
    28.8010     7897.00000
    28.8142     7873.00000
    28.8273     8068.00000
    28.8404     8183.00000
    28.8536     8268.00000
    28.8667     8528.00000
    28.8798     8728.00000
    28.8929     8939.00000
    28.9061     9762.00000
    28.9192    10938.00000
    28.9323    13258.00000
    28.9455    18085.00000
    28.9586    25372.00000
    28.9717    34243.00000
    28.9849    40256.00000
    28.9980    38961.00000
    29.0111    33436.00000
    29.0242    28143.00000
    29.0374    26234.00000
    29.0505    26218.00000
    29.0636    25397.00000
    29.0768    22383.00000
    29.0899    18039.00000
    29.1030    14548.00000
    29.1162    11632.00000
    29.1293     9925.00000
    29.1424     9155.00000
    29.1555     9067.00000
    29.1687     9028.00000
    29.1818     9116.00000
    29.1949     9390.00000
    29.2081    10214.00000
    29.2212    11492.00000
    29.2343    12835.00000
    29.2475    14144.00000
    29.2606    15169.00000
    29.2737    16450.00000
    29.2869    17087.00000
    29.3000    16536.00000
    29.3131    15677.00000
    29.3262    14827.00000
    29.3394    14220.00000
    29.3525    13581.00000
    29.3656    12961.00000
    29.3788    12018.00000
    29.3919    10847.00000
    29.4050    10061.00000
    29.4182     9437.00000
    29.4313     8681.00000
    29.4444     8324.00000
    29.4575     8181.00000
    29.4707     7920.00000
    29.4838     7763.00000
    29.4969     7644.00000
    29.5101     7516.00000
    29.5232     7480.00000
    29.5363     7452.00000
    29.5495     7395.00000
    29.5626     7194.00000
    29.5757     7365.00000
    29.5888     7452.00000
    29.6020     7234.00000
    29.6151     7278.00000
    29.6282     7241.00000
    29.6414     7353.00000
    29.6545     7225.00000
    29.6676     7175.00000
    29.6808     7244.00000
    29.6939     6984.00000
    29.7070     7194.00000
    29.7201     7023.00000
    29.7333     7153.00000
    29.7464     7400.00000
    29.7595     7245.00000
    29.7727     7123.00000
    29.7858     7201.00000
    29.7989     7357.00000
    29.8121     7342.00000
    29.8252     7197.00000
    29.8383     7162.00000
    29.8515     7082.00000
    29.8646     7127.00000
    29.8777     7055.00000
    29.8908     7099.00000
    29.9040     7159.00000
    29.9171     7300.00000
    29.9302     7060.00000
    29.9434     7051.00000
    29.9565     7040.00000
    29.9696     6962.00000
    29.9828     7004.00000
    29.9959     7130.00000
    30.0090     7072.00000
    30.0221     7070.00000
    30.0353     6958.00000
    30.0484     7033.00000
    30.0615     6949.00000
    30.0747     6980.00000
    30.0878     7062.00000
    30.1009     7214.00000
    30.1141     6957.00000
    30.1272     7002.00000
    30.1403     7211.00000
    30.1535     6935.00000
    30.1666     7040.00000
    30.1797     7299.00000
    30.1928     7160.00000
    30.2060     7119.00000
    30.2191     7090.00000
    30.2322     7149.00000
    30.2454     6955.00000
    30.2585     7117.00000
    30.2716     7126.00000
    30.2848     6958.00000
    30.2979     6995.00000
    30.3110     7133.00000
    30.3241     7099.00000
    30.3373     7055.00000
    30.3504     6999.00000
    30.3635     7072.00000
    30.3767     6892.00000
    30.3898     6901.00000
    30.4029     6908.00000
    30.4161     6910.00000
    30.4292     6910.00000
    30.4423     6874.00000
    30.4554     6875.00000
    30.4686     6899.00000
    30.4817     7064.00000
    30.4948     7005.00000
    30.5080     6906.00000
    30.5211     6886.00000
    30.5342     6951.00000
    30.5474     6848.00000
    30.5605     7014.00000
    30.5736     7063.00000
    30.5868     6910.00000
    30.5999     7017.00000
    30.6130     6960.00000
    30.6261     7053.00000
    30.6393     6858.00000
    30.6524     6680.00000
    30.6655     6648.00000
    30.6787     7020.00000
    30.6918     7014.00000
    30.7049     6999.00000
    30.7181     6949.00000
    30.7312     7027.00000
    30.7443     6986.00000
    30.7574     6978.00000
    30.7706     6916.00000
    30.7837     6932.00000
    30.7968     6672.00000
    30.8100     6843.00000
    30.8231     6715.00000
    30.8362     6946.00000
    30.8494     6945.00000
    30.8625     6976.00000
    30.8756     6910.00000
    30.8887     6979.00000
    30.9019     6747.00000
    30.9150     6858.00000
    30.9281     6687.00000
    30.9413     6833.00000
    30.9544     7031.00000
    30.9675     6968.00000
    30.9807     6933.00000
    30.9938     6808.00000
    31.0069     6998.00000
    31.0200     6968.00000
    31.0332     6816.00000
    31.0463     7093.00000
    31.0594     6663.00000
    31.0726     6796.00000
    31.0857     6893.00000
    31.0988     6881.00000
    31.1120     6855.00000
    31.1251     6787.00000
    31.1382     6910.00000
    31.1514     6825.00000
    31.1645     6874.00000
    31.1776     6677.00000
    31.1907     6762.00000
    31.2039     6861.00000
    31.2170     6994.00000
    31.2301     6829.00000
    31.2433     6820.00000
    31.2564     6971.00000
    31.2695     7039.00000
    31.2827     6771.00000
    31.2958     6850.00000
    31.3089     6912.00000
    31.3220     6986.00000
    31.3352     6838.00000
    31.3483     6878.00000
    31.3614     6824.00000
    31.3746     6793.00000
    31.3877     7029.00000
    31.4008     6834.00000
    31.4140     6845.00000
    31.4271     6924.00000
    31.4402     6983.00000
    31.4533     6958.00000
    31.4665     6818.00000
    31.4796     7061.00000
    31.4927     6861.00000
    31.5059     6932.00000
    31.5190     6771.00000
    31.5321     7024.00000
    31.5453     6957.00000
    31.5584     6972.00000
    31.5715     7007.00000
    31.5847     6913.00000
    31.5978     6828.00000
    31.6109     6861.00000
    31.6240     6923.00000
    31.6372     7052.00000
    31.6503     6910.00000
    31.6634     6716.00000
    31.6766     6696.00000
    31.6897     6982.00000
    31.7028     7010.00000
    31.7160     6896.00000
    31.7291     6809.00000
    31.7422     6697.00000
    31.7553     7011.00000
    31.7685     6774.00000
    31.7816     6867.00000
    31.7947     6898.00000
    31.8079     6843.00000
    31.8210     6856.00000
    31.8341     6952.00000
    31.8473     6876.00000
    31.8604     6779.00000
    31.8735     6886.00000
    31.8866     6812.00000
    31.8998     6907.00000
    31.9129     6826.00000
    31.9260     6819.00000
    31.9392     6750.00000
    31.9523     6949.00000
    31.9654     7057.00000
    31.9786     6765.00000
    31.9917     6823.00000
    32.0048     6789.00000
    32.0180     6797.00000
    32.0311     6788.00000
    32.0442     6956.00000
    32.0573     6805.00000
    32.0705     6898.00000
    32.0836     6804.00000
    32.0967     6743.00000
    32.1099     6777.00000
    32.1230     6779.00000
    32.1361     7001.00000
    32.1493     6721.00000
    32.1624     6805.00000
    32.1755     6942.00000
    32.1886     7043.00000
    32.2018     6809.00000
    32.2149     6965.00000
    32.2280     7009.00000
    32.2412     6943.00000
    32.2543     6791.00000
    32.2674     6818.00000
    32.2806     6830.00000
    32.2937     6600.00000
    32.3068     6803.00000
    32.3199     6913.00000
    32.3331     6931.00000
    32.3462     7085.00000
    32.3593     6864.00000
    32.3725     6929.00000
    32.3856     6981.00000
    32.3987     7024.00000
    32.4119     6942.00000
    32.4250     6926.00000
    32.4381     6904.00000
    32.4512     6884.00000
    32.4644     6908.00000
    32.4775     6718.00000
    32.4906     6963.00000
    32.5038     6913.00000
    32.5169     6779.00000
    32.5300     6993.00000
    32.5432     6965.00000
    32.5563     6878.00000
    32.5694     6821.00000
    32.5826     7144.00000
    32.5957     6833.00000
    32.6088     6745.00000
    32.6219     6839.00000
    32.6351     6821.00000
    32.6482     6975.00000
    32.6613     6874.00000
    32.6745     6860.00000
    32.6876     6826.00000
    32.7007     7017.00000
    32.7139     6994.00000
    32.7270     7137.00000
    32.7401     7163.00000
    32.7532     7301.00000
    32.7664     7071.00000
    32.7795     7312.00000
    32.7926     7280.00000
    32.8058     7531.00000
    32.8189     7671.00000
    32.8320     7679.00000
    32.8452     7918.00000
    32.8583     8504.00000
    32.8714     9309.00000
    32.8845    10831.00000
    32.8977    13008.00000
    32.9108    14777.00000
    32.9239    15835.00000
    32.9371    15247.00000
    32.9502    14454.00000
    32.9633    14481.00000
    32.9765    15414.00000
    32.9896    18256.00000
    33.0027    21505.00000
    33.0159    23992.00000
    33.0290    23124.00000
    33.0421    19647.00000
    33.0552    16333.00000
    33.0684    14661.00000
    33.0815    13874.00000
    33.0946    14466.00000
    33.1078    14454.00000
    33.1209    13161.00000
    33.1340    11127.00000
    33.1472     9782.00000
    33.1603     8725.00000
    33.1734     8025.00000
    33.1865     7837.00000
    33.1997     7511.00000
    33.2128     7502.00000
    33.2259     7354.00000
    33.2391     7177.00000
    33.2522     7088.00000
    33.2653     7137.00000
    33.2785     6983.00000
    33.2916     6979.00000
    33.3047     7042.00000
    33.3178     7029.00000
    33.3310     6906.00000
    33.3441     6839.00000
    33.3572     6792.00000
    33.3704     6857.00000
    33.3835     6987.00000
    33.3966     6932.00000
    33.4098     7029.00000
    33.4229     7011.00000
    33.4360     6866.00000
    33.4492     6801.00000
    33.4623     7060.00000
    33.4754     6973.00000
    33.4885     6980.00000
    33.5017     7042.00000
    33.5148     6954.00000
    33.5279     7127.00000
    33.5411     7208.00000
    33.5542     7213.00000
    33.5673     7293.00000
    33.5805     7481.00000
    33.5936     7478.00000
    33.6067     7871.00000
    33.6198     8342.00000
    33.6330     9282.00000
    33.6461    10187.00000
    33.6592    11733.00000
    33.6724    13597.00000
    33.6855    14785.00000
    33.6986    15106.00000
    33.7118    14293.00000
    33.7249    12805.00000
    33.7380    11720.00000
    33.7511    11242.00000
    33.7643    11358.00000
    33.7774    11155.00000
    33.7905    10750.00000
    33.8037     9958.00000
    33.8168     9334.00000
    33.8299     8446.00000
    33.8431     7922.00000
    33.8562     7404.00000
    33.8693     7319.00000
    33.8825     7285.00000
    33.8956     7467.00000
    33.9087     7347.00000
    33.9218     7641.00000
    33.9350     7765.00000
    33.9481     7878.00000
    33.9612     7733.00000
    33.9744     7694.00000
    33.9875     7804.00000
    34.0006     7463.00000
    34.0138     7601.00000
    34.0269     7570.00000
    34.0400     7709.00000
    34.0531     7616.00000
    34.0663     7313.00000
    34.0794     7330.00000
    34.0925     7392.00000
    34.1057     7744.00000
    34.1188     7995.00000
    34.1319     8694.00000
    34.1451    10098.00000
    34.1582    11571.00000
    34.1713    13431.00000
    34.1844    14027.00000
    34.1976    13275.00000
    34.2107    11866.00000
    34.2238    10752.00000
    34.2370    10503.00000
    34.2501    10529.00000
    34.2632    10875.00000
    34.2764    10339.00000
    34.2895     9814.00000
    34.3026     9132.00000
    34.3158     8278.00000
    34.3289     7608.00000
    34.3420     7178.00000
    34.3551     7155.00000
    34.3683     7047.00000
    34.3814     6939.00000
    34.3945     6869.00000
    34.4077     6781.00000
    34.4208     6842.00000
    34.4339     6748.00000
    34.4471     6753.00000
    34.4602     6654.00000
    34.4733     6916.00000
    34.4864     6575.00000
    34.4996     6659.00000
    34.5127     6696.00000
    34.5258     6604.00000
    34.5390     6678.00000
    34.5521     6712.00000
    34.5652     6677.00000
    34.5784     6784.00000
    34.5915     6572.00000
    34.6046     6791.00000
    34.6177     6902.00000
    34.6309     6721.00000
    34.6440     6968.00000
    34.6571     6760.00000
    34.6703     7094.00000
    34.6834     6770.00000
    34.6965     6887.00000
    34.7097     6830.00000
    34.7228     6824.00000
    34.7359     6883.00000
    34.7491     7068.00000
    34.7622     6875.00000
    34.7753     6873.00000
    34.7884     7110.00000
    34.8016     7166.00000
    34.8147     7266.00000
    34.8278     7801.00000
    34.8410     8385.00000
    34.8541     9344.00000
    34.8672    10536.00000
    34.8804    11388.00000
    34.8935    11555.00000
    34.9066    10959.00000
    34.9197    10635.00000
    34.9329    10303.00000
    34.9460     9712.00000
    34.9591     9744.00000
    34.9723     9678.00000
    34.9854     9511.00000
    34.9985     9020.00000
    35.0117     8433.00000
    35.0248     7951.00000
    35.0379     7466.00000
    35.0510     7428.00000
    35.0642     7264.00000
    35.0773     7247.00000
    35.0904     7468.00000
    35.1036     7453.00000
    35.1167     7569.00000
    35.1298     7266.00000
    35.1430     7059.00000
    35.1561     6966.00000
    35.1692     7040.00000
    35.1824     7124.00000
    35.1955     7092.00000
    35.2086     7021.00000
    35.2217     6886.00000
    35.2349     6629.00000
    35.2480     6704.00000
    35.2611     6705.00000
    35.2743     6708.00000
    35.2874     6803.00000
    35.3005     6585.00000
    35.3137     6669.00000
    35.3268     6634.00000
    35.3399     6581.00000
    35.3530     6666.00000
    35.3662     6332.00000
    35.3793     6450.00000
    35.3924     6716.00000
    35.4056     6576.00000
    35.4187     6582.00000
    35.4318     6692.00000
    35.4450     6617.00000
    35.4581     6759.00000
    35.4712     6596.00000
    35.4843     6560.00000
    35.4975     6696.00000
    35.5106     6688.00000
    35.5237     6602.00000
    35.5369     6580.00000
    35.5500     6679.00000
    35.5631     6650.00000
    35.5763     6731.00000
    35.5894     6486.00000
    35.6025     6629.00000
    35.6156     6469.00000
    35.6288     6648.00000
    35.6419     6632.00000
    35.6550     6498.00000
    35.6682     6469.00000
    35.6813     6430.00000
    35.6944     6668.00000
    35.7076     6558.00000
    35.7207     6524.00000
    35.7338     6609.00000
    35.7470     6484.00000
    35.7601     6495.00000
    35.7732     6743.00000
    35.7863     6603.00000
    35.7995     6594.00000
    35.8126     6488.00000
    35.8257     6488.00000
    35.8389     6463.00000
    35.8520     6525.00000
    35.8651     6610.00000
    35.8783     6529.00000
    35.8914     6471.00000
    35.9045     6398.00000
    35.9176     6565.00000
    35.9308     6435.00000
    35.9439     6383.00000
    35.9570     6735.00000
    35.9702     6651.00000
    35.9833     6498.00000
    35.9964     6405.00000
    36.0096     6565.00000
    36.0227     6510.00000
    36.0358     6450.00000
    36.0489     6583.00000
    36.0621     6609.00000
    36.0752     6593.00000
    36.0883     6540.00000
    36.1015     6555.00000
    36.1146     6584.00000
    36.1277     6601.00000
    36.1409     6917.00000
    36.1540     6633.00000
    36.1671     6648.00000
    36.1802     6748.00000
    36.1934     6587.00000
    36.2065     6603.00000
    36.2196     6504.00000
    36.2328     6551.00000
    36.2459     6543.00000
    36.2590     6722.00000
    36.2722     6821.00000
    36.2853     6824.00000
    36.2984     6840.00000
    36.3116     6723.00000
    36.3247     6631.00000
    36.3378     6722.00000
    36.3509     6754.00000
    36.3641     6803.00000
    36.3772     6756.00000
    36.3903     6812.00000
    36.4035     6727.00000
    36.4166     6940.00000
    36.4297     7190.00000
    36.4429     7682.00000
    36.4560     8212.00000
    36.4691     8961.00000
    36.4822     9775.00000
    36.4954    10171.00000
    36.5085     9707.00000
    36.5216     8952.00000
    36.5348     8176.00000
    36.5479     7825.00000
    36.5610     8093.00000
    36.5742     8336.00000
    36.5873     8389.00000
    36.6004     8246.00000
    36.6135     7842.00000
    36.6267     7286.00000
    36.6398     7016.00000
    36.6529     6776.00000
    36.6661     6807.00000
    36.6792     6723.00000
    36.6923     6644.00000
    36.7055     6631.00000
    36.7186     6554.00000
    36.7317     6538.00000
    36.7449     6715.00000
    36.7580     6545.00000
    36.7711     6647.00000
    36.7842     6695.00000
    36.7974     6578.00000
    36.8105     6622.00000
    36.8236     6469.00000
    36.8368     6480.00000
    36.8499     6626.00000
    36.8630     6614.00000
    36.8762     6276.00000
    36.8893     6305.00000
    36.9024     6596.00000
    36.9155     6560.00000
    36.9287     6530.00000
    36.9418     6622.00000
    36.9549     6522.00000
    36.9681     6583.00000
    36.9812     6630.00000
    36.9943     6645.00000
    37.0075     6425.00000
    37.0206     6628.00000
    37.0337     6612.00000
    37.0468     6583.00000
    37.0600     6432.00000
    37.0731     6290.00000
    37.0862     6662.00000
    37.0994     6715.00000
    37.1125     6534.00000
    37.1256     6541.00000
    37.1388     6630.00000
    37.1519     6644.00000
    37.1650     6556.00000
    37.1782     6632.00000
    37.1913     6604.00000
    37.2044     6496.00000
    37.2175     6551.00000
    37.2307     6432.00000
    37.2438     6552.00000
    37.2569     6748.00000
    37.2701     6674.00000
    37.2832     6402.00000
    37.2963     6507.00000
    37.3095     6622.00000
    37.3226     6450.00000
    37.3357     6714.00000
    37.3488     6588.00000
    37.3620     6592.00000
    37.3751     6706.00000
    37.3882     6669.00000
    37.4014     6546.00000
    37.4145     6661.00000
    37.4276     6659.00000
    37.4408     6857.00000
    37.4539     6808.00000
    37.4670     6893.00000
    37.4801     7133.00000
    37.4933     7405.00000
    37.5064     7376.00000
    37.5195     7377.00000
    37.5327     7351.00000
    37.5458     7383.00000
    37.5589     7218.00000
    37.5721     7316.00000
    37.5852     7557.00000
    37.5983     7657.00000
    37.6115     7947.00000
    37.6246     8351.00000
    37.6377     8857.00000
    37.6508     9817.00000
    37.6640    10887.00000
    37.6771    11550.00000
    37.6902    11645.00000
    37.7034    11537.00000
    37.7165    11165.00000
    37.7296    10695.00000
    37.7428    10442.00000
    37.7559    10954.00000
    37.7690    11436.00000
    37.7821    11745.00000
    37.7953    11167.00000
    37.8084    10578.00000
    37.8215     9739.00000
    37.8347     9103.00000
    37.8478     8266.00000
    37.8609     8259.00000
    37.8741     8217.00000
    37.8872     8112.00000
    37.9003     7776.00000
    37.9134     7483.00000
    37.9266     7194.00000
    37.9397     6756.00000
    37.9528     6737.00000
    37.9660     6672.00000
    37.9791     6649.00000
    37.9922     6639.00000
    38.0054     6759.00000
    38.0185     6471.00000
    38.0316     6727.00000
    38.0448     6692.00000
    38.0579     6698.00000
    38.0710     6540.00000
    38.0841     6827.00000
    38.0973     6822.00000
    38.1104     6720.00000
    38.1235     6600.00000
    38.1367     6665.00000
    38.1498     6548.00000
    38.1629     6527.00000
    38.1761     6492.00000
    38.1892     6604.00000
    38.2023     6623.00000
    38.2154     6497.00000
    38.2286     6624.00000
    38.2417     6673.00000
    38.2548     6603.00000
    38.2680     6478.00000
    38.2811     6613.00000
    38.2942     6596.00000
    38.3074     6602.00000
    38.3205     6471.00000
    38.3336     6516.00000
    38.3467     6501.00000
    38.3599     6348.00000
    38.3730     6422.00000
    38.3861     6184.00000
    38.3993     6490.00000
    38.4124     6453.00000
    38.4255     6591.00000
    38.4387     6494.00000
    38.4518     6414.00000
    38.4649     6457.00000
    38.4781     6630.00000
    38.4912     6509.00000
    38.5043     6365.00000
    38.5174     6589.00000
    38.5306     6389.00000
    38.5437     6514.00000
    38.5568     6382.00000
    38.5700     6521.00000
    38.5831     6357.00000
    38.5962     6448.00000
    38.6094     6472.00000
    38.6225     6466.00000
    38.6356     6398.00000
    38.6487     6627.00000
    38.6619     6461.00000
    38.6750     6463.00000
    38.6881     6544.00000
    38.7013     6373.00000
    38.7144     6448.00000
    38.7275     6388.00000
    38.7407     6431.00000
    38.7538     6388.00000
    38.7669     6484.00000
    38.7800     6476.00000
    38.7932     6496.00000
    38.8063     6332.00000
    38.8194     6446.00000
    38.8326     6456.00000
    38.8457     6477.00000
    38.8588     6528.00000
    38.8720     6384.00000
    38.8851     6467.00000
    38.8982     6457.00000
    38.9114     6497.00000
    38.9245     6411.00000
    38.9376     6631.00000
    38.9507     6536.00000
    38.9639     6650.00000
    38.9770     6586.00000
    38.9901     6613.00000
    39.0033     6405.00000
    39.0164     6374.00000
    39.0295     6418.00000
    39.0427     6591.00000
    39.0558     6554.00000
    39.0689     6472.00000
    39.0820     6690.00000
    39.0952     6595.00000
    39.1083     6622.00000
    39.1214     6579.00000
    39.1346     6631.00000
    39.1477     6942.00000
    39.1608     6950.00000
    39.1740     7298.00000
    39.1871     7991.00000
    39.2002     8640.00000
    39.2133     9297.00000
    39.2265     9693.00000
    39.2396     9061.00000
    39.2527     8415.00000
    39.2659     7867.00000
    39.2790     7466.00000
    39.2921     7590.00000
    39.3053     7908.00000
    39.3184     8057.00000
    39.3315     7808.00000
    39.3446     7566.00000
    39.3578     7305.00000
    39.3709     7053.00000
    39.3840     6585.00000
    39.3972     6572.00000
    39.4103     6602.00000
    39.4234     6572.00000
    39.4366     6482.00000
    39.4497     6453.00000
    39.4628     6478.00000
    39.4760     6531.00000
    39.4891     6524.00000
    39.5022     6495.00000
    39.5153     6417.00000
    39.5285     6491.00000
    39.5416     6359.00000
    39.5547     6618.00000
    39.5679     6414.00000
    39.5810     6373.00000
    39.5941     6426.00000
    39.6073     6477.00000
    39.6204     6376.00000
    39.6335     6569.00000
    39.6466     6236.00000
    39.6598     6415.00000
    39.6729     6485.00000
    39.6860     6397.00000
    39.6992     6499.00000
    39.7123     6404.00000
    39.7254     6558.00000
    39.7386     6321.00000
    39.7517     6685.00000
    39.7648     6648.00000
    39.7779     6596.00000
    39.7911     6553.00000
    39.8042     6620.00000
    39.8173     6547.00000
    39.8305     6385.00000
    39.8436     6500.00000
    39.8567     6433.00000
    39.8699     6536.00000
    39.8830     6468.00000
    39.8961     6410.00000
    39.9092     6360.00000
    39.9224     6383.00000
    39.9355     6494.00000
    39.9486     6481.00000
    39.9618     6462.00000
    39.9749     6443.00000
    39.9880     6395.00000
    40.0012     6518.00000
    40.0143     6461.00000
    40.0274     6421.00000
    40.0406     6549.00000
    40.0537     6481.00000
    40.0668     6529.00000
    40.0799     6373.00000
    40.0931     6527.00000
    40.1062     6545.00000
    40.1193     6614.00000
    40.1325     6706.00000
    40.1456     6788.00000
    40.1587     7081.00000
    40.1719     7157.00000
    40.1850     7519.00000
    40.1981     7492.00000
    40.2112     7460.00000
    40.2244     7520.00000
    40.2375     7825.00000
    40.2506     8062.00000
    40.2638     8394.00000
    40.2769     9044.00000
    40.2900     9442.00000
    40.3032     9830.00000
    40.3163     9786.00000
    40.3294     9560.00000
    40.3425     8981.00000
    40.3557     8479.00000
    40.3688     8181.00000
    40.3819     8126.00000
    40.3951     8130.00000
    40.4082     8148.00000
    40.4213     8201.00000
    40.4345     7733.00000
    40.4476     7458.00000
    40.4607     7069.00000
    40.4739     6753.00000
    40.4870     6639.00000
    40.5001     6737.00000
    40.5132     6827.00000
    40.5264     6638.00000
    40.5395     6618.00000
    40.5526     6607.00000
    40.5658     6560.00000
    40.5789     6467.00000
    40.5920     6536.00000
    40.6052     6498.00000
    40.6183     6402.00000
    40.6314     6571.00000
    40.6445     6455.00000
    40.6577     6372.00000
    40.6708     6542.00000
    40.6839     6530.00000
    40.6971     6641.00000
    40.7102     6549.00000
    40.7233     6701.00000
    40.7365     6530.00000
    40.7496     6353.00000
    40.7627     6598.00000
    40.7758     6507.00000
    40.7890     6647.00000
    40.8021     6512.00000
    40.8152     6495.00000
    40.8284     6490.00000
    40.8415     6540.00000
    40.8546     6372.00000
    40.8678     6493.00000
    40.8809     6592.00000
    40.8940     6516.00000
    40.9072     6554.00000
    40.9203     6744.00000
    40.9334     6662.00000
    40.9465     6664.00000
    40.9597     6688.00000
    40.9728     7076.00000
    40.9859     7236.00000
    40.9991     7274.00000
    41.0122     7620.00000
    41.0253     8291.00000
    41.0385     8566.00000
    41.0516     8331.00000
    41.0647     8594.00000
    41.0778     8843.00000
    41.0910     9229.00000
    41.1041     9794.00000
    41.1172    10813.00000
    41.1304    11424.00000
    41.1435    12018.00000
    41.1566    11933.00000
    41.1698    11496.00000
    41.1829    11022.00000
    41.1960    11164.00000
    41.2091    11238.00000
    41.2223    11516.00000
    41.2354    11319.00000
    41.2485    11017.00000
    41.2617    10275.00000
    41.2748     9624.00000
    41.2879     8987.00000
    41.3011     8477.00000
    41.3142     8434.00000
    41.3273     8026.00000
    41.3405     8133.00000
    41.3536     7858.00000
    41.3667     7394.00000
    41.3798     7279.00000
    41.3930     6858.00000
    41.4061     6647.00000
    41.4192     6755.00000
    41.4324     6739.00000
    41.4455     6747.00000
    41.4586     6547.00000
    41.4718     6473.00000
    41.4849     6559.00000
    41.4980     6562.00000
    41.5111     6551.00000
    41.5243     6284.00000
    41.5374     6497.00000
    41.5505     6627.00000
    41.5637     6561.00000
    41.5768     6414.00000
    41.5899     6615.00000
    41.6031     6359.00000
    41.6162     6496.00000
    41.6293     6417.00000
    41.6424     6559.00000
    41.6556     6639.00000
    41.6687     6435.00000
    41.6818     6281.00000
    41.6950     6285.00000
    41.7081     6332.00000
    41.7212     6457.00000
    41.7344     6484.00000
    41.7475     6430.00000
    41.7606     6374.00000
    41.7738     6459.00000
    41.7869     6438.00000
    41.8000     6446.00000
    41.8131     6242.00000
    41.8263     6388.00000
    41.8394     6534.00000
    41.8525     6489.00000
    41.8657     6463.00000
    41.8788     6352.00000
    41.8919     6394.00000
    41.9051     6529.00000
    41.9182     6636.00000
    41.9313     6480.00000
    41.9444     6480.00000
    41.9576     6445.00000
    41.9707     6501.00000
    41.9838     6477.00000
    41.9970     6446.00000
    42.0101     6448.00000
    42.0232     6512.00000
    42.0364     6411.00000
    42.0495     6503.00000
    42.0626     6433.00000
    42.0757     6285.00000
    42.0889     6483.00000
    42.1020     6438.00000
    42.1151     6426.00000
    42.1283     6479.00000
    42.1414     6507.00000
    42.1545     6473.00000
    42.1677     6414.00000
    42.1808     6484.00000
    42.1939     6492.00000
    42.2071     6258.00000
    42.2202     6148.00000
    42.2333     6474.00000
    42.2464     6407.00000
    42.2596     6341.00000
    42.2727     6295.00000
    42.2858     6585.00000
    42.2990     6409.00000
    42.3121     6351.00000
    42.3252     6315.00000
    42.3384     6520.00000
    42.3515     6575.00000
    42.3646     6422.00000
    42.3777     6458.00000
    42.3909     6320.00000
    42.4040     6305.00000
    42.4171     6362.00000
    42.4303     6277.00000
    42.4434     6372.00000
    42.4565     6311.00000
    42.4697     6468.00000
    42.4828     6343.00000
    42.4959     6381.00000
    42.5090     6152.00000
    42.5222     6401.00000
    42.5353     6527.00000
    42.5484     6439.00000
    42.5616     6334.00000
    42.5747     6319.00000
    42.5878     6390.00000
    42.6010     6332.00000
    42.6141     6356.00000
    42.6272     6345.00000
    42.6404     6490.00000
    42.6535     6447.00000
    42.6666     6497.00000
    42.6797     6559.00000
    42.6929     6369.00000
    42.7060     6459.00000
    42.7191     6379.00000
    42.7323     6156.00000
    42.7454     6278.00000
    42.7585     6394.00000
    42.7717     6330.00000
    42.7848     6455.00000
    42.7979     6265.00000
    42.8110     6309.00000
    42.8242     6304.00000
    42.8373     6287.00000
    42.8504     6359.00000
    42.8636     6301.00000
    42.8767     6370.00000
    42.8898     6251.00000
    42.9030     6456.00000
    42.9161     6577.00000
    42.9292     6593.00000
    42.9423     6313.00000
    42.9555     6195.00000
    42.9686     6220.00000
    42.9817     6407.00000
    42.9949     6410.00000
    43.0080     6538.00000
    43.0211     6328.00000
    43.0343     6378.00000
    43.0474     6348.00000
    43.0605     6323.00000
    43.0736     6398.00000
    43.0868     6489.00000
    43.0999     6365.00000
    43.1130     6514.00000
    43.1262     6546.00000
    43.1393     6415.00000
    43.1524     6405.00000
    43.1656     6428.00000
    43.1787     6238.00000
    43.1918     6292.00000
    43.2050     6273.00000
    43.2181     6386.00000
    43.2312     6251.00000
    43.2443     6219.00000
    43.2575     6421.00000
    43.2706     6485.00000
    43.2837     6315.00000
    43.2969     6299.00000
    43.3100     6490.00000
    43.3231     6570.00000
    43.3363     6415.00000
    43.3494     6508.00000
    43.3625     6503.00000
    43.3756     6491.00000
    43.3888     6294.00000
    43.4019     6336.00000
    43.4150     6387.00000
    43.4282     6465.00000
    43.4413     6285.00000
    43.4544     6372.00000
    43.4676     6457.00000
    43.4807     6581.00000
    43.4938     6585.00000
    43.5069     6545.00000
    43.5201     6731.00000
    43.5332     6958.00000
    43.5463     7007.00000
    43.5595     7224.00000
    43.5726     7551.00000
    43.5857     7669.00000
    43.5989     7784.00000
    43.6120     7612.00000
    43.6251     7474.00000
    43.6383     7523.00000
    43.6514     7361.00000
    43.6645     7120.00000
    43.6776     7250.00000
    43.6908     7161.00000
    43.7039     7220.00000
    43.7170     7184.00000
    43.7302     6956.00000
    43.7433     6920.00000
    43.7564     6819.00000
    43.7696     6621.00000
    43.7827     6572.00000
    43.7958     6593.00000
    43.8089     6545.00000
    43.8221     6636.00000
    43.8352     6491.00000
    43.8483     6408.00000
    43.8615     6342.00000
    43.8746     6447.00000
    43.8877     6377.00000
    43.9009     6349.00000
    43.9140     6487.00000
    43.9271     6509.00000
    43.9402     6343.00000
    43.9534     6375.00000
    43.9665     6400.00000
    43.9796     6340.00000
    43.9928     6217.00000
    44.0059     6396.00000
    44.0190     6395.00000
    44.0322     6496.00000
    44.0453     6516.00000
    44.0584     6608.00000
    44.0715     6569.00000
    44.0847     6484.00000
    44.0978     6684.00000
    44.1109     6588.00000
    44.1241     6879.00000
    44.1372     6613.00000
    44.1503     6574.00000
    44.1635     6534.00000
    44.1766     6468.00000
    44.1897     6342.00000
    44.2029     6530.00000
    44.2160     6687.00000
    44.2291     6452.00000
    44.2422     6530.00000
    44.2554     6531.00000
    44.2685     6361.00000
    44.2816     6433.00000
    44.2948     6489.00000
    44.3079     6469.00000
    44.3210     6342.00000
    44.3342     6492.00000
    44.3473     6476.00000
    44.3604     6425.00000
    44.3735     6684.00000
    44.3867     6466.00000
    44.3998     6551.00000
    44.4129     6487.00000
    44.4261     6702.00000
    44.4392     6600.00000
    44.4523     6683.00000
    44.4655     6670.00000
    44.4786     6734.00000
    44.4917     6918.00000
    44.5048     7149.00000
    44.5180     7172.00000
    44.5311     7532.00000
    44.5442     7574.00000
    44.5574     7951.00000
    44.5705     8759.00000
    44.5836     9329.00000
    44.5968    10300.00000
    44.6099    12030.00000
    44.6230    12667.00000
    44.6362    13350.00000
    44.6493    12974.00000
    44.6624    12009.00000
    44.6755    10994.00000
    44.6887    10317.00000
    44.7018     9635.00000
    44.7149     9473.00000
    44.7281     9628.00000
    44.7412     9710.00000
    44.7543     9813.00000
    44.7675     9792.00000
    44.7806     9215.00000
    44.7937     8626.00000
    44.8068     7853.00000
    44.8200     7428.00000
    44.8331     6921.00000
    44.8462     7031.00000
    44.8594     6731.00000
    44.8725     6555.00000
    44.8856     6687.00000
    44.8988     6730.00000
    44.9119     6728.00000
    44.9250     6556.00000
    44.9381     6442.00000
    44.9513     6682.00000
    44.9644     6511.00000
    44.9775     6563.00000
    44.9907     6379.00000
    45.0038     6286.00000
    45.0169     6324.00000
    45.0301     6288.00000
    45.0432     6330.00000
    45.0563     6437.00000
    45.0695     6270.00000
    45.0826     6234.00000
    45.0957     6384.00000
    45.1088     6315.00000
    45.1220     6344.00000
    45.1351     6480.00000
    45.1482     6398.00000
    45.1614     6532.00000
    45.1745     6315.00000
    45.1876     6334.00000
    45.2008     6453.00000
    45.2139     6474.00000
    45.2270     6408.00000
    45.2401     6143.00000
    45.2533     6466.00000
    45.2664     6420.00000
    45.2795     6453.00000
    45.2927     6377.00000
    45.3058     6275.00000
    45.3189     6532.00000
    45.3321     6278.00000
    45.3452     6435.00000
    45.3583     6455.00000
    45.3714     6437.00000
    45.3846     6373.00000
    45.3977     6437.00000
    45.4108     6392.00000
    45.4240     6253.00000
    45.4371     6424.00000
    45.4502     6420.00000
    45.4634     6365.00000
    45.4765     6529.00000
    45.4896     6277.00000
    45.5028     6295.00000
    45.5159     6486.00000
    45.5290     6410.00000
    45.5421     6322.00000
    45.5553     6290.00000
    45.5684     6382.00000
    45.5815     6475.00000
    45.5947     6231.00000
    45.6078     6433.00000
    45.6209     6492.00000
    45.6341     6479.00000
    45.6472     6414.00000
    45.6603     6254.00000
    45.6734     6303.00000
    45.6866     6477.00000
    45.6997     6332.00000
    45.7128     6331.00000
    45.7260     6371.00000
    45.7391     6396.00000
    45.7522     6585.00000
    45.7654     6474.00000
    45.7785     6372.00000
    45.7916     6405.00000
    45.8047     6456.00000
    45.8179     6442.00000
    45.8310     6459.00000
    45.8441     6772.00000
    45.8573     6677.00000
    45.8704     6559.00000
    45.8835     6722.00000
    45.8967     6722.00000
    45.9098     6893.00000
    45.9229     6922.00000
    45.9361     6797.00000
    45.9492     6750.00000
    45.9623     7036.00000
    45.9754     7090.00000
    45.9886     6933.00000
    46.0017     7240.00000
    46.0148     7001.00000
    46.0280     7243.00000
    46.0411     7566.00000
    46.0542     8113.00000
    46.0674     8852.00000
    46.0805    10205.00000
    46.0936    12269.00000
    46.1067    15312.00000
    46.1199    18037.00000
    46.1330    19588.00000
    46.1461    19385.00000
    46.1593    18361.00000
    46.1724    16044.00000
    46.1855    13982.00000
    46.1987    12183.00000
    46.2118    11781.00000
    46.2249    11904.00000
    46.2380    12874.00000
    46.2512    13393.00000
    46.2643    13611.00000
    46.2774    13291.00000
    46.2906    11956.00000
    46.3037    10754.00000
    46.3168     9937.00000
    46.3300     8649.00000
    46.3431     8104.00000
    46.3562     7503.00000
    46.3694     7291.00000
    46.3825     7193.00000
    46.3956     7118.00000
    46.4087     7090.00000
    46.4219     6956.00000
    46.4350     7221.00000
    46.4481     6974.00000
    46.4613     6797.00000
    46.4744     6544.00000
    46.4875     6640.00000
    46.5007     6615.00000
    46.5138     6314.00000
    46.5269     6716.00000
    46.5400     6742.00000
    46.5532     6633.00000
    46.5663     6504.00000
    46.5794     6474.00000
    46.5926     6397.00000
    46.6057     6571.00000
    46.6188     6665.00000
    46.6320     6519.00000
    46.6451     6650.00000
    46.6582     6528.00000
    46.6713     6377.00000
    46.6845     6477.00000
    46.6976     6576.00000
    46.7107     6613.00000
    46.7239     6432.00000
    46.7370     6361.00000
    46.7501     6547.00000
    46.7633     6392.00000
    46.7764     6542.00000
    46.7895     6546.00000
    46.8027     6569.00000
    46.8158     6340.00000
    46.8289     6484.00000
    46.8420     6530.00000
    46.8552     6458.00000
    46.8683     6465.00000
    46.8814     6486.00000
    46.8946     6448.00000
    46.9077     6465.00000
    46.9208     6437.00000
    46.9340     6529.00000
    46.9471     6559.00000
    46.9602     6590.00000
    46.9733     6494.00000
    46.9865     6409.00000
    46.9996     6429.00000
    47.0127     6346.00000
    47.0259     6356.00000
    47.0390     6426.00000
    47.0521     6485.00000
    47.0653     6461.00000
    47.0784     6279.00000
    47.0915     6383.00000
    47.1046     6425.00000
    47.1178     6601.00000
    47.1309     6472.00000
    47.1440     6346.00000
    47.1572     6426.00000
    47.1703     6595.00000
    47.1834     6474.00000
    47.1966     6459.00000
    47.2097     6494.00000
    47.2228     6394.00000
    47.2359     6461.00000
    47.2491     6372.00000
    47.2622     6422.00000
    47.2753     6553.00000
    47.2885     6521.00000
    47.3016     6567.00000
    47.3147     6816.00000
    47.3279     6616.00000
    47.3410     6572.00000
    47.3541     6823.00000
    47.3673     6799.00000
    47.3804     7073.00000
    47.3935     7202.00000
    47.4066     7424.00000
    47.4198     7765.00000
    47.4329     8338.00000
    47.4460     8929.00000
    47.4592     9020.00000
    47.4723     9054.00000
    47.4854     8875.00000
    47.4986     8968.00000
    47.5117     9110.00000
    47.5248     8999.00000
    47.5379     9231.00000
    47.5511    10590.00000
    47.5642    11917.00000
    47.5773    13702.00000
    47.5905    14434.00000
    47.6036    13430.00000
    47.6167    11757.00000
    47.6299    10345.00000
    47.6430     9017.00000
    47.6561     8327.00000
    47.6692     8488.00000
    47.6824     9043.00000
    47.6955     9489.00000
    47.7086    10144.00000
    47.7218    10150.00000
    47.7349     9511.00000
    47.7480     8486.00000
    47.7612     7968.00000
    47.7743     7430.00000
    47.7874     7185.00000
    47.8005     7090.00000
    47.8137     6894.00000
    47.8268     6957.00000
    47.8399     6874.00000
    47.8531     6960.00000
    47.8662     6941.00000
    47.8793     6911.00000
    47.8925     6829.00000
    47.9056     6980.00000
    47.9187     6777.00000
    47.9319     6911.00000
    47.9450     6841.00000
    47.9581     6918.00000
    47.9712     7094.00000
    47.9844     6980.00000
    47.9975     6991.00000
    48.0106     7128.00000
    48.0238     7374.00000
    48.0369     7265.00000
    48.0500     7352.00000
    48.0632     7562.00000
    48.0763     7835.00000
    48.0894     8219.00000
    48.1025     8910.00000
    48.1157     9757.00000
    48.1288    11006.00000
    48.1419    12608.00000
    48.1551    14665.00000
    48.1682    16337.00000
    48.1813    18037.00000
    48.1945    18539.00000
    48.2076    18100.00000
    48.2207    16834.00000
    48.2338    15331.00000
    48.2470    14116.00000
    48.2601    12991.00000
    48.2732    12512.00000
    48.2864    12552.00000
    48.2995    12670.00000
    48.3126    13073.00000
    48.3258    12908.00000
    48.3389    12197.00000
    48.3520    11577.00000
    48.3652    10752.00000
    48.3783     9697.00000
    48.3914     8780.00000
    48.4045     8340.00000
    48.4177     7768.00000
    48.4308     7404.00000
    48.4439     7076.00000
    48.4571     7156.00000
    48.4702     6974.00000
    48.4833     7011.00000
    48.4965     6804.00000
    48.5096     6724.00000
    48.5227     6691.00000
    48.5358     6573.00000
    48.5490     6681.00000
    48.5621     6495.00000
    48.5752     6649.00000
    48.5884     6638.00000
    48.6015     6636.00000
    48.6146     6796.00000
    48.6278     6827.00000
    48.6409     6701.00000
    48.6540     6709.00000
    48.6671     6830.00000
    48.6803     7042.00000
    48.6934     7136.00000
    48.7065     7292.00000
    48.7197     7821.00000
    48.7328     7821.00000
    48.7459     8149.00000
    48.7591     8101.00000
    48.7722     7765.00000
    48.7853     7728.00000
    48.7985     7755.00000
    48.8116     7779.00000
    48.8247     7788.00000
    48.8378     7696.00000
    48.8510     7862.00000
    48.8641     7853.00000
    48.8772     7797.00000
    48.8904     7556.00000
    48.9035     7568.00000
    48.9166     7374.00000
    48.9298     7115.00000
    48.9429     7285.00000
    48.9560     7384.00000
    48.9691     7042.00000
    48.9823     7142.00000
    48.9954     7025.00000
    49.0085     7263.00000
    49.0217     7065.00000
    49.0348     6793.00000
    49.0479     6851.00000
    49.0611     6983.00000
    49.0742     7163.00000
    49.0873     7120.00000
    49.1004     7123.00000
    49.1136     7428.00000
    49.1267     7547.00000
    49.1398     7596.00000
    49.1530     7811.00000
    49.1661     8299.00000
    49.1792     8773.00000
    49.1924     9987.00000
    49.2055    11248.00000
    49.2186    12777.00000
    49.2318    14369.00000
    49.2449    15430.00000
    49.2580    15674.00000
    49.2711    14639.00000
    49.2843    13919.00000
    49.2974    12766.00000
    49.3105    11837.00000
    49.3237    11394.00000
    49.3368    11709.00000
    49.3499    12314.00000
    49.3631    13536.00000
    49.3762    14611.00000
    49.3893    14863.00000
    49.4024    14253.00000
    49.4156    12660.00000
    49.4287    11019.00000
    49.4418     9910.00000
    49.4550     9024.00000
    49.4681     8448.00000
    49.4812     8508.00000
    49.4944     8621.00000
    49.5075     8725.00000
    49.5206     8934.00000
    49.5337     8591.00000
    49.5469     8218.00000
    49.5600     7609.00000
    49.5731     7377.00000
    49.5863     7204.00000
    49.5994     6943.00000
    49.6125     6997.00000
    49.6257     6930.00000
    49.6388     6942.00000
    49.6519     6732.00000
    49.6651     6734.00000
    49.6782     6807.00000
    49.6913     6776.00000
    49.7044     6787.00000
    49.7176     6892.00000
    49.7307     6867.00000
    49.7438     7019.00000
    49.7570     7055.00000
    49.7701     7021.00000
    49.7832     7072.00000
    49.7964     7187.00000
    49.8095     7185.00000
    49.8226     7245.00000
    49.8357     7347.00000
    49.8489     7875.00000
    49.8620     8133.00000
    49.8751     8691.00000
    49.8883     9742.00000
    49.9014    10983.00000
    49.9145    13008.00000
    49.9277    15262.00000
    49.9408    17455.00000
    49.9539    19018.00000
    49.9670    19086.00000
    49.9802    17798.00000
    49.9933    15713.00000
    50.0064    13723.00000
    50.0196    11943.00000
    50.0327    11067.00000
    50.0458    11374.00000
    50.0590    12032.00000
    50.0721    12591.00000
    50.0852    13069.00000
    50.0984    13395.00000
    50.1115    12603.00000
    50.1246    11277.00000
    50.1377    10100.00000
    50.1509     8900.00000
    50.1640     8198.00000
    50.1771     7753.00000
    50.1903     7572.00000
    50.2034     7184.00000
    50.2165     7073.00000
    50.2297     6994.00000
    50.2428     6842.00000
    50.2559     6864.00000
    50.2690     6780.00000
    50.2822     6695.00000
    50.2953     6870.00000
    50.3084     6626.00000
    50.3216     6739.00000
    50.3347     6654.00000
    50.3478     6581.00000
    50.3610     6723.00000
    50.3741     6589.00000
    50.3872     6836.00000
    50.4003     6697.00000
    50.4135     6736.00000
    50.4266     7007.00000
    50.4397     6846.00000
    50.4529     6790.00000
    50.4660     6967.00000
    50.4791     7153.00000
    50.4923     7129.00000
    50.5054     7606.00000
    50.5185     7645.00000
    50.5317     7615.00000
    50.5448     7635.00000
    50.5579     7580.00000
    50.5710     7495.00000
    50.5842     7658.00000
    50.5973     8153.00000
    50.6104     8267.00000
    50.6236     8808.00000
    50.6367     8901.00000
    50.6498     8862.00000
    50.6630     8743.00000
    50.6761     8728.00000
    50.6892     8561.00000
    50.7023     8686.00000
    50.7155     8943.00000
    50.7286     9518.00000
    50.7417     9728.00000
    50.7549     9948.00000
    50.7680    10012.00000
    50.7811     9748.00000
    50.7943     9055.00000
    50.8074     8665.00000
    50.8205     8087.00000
    50.8336     7824.00000
    50.8468     7937.00000
    50.8599     7935.00000
    50.8730     7918.00000
    50.8862     7808.00000
    50.8993     7916.00000
    50.9124     7691.00000
    50.9256     7426.00000
    50.9387     7109.00000
    50.9518     6947.00000
    50.9649     6952.00000
    50.9781     6828.00000
    50.9912     6639.00000
    51.0043     6642.00000
    51.0175     6520.00000
    51.0306     6496.00000
    51.0437     6589.00000
    51.0569     6588.00000
    51.0700     6514.00000
    51.0831     6536.00000
    51.0963     6446.00000
    51.1094     6486.00000
    51.1225     6770.00000
    51.1356     6548.00000
    51.1488     6529.00000
    51.1619     6571.00000
    51.1750     6654.00000
    51.1882     6514.00000
    51.2013     6323.00000
    51.2144     6541.00000
    51.2276     6311.00000
    51.2407     6489.00000
    51.2538     6481.00000
    51.2669     6469.00000
    51.2801     6457.00000
    51.2932     6495.00000
    51.3063     6509.00000
    51.3195     6547.00000
    51.3326     6587.00000
    51.3457     6458.00000
    51.3589     6499.00000
    51.3720     6404.00000
    51.3851     6575.00000
    51.3982     6321.00000
    51.4114     6638.00000
    51.4245     6551.00000
    51.4376     6471.00000
    51.4508     6613.00000
    51.4639     6517.00000
    51.4770     6676.00000
    51.4902     6556.00000
    51.5033     6590.00000
    51.5164     6530.00000
    51.5296     6644.00000
    51.5427     6692.00000
    51.5558     6652.00000
    51.5689     6722.00000
    51.5821     6888.00000
    51.5952     6766.00000
    51.6083     7052.00000
    51.6215     7001.00000
    51.6346     7364.00000
    51.6477     7647.00000
    51.6609     8221.00000
    51.6740     9084.00000
    51.6871    10584.00000
    51.7002    12372.00000
    51.7134    14351.00000
    51.7265    15940.00000
    51.7396    15720.00000
    51.7528    13808.00000
    51.7659    12103.00000
    51.7790    10462.00000
    51.7922     9566.00000
    51.8053     9062.00000
    51.8184     9242.00000
    51.8315    10213.00000
    51.8447    11016.00000
    51.8578    11927.00000
    51.8709    12404.00000
    51.8841    11993.00000
    51.8972    10720.00000
    51.9103     9753.00000
    51.9235     8705.00000
    51.9366     7923.00000
    51.9497     7421.00000
    51.9628     7340.00000
    51.9760     7220.00000
    51.9891     7241.00000
    52.0022     7373.00000
    52.0154     7128.00000
    52.0285     7191.00000
    52.0416     7137.00000
    52.0548     6704.00000
    52.0679     6756.00000
    52.0810     6456.00000
    52.0942     6598.00000
    52.1073     6513.00000
    52.1204     6500.00000
    52.1335     6509.00000
    52.1467     6562.00000
    52.1598     6601.00000
    52.1729     6470.00000
    52.1861     6397.00000
    52.1992     6466.00000
    52.2123     6558.00000
    52.2255     6465.00000
    52.2386     6336.00000
    52.2517     6387.00000
    52.2648     6525.00000
    52.2780     6511.00000
    52.2911     6495.00000
    52.3042     6510.00000
    52.3174     6444.00000
    52.3305     6440.00000
    52.3436     6442.00000
    52.3568     6454.00000
    52.3699     6512.00000
    52.3830     6472.00000
    52.3961     6549.00000
    52.4093     6605.00000
    52.4224     6424.00000
    52.4355     6440.00000
    52.4487     6525.00000
    52.4618     6488.00000
    52.4749     6589.00000
    52.4881     6242.00000
    52.5012     6494.00000
    52.5143     6333.00000
    52.5275     6324.00000
    52.5406     6382.00000
    52.5537     6322.00000
    52.5668     6379.00000
    52.5800     6513.00000
    52.5931     6434.00000
    52.6062     6803.00000
    52.6194     6828.00000
    52.6325     6711.00000
    52.6456     7001.00000
    52.6588     7538.00000
    52.6719     8000.00000
    52.6850     8242.00000
    52.6981     8092.00000
    52.7113     7672.00000
    52.7244     7172.00000
    52.7375     6929.00000
    52.7507     6699.00000
    52.7638     6706.00000
    52.7769     6888.00000
    52.7901     6961.00000
    52.8032     7099.00000
    52.8163     7197.00000
    52.8294     7246.00000
    52.8426     7218.00000
    52.8557     7087.00000
    52.8688     6868.00000
    52.8820     6727.00000
    52.8951     6639.00000
    52.9082     6641.00000
    52.9214     6273.00000
    52.9345     6271.00000
    52.9476     6397.00000
    52.9608     6398.00000
    52.9739     6358.00000
    52.9870     6342.00000
    53.0001     6306.00000
    53.0133     6307.00000
    53.0264     6480.00000
    53.0395     6488.00000
    53.0527     6320.00000
    53.0658     6369.00000
    53.0789     6463.00000
    53.0921     6397.00000
    53.1052     6464.00000
    53.1183     6570.00000
    53.1314     6460.00000
    53.1446     6368.00000
    53.1577     6336.00000
    53.1708     6368.00000
    53.1840     6316.00000
    53.1971     6434.00000
    53.2102     6326.00000
    53.2234     6376.00000
    53.2365     6311.00000
    53.2496     6394.00000
    53.2627     6335.00000
    53.2759     6390.00000
    53.2890     6474.00000
    53.3021     6327.00000
    53.3153     6432.00000
    53.3284     6621.00000
    53.3415     6516.00000
    53.3547     6559.00000
    53.3678     6597.00000
    53.3809     6644.00000
    53.3941     6560.00000
    53.4072     6628.00000
    53.4203     6354.00000
    53.4334     6463.00000
    53.4466     6550.00000
    53.4597     6319.00000
    53.4728     6303.00000
    53.4860     6305.00000
    53.4991     6288.00000
    53.5122     6308.00000
    53.5254     6346.00000
    53.5385     6246.00000
    53.5516     6257.00000
    53.5647     6511.00000
    53.5779     6351.00000
    53.5910     6339.00000
    53.6041     6242.00000
    53.6173     6350.00000
    53.6304     6111.00000
    53.6435     6268.00000
    53.6567     6256.00000
    53.6698     6411.00000
    53.6829     6393.00000
    53.6960     6226.00000
    53.7092     6252.00000
    53.7223     6377.00000
    53.7354     6158.00000
    53.7486     6242.00000
    53.7617     6293.00000
    53.7748     6323.00000
    53.7880     6373.00000
    53.8011     6302.00000
    53.8142     6117.00000
    53.8274     6370.00000
    53.8405     6333.00000
    53.8536     6373.00000
    53.8667     6413.00000
    53.8799     6583.00000
    53.8930     6460.00000
    53.9061     6396.00000
    53.9193     6461.00000
    53.9324     6212.00000
    53.9455     6246.00000
    53.9587     6079.00000
    53.9718     6445.00000
    53.9849     6464.00000
    53.9980     6253.00000
    54.0112     6441.00000
    54.0243     6409.00000
    54.0374     6371.00000
    54.0506     6524.00000
    54.0637     6440.00000
    54.0768     6205.00000
    54.0900     6302.00000
    54.1031     6313.00000
    54.1162     6334.00000
    54.1293     6373.00000
    54.1425     6323.00000
    54.1556     6300.00000
    54.1687     6185.00000
    54.1819     6243.00000
    54.1950     6169.00000
    54.2081     6229.00000
    54.2213     6326.00000
    54.2344     6267.00000
    54.2475     6275.00000
    54.2607     6366.00000
    54.2738     6246.00000
    54.2869     6270.00000
    54.3000     6171.00000
    54.3132     6289.00000
    54.3263     6361.00000
    54.3394     6362.00000
    54.3526     6316.00000
    54.3657     6230.00000
    54.3788     6386.00000
    54.3920     6304.00000
    54.4051     6135.00000
    54.4182     6224.00000
    54.4313     6216.00000
    54.4445     6223.00000
    54.4576     6203.00000
    54.4707     6369.00000
    54.4839     6180.00000
    54.4970     6221.00000
    54.5101     6216.00000
    54.5233     6250.00000
    54.5364     6291.00000
    54.5495     6183.00000
    54.5626     6375.00000
    54.5758     6215.00000
    54.5889     6204.00000
    54.6020     6252.00000
    54.6152     6263.00000
    54.6283     6203.00000
    54.6414     6052.00000
    54.6546     6406.00000
    54.6677     6188.00000
    54.6808     6096.00000
    54.6940     6460.00000
    54.7071     6253.00000
    54.7202     6091.00000
    54.7333     6224.00000
    54.7465     6291.00000
    54.7596     6317.00000
    54.7727     6320.00000
    54.7859     6273.00000
    54.7990     6430.00000
    54.8121     6256.00000
    54.8253     6347.00000
    54.8384     6448.00000
    54.8515     6428.00000
    54.8646     6320.00000
    54.8778     6382.00000
    54.8909     6326.00000
    54.9040     6290.00000
    54.9172     6296.00000
    54.9303     6207.00000
    54.9434     6423.00000
    54.9566     6329.00000
    54.9697     6358.00000
    54.9828     6422.00000
    54.9959     6391.00000
    55.0091     6273.00000
    55.0222     6369.00000
    55.0353     6263.00000
    55.0485     6235.00000
    55.0616     6164.00000
    55.0747     6192.00000
    55.0879     6276.00000
    55.1010     6312.00000
    55.1141     6266.00000
    55.1272     6379.00000
    55.1404     6282.00000
    55.1535     6370.00000
    55.1666     6323.00000
    55.1798     6352.00000
    55.1929     6370.00000
    55.2060     6166.00000
    55.2192     6239.00000
    55.2323     6274.00000
    55.2454     6238.00000
    55.2586     6377.00000
    55.2717     6225.00000
    55.2848     6383.00000
    55.2979     6383.00000
    55.3111     6401.00000
    55.3242     6383.00000
    55.3373     6265.00000
    55.3505     6331.00000
    55.3636     6424.00000
    55.3767     6479.00000
    55.3899     6471.00000
    55.4030     6573.00000
    55.4161     6442.00000
    55.4292     6752.00000
    55.4424     6636.00000
    55.4555     6826.00000
    55.4686     7024.00000
    55.4818     7413.00000
    55.4949     7988.00000
    55.5080     8305.00000
    55.5212     8613.00000
    55.5343     8343.00000
    55.5474     8090.00000
    55.5605     8002.00000
    55.5737     7595.00000
    55.5868     7402.00000
    55.5999     7126.00000
    55.6131     7391.00000
    55.6262     7347.00000
    55.6393     7474.00000
    55.6525     8067.00000
    55.6656     8266.00000
    55.6787     8457.00000
    55.6918     8492.00000
    55.7050     8417.00000
    55.7181     8513.00000
    55.7312     8900.00000
    55.7444     8942.00000
    55.7575     9570.00000
    55.7706    10263.00000
    55.7838    11043.00000
    55.7969    11962.00000
    55.8100    12306.00000
    55.8232    12533.00000
    55.8363    12202.00000
    55.8494    11405.00000
    55.8625    10647.00000
    55.8757     9761.00000
    55.8888     9041.00000
    55.9019     8872.00000
    55.9151     8910.00000
    55.9282     9192.00000
    55.9413     9312.00000
    55.9545     9397.00000
    55.9676     9606.00000
    55.9807     9301.00000
    55.9938     9195.00000
    56.0070     8458.00000
    56.0201     8188.00000
    56.0332     7712.00000
    56.0464     7573.00000
    56.0595     7412.00000
    56.0726     7435.00000
    56.0858     7163.00000
    56.0989     7375.00000
    56.1120     7113.00000
    56.1251     7042.00000
    56.1383     7145.00000
    56.1514     6970.00000
    56.1645     6883.00000
    56.1777     6658.00000
    56.1908     6776.00000
    56.2039     6710.00000
    56.2171     6590.00000
    56.2302     6901.00000
    56.2433     6929.00000
    56.2565     6871.00000
    56.2696     6922.00000
    56.2827     7050.00000
    56.2958     7099.00000
    56.3090     7259.00000
    56.3221     7235.00000
    56.3352     7638.00000
    56.3484     8195.00000
    56.3615     8572.00000
    56.3746     9076.00000
    56.3878     9368.00000
    56.4009     9424.00000
    56.4140     8776.00000
    56.4271     8363.00000
    56.4403     7908.00000
    56.4534     7824.00000
    56.4665     7195.00000
    56.4797     7542.00000
    56.4928     7757.00000
    56.5059     7993.00000
    56.5191     8122.00000
    56.5322     8268.00000
    56.5453     8246.00000
    56.5584     8248.00000
    56.5716     7939.00000
    56.5847     7809.00000
    56.5978     7809.00000
    56.6110     7469.00000
    56.6241     7721.00000
    56.6372     7889.00000
    56.6504     8335.00000
    56.6635     9116.00000
    56.6766     9943.00000
    56.6898    10563.00000
    56.7029    10819.00000
    56.7160    10757.00000
    56.7291    10406.00000
    56.7423     9593.00000
    56.7554     8897.00000
    56.7685     8207.00000
    56.7817     7790.00000
    56.7948     7768.00000
    56.8079     7789.00000
    56.8211     8013.00000
    56.8342     8297.00000
    56.8473     8565.00000
    56.8604     8661.00000
    56.8736     8574.00000
    56.8867     8269.00000
    56.8998     8121.00000
    56.9130     7609.00000
    56.9261     7519.00000
    56.9392     7201.00000
    56.9524     7146.00000
    56.9655     7185.00000
    56.9786     7129.00000
    56.9917     7010.00000
    57.0049     6974.00000
    57.0180     7013.00000
    57.0311     6925.00000
    57.0443     6688.00000
    57.0574     6742.00000
    57.0705     6816.00000
    57.0837     6847.00000
    57.0968     6705.00000
    57.1099     6846.00000
    57.1231     6524.00000
    57.1362     6576.00000
    57.1493     6727.00000
    57.1624     6644.00000
    57.1756     6517.00000
    57.1887     6518.00000
    57.2018     6587.00000
    57.2150     6669.00000
    57.2281     6508.00000
    57.2412     6480.00000
    57.2544     6438.00000
    57.2675     6487.00000
    57.2806     6551.00000
    57.2937     6479.00000
    57.3069     6347.00000
    57.3200     6495.00000
    57.3331     6382.00000
    57.3463     6363.00000
    57.3594     6305.00000
    57.3725     6278.00000
    57.3857     6487.00000
    57.3988     6377.00000
    57.4119     6201.00000
    57.4250     6402.00000
    57.4382     6647.00000
    57.4513     6288.00000
    57.4644     6317.00000
    57.4776     6492.00000
    57.4907     6494.00000
    57.5038     6325.00000
    57.5170     6246.00000
    57.5301     6361.00000
    57.5432     6325.00000
    57.5564     6113.00000
    57.5695     6209.00000
    57.5826     6410.00000
    57.5957     6406.00000
    57.6089     6520.00000
    57.6220     6456.00000
    57.6351     6439.00000
    57.6483     6528.00000
    57.6614     6666.00000
    57.6745     6548.00000
    57.6877     6639.00000
    57.7008     6656.00000
    57.7139     6766.00000
    57.7270     7008.00000
    57.7402     6862.00000
    57.7533     7240.00000
    57.7664     7661.00000
    57.7796     7821.00000
    57.7927     8512.00000
    57.8058     8720.00000
    57.8190     9148.00000
    57.8321     9449.00000
    57.8452     9787.00000
    57.8583     9611.00000
    57.8715     9521.00000
    57.8846     9479.00000
    57.8977     9271.00000
    57.9109     9421.00000
    57.9240     9772.00000
    57.9371     9913.00000
    57.9503    10501.00000
    57.9634    10882.00000
    57.9765    10979.00000
    57.9897    10633.00000
    58.0028    10342.00000
    58.0159    10082.00000
    58.0290     9554.00000
    58.0422     8763.00000
    58.0553     8480.00000
    58.0684     8223.00000
    58.0816     8111.00000
    58.0947     8080.00000
    58.1078     8168.00000
    58.1210     8117.00000
    58.1341     7995.00000
    58.1472     7907.00000
    58.1603     7582.00000
    58.1735     7468.00000
    58.1866     7277.00000
    58.1997     6875.00000
    58.2129     6644.00000
    58.2260     6648.00000
    58.2391     6519.00000
    58.2523     6572.00000
    58.2654     6317.00000
    58.2785     6586.00000
    58.2916     6601.00000
    58.3048     6541.00000
    58.3179     6596.00000
    58.3310     6256.00000
    58.3442     6418.00000
    58.3573     6403.00000
    58.3704     6156.00000
    58.3836     6434.00000
    58.3967     6347.00000
    58.4098     6703.00000
    58.4230     6407.00000
    58.4361     6329.00000
    58.4492     6312.00000
    58.4623     6550.00000
    58.4755     6525.00000
    58.4886     6342.00000
    58.5017     6472.00000
    58.5149     6489.00000
    58.5280     6441.00000
    58.5411     6573.00000
    58.5543     6706.00000
    58.5674     6644.00000
    58.5805     6934.00000
    58.5936     6989.00000
    58.6068     7155.00000
    58.6199     7404.00000
    58.6330     7577.00000
    58.6462     7714.00000
    58.6593     7839.00000
    58.6724     7674.00000
    58.6856     7705.00000
    58.6987     7547.00000
    58.7118     7399.00000
    58.7249     7398.00000
    58.7381     7396.00000
    58.7512     7255.00000
    58.7643     7461.00000
    58.7775     7515.00000
    58.7906     8070.00000
    58.8037     8273.00000
    58.8169     8894.00000
    58.8300     8951.00000
    58.8431     9357.00000
    58.8562     9808.00000
    58.8694     9446.00000
    58.8825     9173.00000
    58.8956     8909.00000
    58.9088     8785.00000
    58.9219     9078.00000
    58.9350     9309.00000
    58.9482     9800.00000
    58.9613    10218.00000
    58.9744    10234.00000
    58.9876    10515.00000
    59.0007    10981.00000
    59.0138    10874.00000
    59.0269    10940.00000
    59.0401    10778.00000
    59.0532    10601.00000
    59.0663    10450.00000
    59.0795    10247.00000
    59.0926    10051.00000
    59.1057     9722.00000
    59.1189     9360.00000
    59.1320     9101.00000
    59.1451     8964.00000
    59.1582     8864.00000
    59.1714     8795.00000
    59.1845     8799.00000
    59.1976     9089.00000
    59.2108     9316.00000
    59.2239     9578.00000
    59.2370     9915.00000
    59.2502    10054.00000
    59.2633    10279.00000
    59.2764    10371.00000
    59.2895     9992.00000
    59.3027     9667.00000
    59.3158     9099.00000
    59.3289     8566.00000
    59.3421     7928.00000
    59.3552     7757.00000
    59.3683     7642.00000
    59.3815     7595.00000
    59.3946     7547.00000
    59.4077     7781.00000
    59.4208     7940.00000
    59.4340     7735.00000
    59.4471     7905.00000
    59.4602     7871.00000
    59.4734     7658.00000
    59.4865     7644.00000
    59.4996     7187.00000
    59.5128     7093.00000
    59.5259     6977.00000
    59.5390     6703.00000
    59.5522     6670.00000
    59.5653     6528.00000
    59.5784     6452.00000
    59.5915     6327.00000
    59.6047     6400.00000
    59.6178     6271.00000
    59.6309     6421.00000
    59.6441     6435.00000
    59.6572     6264.00000
    59.6703     6410.00000
    59.6835     6237.00000
    59.6966     6417.00000
    59.7097     6244.00000
    59.7228     6394.00000
    59.7360     6350.00000
    59.7491     6423.00000
    59.7622     6481.00000
    59.7754     6512.00000
    59.7885     6294.00000
    59.8016     6356.00000
    59.8148     6445.00000
    59.8279     6381.00000
    59.8410     6468.00000
    59.8541     6597.00000
    59.8673     6604.00000
    59.8804     6621.00000
    59.8935     6833.00000
    59.9067     6612.00000
    59.9198     7022.00000
    59.9329     7169.00000
    59.9461     6987.00000
    59.9592     7264.00000
    59.9723     7859.00000
    59.9855     8308.00000
    59.9986     9231.00000
    60.0117    10185.00000
    60.0248    11174.00000
    60.0380    12318.00000
    60.0511    12428.00000
    60.0642    11915.00000
    60.0774    10678.00000
    60.0905     9873.00000
    60.1036     8814.00000
    60.1168     8307.00000
    60.1299     8026.00000
    60.1430     8017.00000
    60.1561     8065.00000
    60.1693     8467.00000
    60.1824     8843.00000
    60.1955     9083.00000
    60.2087     9229.00000
    60.2218     9479.00000
    60.2349     8802.00000
    60.2481     8372.00000
    60.2612     7702.00000
    60.2743     7477.00000
    60.2874     7011.00000
    60.3006     6857.00000
    60.3137     6800.00000
    60.3268     6635.00000
    60.3400     6718.00000
    60.3531     6427.00000
    60.3662     6487.00000
    60.3794     6483.00000
    60.3925     6497.00000
    60.4056     6526.00000
    60.4188     6510.00000
    60.4319     6438.00000
    60.4450     6385.00000
    60.4581     6303.00000
    60.4713     6448.00000
    60.4844     6473.00000
    60.4975     6369.00000
    60.5107     6568.00000
    60.5238     6634.00000
    60.5369     6655.00000
    60.5501     6675.00000
    60.5632     6857.00000
    60.5763     7052.00000
    60.5894     7697.00000
    60.6026     8027.00000
    60.6157     8649.00000
    60.6288     8903.00000
    60.6420     8952.00000
    60.6551     8843.00000
    60.6682     8321.00000
    60.6814     7858.00000
    60.6945     7508.00000
    60.7076     7187.00000
    60.7207     7470.00000
    60.7339     7293.00000
    60.7470     7383.00000
    60.7601     7466.00000
    60.7733     7624.00000
    60.7864     7913.00000
    60.7995     7895.00000
    60.8127     7787.00000
    60.8258     7603.00000
    60.8389     7467.00000
    60.8521     7186.00000
    60.8652     7076.00000
    60.8783     6884.00000
    60.8914     6843.00000
    60.9046     6866.00000
    60.9177     6854.00000
    60.9308     6701.00000
    60.9440     6660.00000
    60.9571     6575.00000
    60.9702     6581.00000
    60.9834     6563.00000
    60.9965     6484.00000
    61.0096     6594.00000
    61.0227     6436.00000
    61.0359     6600.00000
    61.0490     6448.00000
    61.0621     6560.00000
    61.0753     6508.00000
    61.0884     6558.00000
    61.1015     6514.00000
    61.1147     6593.00000
    61.1278     6761.00000
    61.1409     6795.00000
    61.1540     6763.00000
    61.1672     6908.00000
    61.1803     7050.00000
    61.1934     7135.00000
    61.2066     7542.00000
    61.2197     8157.00000
    61.2328     8828.00000
    61.2460     9502.00000
    61.2591    10519.00000
    61.2722    11914.00000
    61.2854    12738.00000
    61.2985    13771.00000
    61.3116    14062.00000
    61.3247    13721.00000
    61.3379    13130.00000
    61.3510    12339.00000
    61.3641    11397.00000
    61.3773    10621.00000
    61.3904     9875.00000
    61.4035     9497.00000
    61.4167     9355.00000
    61.4298     9521.00000
    61.4429     9718.00000
    61.4560    10159.00000
    61.4692    10402.00000
    61.4823    10154.00000
    61.4954     9869.00000
    61.5086     9819.00000
    61.5217     9324.00000
    61.5348     8780.00000
    61.5480     8527.00000
    61.5611     7825.00000
    61.5742     7391.00000
    61.5873     7301.00000
    61.6005     6928.00000
    61.6136     6993.00000
    61.6267     7213.00000
    61.6399     7145.00000
    61.6530     7225.00000
    61.6661     7648.00000
    61.6793     7701.00000
    61.6924     7824.00000
    61.7055     7409.00000
    61.7187     7262.00000
    61.7318     6988.00000
    61.7449     6937.00000
    61.7580     6702.00000
    61.7712     6596.00000
    61.7843     6582.00000
    61.7974     6490.00000
    61.8106     6755.00000
    61.8237     6786.00000
    61.8368     6959.00000
    61.8500     7140.00000
    61.8631     7051.00000
    61.8762     6996.00000
    61.8893     6780.00000
    61.9025     6599.00000
    61.9156     6413.00000
    61.9287     6366.00000
    61.9419     6327.00000
    61.9550     6223.00000
    61.9681     6244.00000
    61.9813     6277.00000
    61.9944     6167.00000
    62.0075     6197.00000
    62.0206     6314.00000
    62.0338     6316.00000
    62.0469     6213.00000
    62.0600     6083.00000
    62.0732     6109.00000
    62.0863     6001.00000
    62.0994     6237.00000
    62.1126     6096.00000
    62.1257     6007.00000
    62.1388     6276.00000
    62.1520     6143.00000
    62.1651     6096.00000
    62.1782     6137.00000
    62.1913     6037.00000
    62.2045     6037.00000
    62.2176     6303.00000
    62.2307     6178.00000
    62.2439     6007.00000
    62.2570     6209.00000
    62.2701     6072.00000
    62.2833     5922.00000
    62.2964     5969.00000
    62.3095     5955.00000
    62.3226     6171.00000
    62.3358     6177.00000
    62.3489     6118.00000
    62.3620     6048.00000
    62.3752     6112.00000
    62.3883     6204.00000
    62.4014     6196.00000
    62.4146     6163.00000
    62.4277     6109.00000
    62.4408     6254.00000
    62.4539     6167.00000
    62.4671     6107.00000
    62.4802     6197.00000
    62.4933     6146.00000
    62.5065     5950.00000
    62.5196     6138.00000
    62.5327     5913.00000
    62.5459     6030.00000
    62.5590     6057.00000
    62.5721     6043.00000
    62.5852     6073.00000
    62.5984     5991.00000
    62.6115     6039.00000
    62.6246     6176.00000
    62.6378     6175.00000
    62.6509     6078.00000
    62.6640     6051.00000
    62.6772     6244.00000
    62.6903     6147.00000
    62.7034     6139.00000
    62.7166     6075.00000
    62.7297     6131.00000
    62.7428     6053.00000
    62.7559     6315.00000
    62.7691     6143.00000
    62.7822     6038.00000
    62.7953     6105.00000
    62.8085     6072.00000
    62.8216     6197.00000
    62.8347     6292.00000
    62.8479     6221.00000
    62.8610     6014.00000
    62.8741     6086.00000
    62.8872     6091.00000
    62.9004     6182.00000
    62.9135     6342.00000
    62.9266     6362.00000
    62.9398     6083.00000
    62.9529     6102.00000
    62.9660     6166.00000
    62.9792     6242.00000
    62.9923     6014.00000
    63.0054     6085.00000
    63.0185     6305.00000
    63.0317     6325.00000
    63.0448     6228.00000
    63.0579     6241.00000
    63.0711     6037.00000
    63.0842     6177.00000
    63.0973     6336.00000
    63.1105     6058.00000
    63.1236     6166.00000
    63.1367     6324.00000
    63.1499     6259.00000
    63.1630     6190.00000
    63.1761     6310.00000
    63.1892     6347.00000
    63.2024     6356.00000
    63.2155     6318.00000
    63.2286     6370.00000
    63.2418     6352.00000
    63.2549     6398.00000
    63.2680     6708.00000
    63.2812     6905.00000
    63.2943     6942.00000
    63.3074     7252.00000
    63.3205     7360.00000
    63.3337     7318.00000
    63.3468     7573.00000
    63.3599     7390.00000
    63.3731     7392.00000
    63.3862     7091.00000
    63.3993     6979.00000
    63.4125     6915.00000
    63.4256     6919.00000
    63.4387     6831.00000
    63.4518     7058.00000
    63.4650     7008.00000
    63.4781     7215.00000
    63.4912     7646.00000
    63.5044     7806.00000
    63.5175     8333.00000
    63.5306     8530.00000
    63.5438     8306.00000
    63.5569     8220.00000
    63.5700     7924.00000
    63.5831     7473.00000
    63.5963     7068.00000
    63.6094     7011.00000
    63.6225     6881.00000
    63.6357     6576.00000
    63.6488     6697.00000
    63.6619     6685.00000
    63.6751     6683.00000
    63.6882     7020.00000
    63.7013     7246.00000
    63.7145     7362.00000
    63.7276     7225.00000
    63.7407     7151.00000
    63.7538     6824.00000
    63.7670     6668.00000
    63.7801     6454.00000
    63.7932     6592.00000
    63.8064     6242.00000
    63.8195     6346.00000
    63.8326     6136.00000
    63.8458     6245.00000
    63.8589     6343.00000
    63.8720     6181.00000
    63.8851     6254.00000
    63.8983     6424.00000
    63.9114     6251.00000
    63.9245     6290.00000
    63.9377     6241.00000
    63.9508     6108.00000
    63.9639     6135.00000
    63.9771     6045.00000
    63.9902     6001.00000
    64.0033     6138.00000
    64.0164     5866.00000
    64.0296     6068.00000
    64.0427     6112.00000
    64.0558     6210.00000
    64.0690     5946.00000
    64.0821     6187.00000
    64.0952     6051.00000
    64.1084     6079.00000
    64.1215     6095.00000
    64.1346     5995.00000
    64.1478     5835.00000
    64.1609     6107.00000
    64.1740     6066.00000
    64.1871     5964.00000
    64.2003     5914.00000
    64.2134     6047.00000
    64.2265     6218.00000
    64.2397     6017.00000
    64.2528     6136.00000
    64.2659     6282.00000
    64.2791     6258.00000
    64.2922     6237.00000
    64.3053     6318.00000
    64.3184     6516.00000
    64.3316     6324.00000
    64.3447     6502.00000
    64.3578     6845.00000
    64.3710     6884.00000
    64.3841     7077.00000
    64.3972     7221.00000
    64.4104     7121.00000
    64.4235     7287.00000
    64.4366     7034.00000
    64.4498     7019.00000
    64.4629     6989.00000
    64.4760     6847.00000
    64.4891     6684.00000
    64.5023     6595.00000
    64.5154     6535.00000
    64.5285     6492.00000
    64.5417     6478.00000
    64.5548     6621.00000
    64.5679     6499.00000
    64.5811     6654.00000
    64.5942     6612.00000
    64.6073     6672.00000
    64.6204     6624.00000
    64.6336     6529.00000
    64.6467     6713.00000
    64.6598     6501.00000
    64.6730     6377.00000
    64.6861     6132.00000
    64.6992     6152.00000
    64.7124     6199.00000
    64.7255     6164.00000
    64.7386     6019.00000
    64.7517     6191.00000
    64.7649     6168.00000
    64.7780     6073.00000
    64.7911     6015.00000
    64.8043     6069.00000
    64.8174     6140.00000
    64.8305     6124.00000
    64.8437     6055.00000
    64.8568     6045.00000
    64.8699     6118.00000
    64.8830     5963.00000
    64.8962     5955.00000
    64.9093     6063.00000
    64.9224     5939.00000
    64.9356     6026.00000
    64.9487     6072.00000
    64.9618     6069.00000
    64.9750     6207.00000
    64.9881     6224.00000
    65.0012     5995.00000
    65.0144     6102.00000
    65.0275     6206.00000
    65.0406     6013.00000
    65.0537     6020.00000
    65.0669     6114.00000
    65.0800     6146.00000
    65.0931     6125.00000
    65.1063     6006.00000
    65.1194     6076.00000
    65.1325     6062.00000
    65.1457     6011.00000
    65.1588     6027.00000
    65.1719     6053.00000
    65.1850     6069.00000
    65.1982     6056.00000
    65.2113     6245.00000
    65.2244     6208.00000
    65.2376     6289.00000
    65.2507     6123.00000
    65.2638     6016.00000
    65.2770     6074.00000
    65.2901     6168.00000
    65.3032     5956.00000
    65.3163     6042.00000
    65.3295     5919.00000
    65.3426     6020.00000
    65.3557     6117.00000
    65.3689     6183.00000
    65.3820     6238.00000
    65.3951     6231.00000
    65.4083     6286.00000
    65.4214     6311.00000
    65.4345     6233.00000
    65.4476     6201.00000
    65.4608     6151.00000
    65.4739     6004.00000
    65.4870     5917.00000
    65.5002     6009.00000
    65.5133     5919.00000
    65.5264     6156.00000
    65.5396     6043.00000
    65.5527     6072.00000
    65.5658     5855.00000
    65.5790     6021.00000
    65.5921     6068.00000
    65.6052     5987.00000
    65.6183     6098.00000
    65.6315     6062.00000
    65.6446     6097.00000
    65.6577     5960.00000
    65.6709     5971.00000
    65.6840     5989.00000
    65.6971     5906.00000
    65.7103     6078.00000
    65.7234     5852.00000
    65.7365     5877.00000
    65.7496     5831.00000
    65.7628     5873.00000
    65.7759     6041.00000
    65.7890     5854.00000
    65.8022     5979.00000
    65.8153     5905.00000
    65.8284     6182.00000
    65.8416     6059.00000
    65.8547     5914.00000
    65.8678     5842.00000
    65.8810     5948.00000
    65.8941     6092.00000
    65.9072     5905.00000
    65.9203     6007.00000
    65.9335     5944.00000
    65.9466     6024.00000
    65.9597     6091.00000
    65.9729     5867.00000
    65.9860     5774.00000
    65.9991     5812.00000
    66.0123     5998.00000
    66.0254     6079.00000
    66.0385     6060.00000
    66.0516     5908.00000
    66.0648     5966.00000
    66.0779     6021.00000
    66.0910     6002.00000
    66.1042     5913.00000
    66.1173     5827.00000
    66.1304     6030.00000
    66.1436     6005.00000
    66.1567     5972.00000
    66.1698     5972.00000
    66.1829     5956.00000
    66.1961     5898.00000
    66.2092     5979.00000
    66.2223     6018.00000
    66.2355     5983.00000
    66.2486     5928.00000
    66.2617     6072.00000
    66.2749     5975.00000
    66.2880     6029.00000
    66.3011     6122.00000
    66.3142     6153.00000
    66.3274     6000.00000
    66.3405     5954.00000
    66.3536     6058.00000
    66.3668     6016.00000
    66.3799     6114.00000
    66.3930     6013.00000
    66.4062     5958.00000
    66.4193     6069.00000
    66.4324     6075.00000
    66.4455     5976.00000
    66.4587     6029.00000
    66.4718     6080.00000
    66.4849     6157.00000
    66.4981     6272.00000
    66.5112     6126.00000
    66.5243     6033.00000
    66.5375     6228.00000
    66.5506     6030.00000
    66.5637     6168.00000
    66.5769     6090.00000
    66.5900     5887.00000
    66.6031     5922.00000
    66.6162     5865.00000
    66.6294     5941.00000
    66.6425     6146.00000
    66.6556     6099.00000
    66.6688     5985.00000
    66.6819     6063.00000
    66.6950     6010.00000
    66.7082     6068.00000
    66.7213     5976.00000
    66.7344     6057.00000
    66.7476     6094.00000
    66.7607     6088.00000
    66.7738     6016.00000
    66.7869     6069.00000
    66.8001     6036.00000
    66.8132     6027.00000
    66.8263     6050.00000
    66.8395     5947.00000
    66.8526     5908.00000
    66.8657     5855.00000
    66.8789     5967.00000
    66.8920     5999.00000
    66.9051     6069.00000
    66.9182     6060.00000
    66.9314     6059.00000
    66.9445     6013.00000
    66.9576     5921.00000
    66.9708     5794.00000
    66.9839     5855.00000
    66.9970     5909.00000
    67.0102     5819.00000
    67.0233     5866.00000
    67.0364     5827.00000
    67.0495     5996.00000
    67.0627     5986.00000
    67.0758     5970.00000
    67.0889     5952.00000
    67.1021     5837.00000
    67.1152     5804.00000
    67.1283     5902.00000
    67.1415     5899.00000
    67.1546     5986.00000
    67.1677     5912.00000
    67.1808     6024.00000
    67.1940     5960.00000
    67.2071     5974.00000
    67.2202     5864.00000
    67.2334     6001.00000
    67.2465     5941.00000
    67.2596     6175.00000
    67.2728     6001.00000
    67.2859     5942.00000
    67.2990     5888.00000
    67.3121     6063.00000
    67.3253     5875.00000
    67.3384     6087.00000
    67.3515     6095.00000
    67.3647     6169.00000
    67.3778     6012.00000
    67.3909     6053.00000
    67.4041     6004.00000
    67.4172     5939.00000
    67.4303     5931.00000
    67.4435     6049.00000
    67.4566     5902.00000
    67.4697     6018.00000
    67.4828     5973.00000
    67.4960     6034.00000
    67.5091     6106.00000
    67.5222     5951.00000
    67.5354     6072.00000
    67.5485     6020.00000
    67.5616     5985.00000
    67.5748     6073.00000
    67.5879     5913.00000
    67.6010     6019.00000
    67.6142     5955.00000
    67.6273     6019.00000
    67.6404     5847.00000
    67.6535     6092.00000
    67.6667     6086.00000
    67.6798     5909.00000
    67.6929     6191.00000
    67.7061     5985.00000
    67.7192     5990.00000
    67.7323     6023.00000
    67.7455     6212.00000
    67.7586     6062.00000
    67.7717     6186.00000
    67.7848     6243.00000
    67.7980     6067.00000
    67.8111     6113.00000
    67.8242     5914.00000
    67.8374     5920.00000
    67.8505     5780.00000
    67.8636     5882.00000
    67.8768     6073.00000
    67.8899     5842.00000
    67.9030     5736.00000
    67.9161     5871.00000
    67.9293     6039.00000
    67.9424     5916.00000
    67.9555     6032.00000
    67.9687     5838.00000
    67.9818     5925.00000
    67.9949     6034.00000
    68.0081     5961.00000
    68.0212     6010.00000
    68.0343     6014.00000
    68.0474     6077.00000
    68.0606     6054.00000
    68.0737     6020.00000
    68.0868     5925.00000
    68.1000     5865.00000
    68.1131     5822.00000
    68.1262     6036.00000
    68.1394     6130.00000
    68.1525     5956.00000
    68.1656     6056.00000
    68.1787     6105.00000
    68.1919     6003.00000
    68.2050     6125.00000
    68.2181     6062.00000
    68.2313     5963.00000
    68.2444     6010.00000
    68.2575     5932.00000
    68.2707     6045.00000
    68.2838     6155.00000
    68.2969     6122.00000
    68.3101     6036.00000
    68.3232     6033.00000
    68.3363     6034.00000
    68.3494     6081.00000
    68.3626     5957.00000
    68.3757     6200.00000
    68.3888     5992.00000
    68.4020     6152.00000
    68.4151     6206.00000
    68.4282     5981.00000
    68.4414     6121.00000
    68.4545     6102.00000
    68.4676     6031.00000
    68.4807     6113.00000
    68.4939     6029.00000
    68.5070     6033.00000
    68.5201     6068.00000
    68.5333     6075.00000
    68.5464     6171.00000
    68.5595     5999.00000
    68.5727     6031.00000
    68.5858     6004.00000
    68.5989     5912.00000
    68.6120     6030.00000
    68.6252     6121.00000
    68.6383     5967.00000
    68.6514     5894.00000
    68.6646     6000.00000
    68.6777     5939.00000
    68.6908     6118.00000
    68.7040     6168.00000
    68.7171     6072.00000
    68.7302     6046.00000
    68.7434     5954.00000
    68.7565     6019.00000
    68.7696     5988.00000
    68.7827     6025.00000
    68.7959     6097.00000
    68.8090     6231.00000
    68.8221     6025.00000
    68.8353     5992.00000
    68.8484     6207.00000
    68.8615     6432.00000
    68.8747     6532.00000
    68.8878     6497.00000
    68.9009     6509.00000
    68.9140     6696.00000
    68.9272     6572.00000
    68.9403     6757.00000
    68.9534     6853.00000
    68.9666     6814.00000
    68.9797     6873.00000
    68.9928     6898.00000
    69.0060     7387.00000
    69.0191     7360.00000
    69.0322     7228.00000
    69.0453     7362.00000
    69.0585     7136.00000
    69.0716     7099.00000
    69.0847     7207.00000
    69.0979     6973.00000
    69.1110     6935.00000
    69.1241     6771.00000
    69.1373     6671.00000
    69.1504     6721.00000
    69.1635     6814.00000
    69.1767     6925.00000
    69.1898     7043.00000
    69.2029     7350.00000
    69.2160     7338.00000
    69.2292     7876.00000
    69.2423     8125.00000
    69.2554     8447.00000
    69.2686     8547.00000
    69.2817     8616.00000
    69.2948     8390.00000
    69.3080     7728.00000
    69.3211     7210.00000
    69.3342     7088.00000
    69.3473     6826.00000
    69.3605     6843.00000
    69.3736     6798.00000
    69.3867     6753.00000
    69.3999     6997.00000
    69.4130     7138.00000
    69.4261     7209.00000
    69.4393     7593.00000
    69.4524     7997.00000
    69.4655     8228.00000
    69.4786     8539.00000
    69.4918     8701.00000
    69.5049     8594.00000
    69.5180     8808.00000
    69.5312     8436.00000
    69.5443     8098.00000
    69.5574     8063.00000
    69.5706     7479.00000
    69.5837     7444.00000
    69.5968     7080.00000
    69.6099     6924.00000
    69.6231     6801.00000
    69.6362     6715.00000
    69.6493     6698.00000
    69.6625     6892.00000
    69.6756     7010.00000
    69.6887     6910.00000
    69.7019     7075.00000
    69.7150     7301.00000
    69.7281     7109.00000
    69.7413     7080.00000
    69.7544     6849.00000
    69.7675     6933.00000
    69.7806     6771.00000
    69.7938     6956.00000
    69.8069     6909.00000
    69.8200     6921.00000
    69.8332     7216.00000
    69.8463     7455.00000
    69.8594     7735.00000
    69.8726     7793.00000
    69.8857     7335.00000
    69.8988     7239.00000
    69.9119     6963.00000
    69.9251     6826.00000
    69.9382     6688.00000
    69.9513     6444.00000
    69.9645     6387.00000
    69.9776     6153.00000
    69.9907     6193.00000
    70.0039     6454.00000
    70.0170     6419.00000
    70.0301     6492.00000
    70.0433     6941.00000
    70.0564     6819.00000
    70.0695     6790.00000
    70.0826     6551.00000
    70.0958     6612.00000
    70.1089     6387.00000
    70.1220     6281.00000
    70.1352     6403.00000
    70.1483     6297.00000
    70.1614     6278.00000
    70.1746     6471.00000
    70.1877     6328.00000
    70.2008     6247.00000
    70.2139     6138.00000
    70.2271     6086.00000
    70.2402     6208.00000
    70.2533     6183.00000
    70.2665     6096.00000
    70.2796     6103.00000
    70.2927     6230.00000
    70.3059     6172.00000
    70.3190     6105.00000
    70.3321     6124.00000
    70.3452     6142.00000
    70.3584     6128.00000
    70.3715     6184.00000
    70.3846     6169.00000
    70.3978     6243.00000
    70.4109     6129.00000
    70.4240     6219.00000
    70.4372     6010.00000
    70.4503     6155.00000
    70.4634     5993.00000
    70.4765     6231.00000
    70.4897     6124.00000
    70.5028     6131.00000
    70.5159     6169.00000
    70.5291     6130.00000
    70.5422     6242.00000
    70.5553     6334.00000
    70.5685     6295.00000
    70.5816     6292.00000
    70.5947     6480.00000
    70.6078     6512.00000
    70.6210     6601.00000
    70.6341     6474.00000
    70.6472     6526.00000
    70.6604     6461.00000
    70.6735     6584.00000
    70.6866     6545.00000
    70.6998     6767.00000
    70.7129     6666.00000
    70.7260     6600.00000
    70.7392     6544.00000
    70.7523     6616.00000
    70.7654     6549.00000
    70.7785     6682.00000
    70.7917     6802.00000
    70.8048     6550.00000
    70.8179     6668.00000
    70.8311     6713.00000
    70.8442     6719.00000
    70.8573     6635.00000
    70.8705     6666.00000
    70.8836     6655.00000
    70.8967     6558.00000
    70.9099     6468.00000
    70.9230     6285.00000
    70.9361     6398.00000
    70.9492     6383.00000
    70.9624     6434.00000
    70.9755     6364.00000
    70.9886     6529.00000
    71.0018     6417.00000
    71.0149     6409.00000
    71.0280     6499.00000
    71.0412     6181.00000
    71.0543     6239.00000
    71.0674     6238.00000
    71.0805     6243.00000
    71.0937     6071.00000
    71.1068     6191.00000
    71.1199     6133.00000
    71.1331     6044.00000
    71.1462     6145.00000
    71.1593     5903.00000
    71.1725     5928.00000
    71.1856     6051.00000
    71.1987     6092.00000
    71.2118     6093.00000
    71.2250     5995.00000
    71.2381     6047.00000
    71.2512     6120.00000
    71.2644     6011.00000
    71.2775     5776.00000
    71.2906     5960.00000
    71.3038     6140.00000
    71.3169     6087.00000
    71.3300     6023.00000
    71.3431     6014.00000
    71.3563     6247.00000
    71.3694     6213.00000
    71.3825     6004.00000
    71.3957     5929.00000
    71.4088     5776.00000
    71.4219     6076.00000
    71.4351     6201.00000
    71.4482     6068.00000
    71.4613     6068.00000
    71.4744     6147.00000
    71.4876     6091.00000
    71.5007     6111.00000
    71.5138     6061.00000
    71.5270     5932.00000
    71.5401     6036.00000
    71.5532     6111.00000
    71.5664     6109.00000
    71.5795     6354.00000
    71.5926     6222.00000
    71.6058     6324.00000
    71.6189     6070.00000
    71.6320     6268.00000
    71.6451     6245.00000
    71.6583     6128.00000
    71.6714     6273.00000
    71.6845     6240.00000
    71.6977     6209.00000
    71.7108     6189.00000
    71.7239     6518.00000
    71.7371     6518.00000
    71.7502     6647.00000
    71.7633     6589.00000
    71.7764     6425.00000
    71.7896     6393.00000
    71.8027     6468.00000
    71.8158     6411.00000
    71.8290     6328.00000
    71.8421     6390.00000
    71.8552     6395.00000
    71.8684     6410.00000
    71.8815     6531.00000
    71.8946     6680.00000
    71.9078     6992.00000
    71.9209     7143.00000
    71.9340     7573.00000
    71.9471     8052.00000
    71.9603     8167.00000
    71.9734     8415.00000
    71.9865     8678.00000
    71.9997     8400.00000
    72.0128     8502.00000
    72.0259     7925.00000
    72.0391     7816.00000
    72.0522     7683.00000
    72.0653     7361.00000
    72.0784     7149.00000
    72.0916     7069.00000
    72.1047     6953.00000
    72.1178     6943.00000
    72.1310     7091.00000
    72.1441     6992.00000
    72.1572     7058.00000
    72.1704     7346.00000
    72.1835     7313.00000
    72.1966     7331.00000
    72.2097     7328.00000
    72.2229     7210.00000
    72.2360     7101.00000
    72.2491     6756.00000
    72.2623     6767.00000
    72.2754     6773.00000
    72.2885     6506.00000
    72.3017     6479.00000
    72.3148     6122.00000
    72.3279     6121.00000
    72.3410     6135.00000
    72.3542     6061.00000
    72.3673     5938.00000
    72.3804     5996.00000
    72.3936     5844.00000
    72.4067     6071.00000
    72.4198     6006.00000
    72.4330     6070.00000
    72.4461     6153.00000
    72.4592     6044.00000
    72.4724     6164.00000
    72.4855     6006.00000
    72.4986     6042.00000
    72.5117     6082.00000
    72.5249     6124.00000
    72.5380     6150.00000
    72.5511     6212.00000
    72.5643     6252.00000
    72.5774     6158.00000
    72.5905     6222.00000
    72.6037     6459.00000
    72.6168     6439.00000
    72.6299     6562.00000
    72.6430     6685.00000
    72.6562     6608.00000
    72.6693     6602.00000
    72.6824     6442.00000
    72.6956     6357.00000
    72.7087     6361.00000
    72.7218     6105.00000
    72.7350     6082.00000
    72.7481     6081.00000
    72.7612     6179.00000
    72.7743     6096.00000
    72.7875     5873.00000
    72.8006     6123.00000
    72.8137     6300.00000
    72.8269     6247.00000
    72.8400     6201.00000
    72.8531     6344.00000
    72.8663     6359.00000
    72.8794     6274.00000
    72.8925     6265.00000
    72.9057     6310.00000
    72.9188     6207.00000
    72.9319     6317.00000
    72.9450     6187.00000
    72.9582     6098.00000
    72.9713     6029.00000
    72.9844     6206.00000
    72.9976     6090.00000
    73.0107     6259.00000
    73.0238     6291.00000
    73.0370     6134.00000
    73.0501     6352.00000
    73.0632     6324.00000
    73.0763     6196.00000
    73.0895     6126.00000
    73.1026     6264.00000
    73.1157     6056.00000
    73.1289     6064.00000
    73.1420     6029.00000
    73.1551     6138.00000
    73.1683     6102.00000
    73.1814     6097.00000
    73.1945     6121.00000
    73.2076     6165.00000
    73.2208     6293.00000
    73.2339     6211.00000
    73.2470     6234.00000
    73.2602     6332.00000
    73.2733     6528.00000
    73.2864     6536.00000
    73.2996     6611.00000
    73.3127     6946.00000
    73.3258     6834.00000
    73.3390     7090.00000
    73.3521     7210.00000
    73.3652     7079.00000
    73.3783     7178.00000
    73.3915     7131.00000
    73.4046     7210.00000
    73.4177     7020.00000
    73.4309     7059.00000
    73.4440     6802.00000
    73.4571     6653.00000
    73.4703     6612.00000
    73.4834     6518.00000
    73.4965     6509.00000
    73.5096     6519.00000
    73.5228     6518.00000
    73.5359     6442.00000
    73.5490     6677.00000
    73.5622     6601.00000
    73.5753     6627.00000
    73.5884     6544.00000
    73.6016     6623.00000
    73.6147     6509.00000
    73.6278     6528.00000
    73.6409     6675.00000
    73.6541     6554.00000
    73.6672     6745.00000
    73.6803     6450.00000
    73.6935     6540.00000
    73.7066     6329.00000
    73.7197     6201.00000
    73.7329     6261.00000
    73.7460     6105.00000
    73.7591     6146.00000
    73.7722     6111.00000
    73.7854     6184.00000
    73.7985     6022.00000
    73.8116     6106.00000
    73.8248     6020.00000
    73.8379     5982.00000
    73.8510     6025.00000
    73.8642     6075.00000
    73.8773     6220.00000
    73.8904     6014.00000
    73.9035     6192.00000
    73.9167     6238.00000
    73.9298     6217.00000
    73.9429     6245.00000
    73.9561     6206.00000
    73.9692     6177.00000
    73.9823     6187.00000
    73.9955     6153.00000
    74.0086     6102.00000
    74.0217     6180.00000
    74.0349     6187.00000
    74.0480     6201.00000
    74.0611     6090.00000
    74.0742     6127.00000
    74.0874     6207.00000
    74.1005     6211.00000
    74.1136     6261.00000
    74.1268     6332.00000
    74.1399     6423.00000
    74.1530     6576.00000
    74.1662     6795.00000
    74.1793     6865.00000
    74.1924     6771.00000
    74.2056     6837.00000
    74.2187     7082.00000
    74.2318     6968.00000
    74.2449     6896.00000
    74.2581     6925.00000
    74.2712     7105.00000
    74.2843     7198.00000
    74.2975     7272.00000
    74.3106     7282.00000
    74.3237     7430.00000
    74.3369     7453.00000
    74.3500     7555.00000
    74.3631     7475.00000
    74.3762     7386.00000
    74.3894     7337.00000
    74.4025     7070.00000
    74.4156     6944.00000
    74.4288     6820.00000
    74.4419     6947.00000
    74.4550     6906.00000
    74.4682     6804.00000
    74.4813     6775.00000
    74.4944     6648.00000
    74.5075     6614.00000
    74.5207     6696.00000
    74.5338     6641.00000
    74.5469     6812.00000
    74.5601     6767.00000
    74.5732     6592.00000
    74.5863     6745.00000
    74.5995     6557.00000
    74.6126     6597.00000
    74.6257     6501.00000
    74.6388     6324.00000
    74.6520     6348.00000
    74.6651     6386.00000
    74.6782     6022.00000
    74.6914     6056.00000
    74.7045     6077.00000
    74.7176     6119.00000
    74.7308     6055.00000
    74.7439     6062.00000
    74.7570     6033.00000
    74.7701     6043.00000
    74.7833     6128.00000
    74.7964     6073.00000
    74.8095     6012.00000
    74.8227     5899.00000
    74.8358     5918.00000
    74.8489     5802.00000
    74.8621     5975.00000
    74.8752     5944.00000
    74.8883     5937.00000
    74.9015     5920.00000
    74.9146     6059.00000
    74.9277     6007.00000
    74.9408     5945.00000
    74.9540     6070.00000
    74.9671     6213.00000
    74.9802     6096.00000
    74.9934     6158.00000
    75.0065     6023.00000
    75.0196     5825.00000
    75.0328     5873.00000
    75.0459     6110.00000
    75.0590     5896.00000
    75.0722     5944.00000
    75.0853     5979.00000
    75.0984     5896.00000
    75.1115     5799.00000
    75.1247     5883.00000
    75.1378     5826.00000
    75.1509     5966.00000
    75.1641     5783.00000
    75.1772     6097.00000
    75.1903     6084.00000
    75.2035     5901.00000
    75.2166     5891.00000
    75.2297     5890.00000
    75.2428     5823.00000
    75.2560     5914.00000
    75.2691     5882.00000
    75.2822     5880.00000
    75.2954     5934.00000
    75.3085     5725.00000
    75.3216     5802.00000
    75.3348     6055.00000
    75.3479     6081.00000
    75.3610     5766.00000
    75.3741     5884.00000
    75.3873     5882.00000
    75.4004     5752.00000
    75.4135     5864.00000
    75.4267     5799.00000
    75.4398     5798.00000
    75.4529     6026.00000
    75.4661     5869.00000
    75.4792     5938.00000
    75.4923     5749.00000
    75.5054     5814.00000
    75.5186     5635.00000
    75.5317     5880.00000
    75.5448     5951.00000
    75.5580     5681.00000
    75.5711     5916.00000
    75.5842     5996.00000
    75.5974     5866.00000
    75.6105     5815.00000
    75.6236     5737.00000
    75.6367     5857.00000
    75.6499     5880.00000
    75.6630     5874.00000
    75.6761     5842.00000
    75.6893     5894.00000
    75.7024     5970.00000
    75.7155     5831.00000
    75.7287     5889.00000
    75.7418     5899.00000
    75.7549     5976.00000
    75.7681     6119.00000
    75.7812     6086.00000
    75.7943     6130.00000
    75.8074     6375.00000
    75.8206     6211.00000
    75.8337     6436.00000
    75.8468     6167.00000
    75.8600     6281.00000
    75.8731     6155.00000
    75.8862     5922.00000
    75.8994     6023.00000
    75.9125     5972.00000
    75.9256     6074.00000
    75.9387     5997.00000
    75.9519     5997.00000
    75.9650     6009.00000
    75.9781     6069.00000
    75.9913     6267.00000
    76.0044     5996.00000
    76.0175     6179.00000
    76.0307     6177.00000
    76.0438     6116.00000
    76.0569     6263.00000
    76.0701     6135.00000
    76.0832     6134.00000
    76.0963     6088.00000
    76.1094     5996.00000
    76.1226     5852.00000
    76.1357     5929.00000
    76.1488     5887.00000
    76.1620     5891.00000
    76.1751     5939.00000
    76.1882     5966.00000
    76.2014     5951.00000
    76.2145     6011.00000
    76.2276     5987.00000
    76.2407     5996.00000
    76.2539     6056.00000
    76.2670     5975.00000
    76.2801     6005.00000
    76.2933     6033.00000
    76.3064     6074.00000
    76.3195     6037.00000
    76.3327     5920.00000
    76.3458     5897.00000
    76.3589     5932.00000
    76.3720     5970.00000
    76.3852     5923.00000
    76.3983     5963.00000
    76.4114     5938.00000
    76.4246     6142.00000
    76.4377     6193.00000
    76.4508     6267.00000
    76.4640     6288.00000
    76.4771     6325.00000
    76.4902     6293.00000
    76.5033     6208.00000
    76.5165     6068.00000
    76.5296     6199.00000
    76.5427     5984.00000
    76.5559     6044.00000
    76.5690     6189.00000
    76.5821     6050.00000
    76.5953     6069.00000
    76.6084     6125.00000
    76.6215     6241.00000
    76.6347     6327.00000
    76.6478     6211.00000
    76.6609     6324.00000
    76.6740     6569.00000
    76.6872     6604.00000
    76.7003     6590.00000
    76.7134     6586.00000
    76.7266     6752.00000
    76.7397     6562.00000
    76.7528     6639.00000
    76.7660     6620.00000
    76.7791     6712.00000
    76.7922     7077.00000
    76.8053     7069.00000
    76.8185     7080.00000
    76.8316     7296.00000
    76.8447     7325.00000
    76.8579     7328.00000
    76.8710     7396.00000
    76.8841     7096.00000
    76.8973     7189.00000
    76.9104     7224.00000
    76.9235     7398.00000
    76.9366     7509.00000
    76.9498     7609.00000
    76.9629     7457.00000
    76.9760     7229.00000
    76.9892     7021.00000
    77.0023     7065.00000
    77.0154     7093.00000
    77.0286     6766.00000
    77.0417     6789.00000
    77.0548     6825.00000
    77.0679     6861.00000
    77.0811     6774.00000
    77.0942     6712.00000
    77.1073     6574.00000
    77.1205     6331.00000
    77.1336     6719.00000
    77.1467     6696.00000
    77.1599     6722.00000
    77.1730     6695.00000
    77.1861     6660.00000
    77.1993     6450.00000
    77.2124     6389.00000
    77.2255     6236.00000
    77.2386     6189.00000
    77.2518     6357.00000
    77.2649     6129.00000
    77.2780     5973.00000
    77.2912     6269.00000
    77.3043     6134.00000
    77.3174     6194.00000
    77.3306     6273.00000
    77.3437     6307.00000
    77.3568     6188.00000
    77.3699     6126.00000
    77.3831     6216.00000
    77.3962     5974.00000
    77.4093     6000.00000
    77.4225     5974.00000
    77.4356     6085.00000
    77.4487     6202.00000
    77.4619     6356.00000
    77.4750     6204.00000
    77.4881     6327.00000
    77.5013     6659.00000
    77.5144     7075.00000
    77.5275     6979.00000
    77.5406     6977.00000
    77.5538     6925.00000
    77.5669     6889.00000
    77.5800     6905.00000
    77.5932     6852.00000
    77.6063     6783.00000
    77.6194     6490.00000
    77.6326     6428.00000
    77.6457     6459.00000
    77.6588     6228.00000
    77.6719     6256.00000
    77.6851     6295.00000
    77.6982     6250.00000
    77.7113     6224.00000
    77.7245     6108.00000
    77.7376     6299.00000
    77.7507     6364.00000
    77.7639     6259.00000
    77.7770     6345.00000
    77.7901     6148.00000
    77.8032     6284.00000
    77.8164     6398.00000
    77.8295     6305.00000
    77.8426     6247.00000
    77.8558     6258.00000
    77.8689     6233.00000
    77.8820     6205.00000
    77.8952     6112.00000
    77.9083     6030.00000
    77.9214     6023.00000
    77.9345     6069.00000
    77.9477     5976.00000
    77.9608     5973.00000
    77.9739     5859.00000
    77.9871     5908.00000
    78.0002     5897.00000
    78.0133     5751.00000
    78.0265     5896.00000
    78.0396     6008.00000
    78.0527     5760.00000
    78.0658     5898.00000
    78.0790     5759.00000
    78.0921     5884.00000
    78.1052     5817.00000
    78.1184     5805.00000
    78.1315     5896.00000
    78.1446     5811.00000
    78.1578     5626.00000
    78.1709     5614.00000
    78.1840     5670.00000
    78.1972     5743.00000
    78.2103     5824.00000
    78.2234     5865.00000
    78.2365     5762.00000
    78.2497     5809.00000
    78.2628     5926.00000
    78.2759     5663.00000
    78.2891     5869.00000
    78.3022     5838.00000
    78.3153     5793.00000
    78.3285     5747.00000
    78.3416     5722.00000
    78.3547     5851.00000
    78.3679     6021.00000
    78.3810     5919.00000
    78.3941     5814.00000
    78.4072     5750.00000
    78.4204     5979.00000
    78.4335     5859.00000
    78.4466     5680.00000
    78.4598     5857.00000
    78.4729     5908.00000
    78.4860     5870.00000
    78.4992     5789.00000
    78.5123     5843.00000
    78.5254     5922.00000
    78.5385     6026.00000
    78.5517     5812.00000
    78.5648     5982.00000
    78.5779     6090.00000
    78.5911     6128.00000
    78.6042     5737.00000
    78.6173     5967.00000
    78.6305     6103.00000
    78.6436     6048.00000
    78.6567     6003.00000
    78.6698     5870.00000
    78.6830     5997.00000
    78.6961     5994.00000
    78.7092     6080.00000
    78.7224     5918.00000
    78.7355     5993.00000
    78.7486     5969.00000
    78.7618     6113.00000
    78.7749     6018.00000
    78.7880     6099.00000
    78.8011     6021.00000
    78.8143     6092.00000
    78.8274     5996.00000
    78.8405     6009.00000
    78.8537     6078.00000
    78.8668     6180.00000
    78.8799     6068.00000
    78.8931     6167.00000
    78.9062     6108.00000
    78.9193     6251.00000
    78.9324     6164.00000
    78.9456     6261.00000
    78.9587     6126.00000
    78.9718     6518.00000
    78.9850     6560.00000
    78.9981     6466.00000
    79.0112     6716.00000
    79.0244     6841.00000
    79.0375     6877.00000
    79.0506     6932.00000
    79.0638     6832.00000
    79.0769     6962.00000
    79.0900     6982.00000
    79.1031     6972.00000
    79.1163     7031.00000
    79.1294     6950.00000
    79.1425     6890.00000
    79.1557     6613.00000
    79.1688     6614.00000
    79.1819     6623.00000
    79.1951     6588.00000
    79.2082     6396.00000
    79.2213     6357.00000
    79.2345     6501.00000
    79.2476     6449.00000
    79.2607     6586.00000
    79.2738     6772.00000
    79.2870     6719.00000
    79.3001     6720.00000
    79.3132     6721.00000
    79.3264     6756.00000
    79.3395     6839.00000
    79.3526     6600.00000
    79.3658     6526.00000
    79.3789     6348.00000
    79.3920     6483.00000
    79.4051     6451.00000
    79.4183     6344.00000
    79.4314     6423.00000
    79.4445     6197.00000
    79.4577     5997.00000
    79.4708     6052.00000
    79.4839     6195.00000
    79.4971     6045.00000
    79.5102     6194.00000
    79.5233     6280.00000
    79.5364     6160.00000
    79.5496     6186.00000
    79.5627     6163.00000
    79.5758     6358.00000
    79.5890     6399.00000
    79.6021     6259.00000
    79.6152     6370.00000
    79.6284     6207.00000
    79.6415     6455.00000
    79.6546     6501.00000
    79.6677     6668.00000
    79.6809     6699.00000
    79.6940     6664.00000
    79.7071     6934.00000
    79.7203     6749.00000
    79.7334     6823.00000
    79.7465     6982.00000
    79.7597     6768.00000
    79.7728     6822.00000
    79.7859     6653.00000
    79.7990     6614.00000
    79.8122     6472.00000
    79.8253     6624.00000
    79.8384     6531.00000
    79.8516     6652.00000
    79.8647     6707.00000
    79.8778     6639.00000
    79.8910     6752.00000
    79.9041     6645.00000
    79.9172     6684.00000
    79.9304     6775.00000
    79.9435     6564.00000
    79.9566     6510.00000
    79.9697     6593.00000
    79.9829     6671.00000
    79.9960     6622.00000
    80.0091     6480.00000
    80.0223     6367.00000
    80.0354     6320.00000
    80.0485     6576.00000
    80.0617     6592.00000
    80.0748     6369.00000
    80.0879     6361.00000
    80.1010     6426.00000
    80.1142     6440.00000
    80.1273     6379.00000
    80.1404     6170.00000
    80.1536     6047.00000
    80.1667     6125.00000
    80.1798     6124.00000
    80.1930     6100.00000
    80.2061     6038.00000
    80.2192     6210.00000
    80.2323     6075.00000
    80.2455     6038.00000
    80.2586     5954.00000
    80.2717     6153.00000
    80.2849     6004.00000
    80.2980     6033.00000
    80.3111     6025.00000
    80.3243     6062.00000
    80.3374     6002.00000
    80.3505     5979.00000
    80.3637     5923.00000
    80.3768     5909.00000
    80.3899     5944.00000
    80.4030     5840.00000
    80.4162     5928.00000
    80.4293     6016.00000
    80.4424     6087.00000
    80.4556     6141.00000
    80.4687     5960.00000
    80.4818     6015.00000
    80.4950     6094.00000
    80.5081     6086.00000
    80.5212     6112.00000
    80.5343     6198.00000
    80.5475     5989.00000
    80.5606     6014.00000
    80.5737     6193.00000
    80.5869     6350.00000
    80.6000     6450.00000
    80.6131     6417.00000
    80.6263     6503.00000
    80.6394     6640.00000
    80.6525     6651.00000
    80.6656     6696.00000
    80.6788     6828.00000
    80.6919     6865.00000
    80.7050     6618.00000
    80.7182     6911.00000
    80.7313     6995.00000
    80.7444     6994.00000
    80.7576     6509.00000
    80.7707     6801.00000
    80.7838     6770.00000
    80.7970     6705.00000
    80.8101     7008.00000
    80.8232     6812.00000
    80.8363     6792.00000
    80.8495     6856.00000
    80.8626     6746.00000
    80.8757     6775.00000
    80.8889     6868.00000
    80.9020     6777.00000
    80.9151     6868.00000
    80.9283     6831.00000
    80.9414     6752.00000
    80.9545     6552.00000
    80.9676     6595.00000
    80.9808     6458.00000
    80.9939     6306.00000
    81.0070     6504.00000
    81.0202     6334.00000
    81.0333     6498.00000
    81.0464     6439.00000
    81.0596     6340.00000
    81.0727     6317.00000
    81.0858     6374.00000
    81.0989     6289.00000
    81.1121     6329.00000
    81.1252     6377.00000
    81.1383     6309.00000
    81.1515     6382.00000
    81.1646     6554.00000
    81.1777     6516.00000
    81.1909     6542.00000
    81.2040     6525.00000
    81.2171     6269.00000
    81.2302     6286.00000
    81.2434     6349.00000
    81.2565     6425.00000
    81.2696     6283.00000
    81.2828     6304.00000
    81.2959     6492.00000
    81.3090     6370.00000
    81.3222     6486.00000
    81.3353     6374.00000
    81.3484     6374.00000
    81.3616     6513.00000
    81.3747     6458.00000
    81.3878     6597.00000
    81.4009     6669.00000
    81.4141     6672.00000
    81.4272     6726.00000
    81.4403     6725.00000
    81.4535     6834.00000
    81.4666     6902.00000
    81.4797     6757.00000
    81.4929     6772.00000
    81.5060     6729.00000
    81.5191     6642.00000
    81.5322     6676.00000
    81.5454     6466.00000
    81.5585     6420.00000
    81.5716     6363.00000
    81.5848     6337.00000
    81.5979     6404.00000
    81.6110     6350.00000
    81.6242     6341.00000
    81.6373     6323.00000
    81.6504     6342.00000
    81.6636     6331.00000
    81.6767     6325.00000
    81.6898     6339.00000
    81.7029     6295.00000
    81.7161     6399.00000
    81.7292     6294.00000
    81.7423     6322.00000
    81.7555     6339.00000
    81.7686     6173.00000
    81.7817     6268.00000
    81.7949     6243.00000
    81.8080     6112.00000
    81.8211     6137.00000
    81.8342     6205.00000
    81.8474     5954.00000
    81.8605     6003.00000
    81.8736     6024.00000
    81.8868     6188.00000
    81.8999     5924.00000
    81.9130     6101.00000
    81.9262     6032.00000
    81.9393     6119.00000
    81.9524     6140.00000
    81.9655     5920.00000
    81.9787     5945.00000
    81.9918     6016.00000
    82.0049     5999.00000
    82.0181     5962.00000
    82.0312     5796.00000
    82.0443     5965.00000
    82.0575     5879.00000
    82.0706     5786.00000
    82.0837     5884.00000
    82.0968     5861.00000
    82.1100     6007.00000
    82.1231     5976.00000
    82.1362     5876.00000
    82.1494     6069.00000
    82.1625     5951.00000
    82.1756     6008.00000
    82.1888     5938.00000
    82.2019     5866.00000
    82.2150     5946.00000
    82.2281     5970.00000
    82.2413     5947.00000
    82.2544     5932.00000
    82.2675     6130.00000
    82.2807     6012.00000
    82.2938     5937.00000
    82.3069     6252.00000
    82.3201     6087.00000
    82.3332     6301.00000
    82.3463     6205.00000
    82.3595     6407.00000
    82.3726     6179.00000
    82.3857     6192.00000
    82.3988     6455.00000
    82.4120     6244.00000
    82.4251     6291.00000
    82.4382     6314.00000
    82.4514     6091.00000
    82.4645     6213.00000
    82.4776     6181.00000
    82.4908     6163.00000
    82.5039     6221.00000
    82.5170     6299.00000
    82.5302     6283.00000
    82.5433     6296.00000
    82.5564     6434.00000
    82.5695     6282.00000
    82.5827     6246.00000
    82.5958     6232.00000
    82.6089     6408.00000
    82.6221     6294.00000
    82.6352     6269.00000
    82.6483     6269.00000
    82.6615     6332.00000
    82.6746     6207.00000
    82.6877     6461.00000
    82.7008     6410.00000
    82.7140     6341.00000
    82.7271     6347.00000
    82.7402     6254.00000
    82.7534     6213.00000
    82.7665     6153.00000
    82.7796     6172.00000
    82.7928     6174.00000
    82.8059     6126.00000
    82.8190     6054.00000
    82.8321     6017.00000
    82.8453     6084.00000
    82.8584     6174.00000
    82.8715     5966.00000
    82.8847     6242.00000
    82.8978     6152.00000
    82.9109     6206.00000
    82.9241     6310.00000
    82.9372     6284.00000
    82.9503     6523.00000
    82.9634     6411.00000
    82.9766     6374.00000
    82.9897     6487.00000
    83.0028     6547.00000
    83.0160     6459.00000
    83.0291     6480.00000
    83.0422     6437.00000
    83.0554     6496.00000
    83.0685     6432.00000
    83.0816     6259.00000
    83.0947     6187.00000
    83.1079     5977.00000
    83.1210     6172.00000
    83.1341     5967.00000
    83.1473     6138.00000
    83.1604     5943.00000
    83.1735     5969.00000
    83.1867     6124.00000
    83.1998     5978.00000
    83.2129     5972.00000
    83.2261     6146.00000
    83.2392     6279.00000
    83.2523     6234.00000
    83.2654     6219.00000
    83.2786     6094.00000
    83.2917     6182.00000
    83.3048     6162.00000
    83.3180     6094.00000
    83.3311     6177.00000
    83.3442     6005.00000
    83.3574     6107.00000
    83.3705     6155.00000
    83.3836     5959.00000
    83.3967     5816.00000
    83.4099     5938.00000
    83.4230     6003.00000
    83.4361     5860.00000
    83.4493     5847.00000
    83.4624     5926.00000
    83.4755     5867.00000
    83.4887     5862.00000
    83.5018     5879.00000
    83.5149     5887.00000
    83.5281     5722.00000
    83.5412     5995.00000
    83.5543     5808.00000
    83.5674     5844.00000
    83.5806     5978.00000
    83.5937     5676.00000
    83.6068     5799.00000
    83.6200     5944.00000
    83.6331     5760.00000
    83.6462     5812.00000
    83.6594     5750.00000
    83.6725     5749.00000
    83.6856     5778.00000
    83.6987     5828.00000
    83.7119     5874.00000
    83.7250     5910.00000
    83.7381     5775.00000
    83.7513     5832.00000
    83.7644     5821.00000
    83.7775     5777.00000
    83.7907     5909.00000
    83.8038     5664.00000
    83.8169     5693.00000
    83.8300     5812.00000
    83.8432     5834.00000
    83.8563     5712.00000
    83.8694     5819.00000
    83.8826     5805.00000
    83.8957     5747.00000
    83.9088     5852.00000
    83.9220     5660.00000
    83.9351     5749.00000
    83.9482     5794.00000
    83.9613     5905.00000
    83.9745     5763.00000
    83.9876     5858.00000
    84.0007     5763.00000
    84.0139     5929.00000
    84.0270     5774.00000
    84.0401     5881.00000
    84.0533     5914.00000
    84.0664     5891.00000
    84.0795     5826.00000
    84.0927     5775.00000
    84.1058     5750.00000
    84.1189     5858.00000
    84.1320     5877.00000
    84.1452     5852.00000
    84.1583     5938.00000
    84.1714     5784.00000
    84.1846     5919.00000
    84.1977     5752.00000
    84.2108     5736.00000
    84.2240     5843.00000
    84.2371     5887.00000
    84.2502     6014.00000
    84.2633     6048.00000
    84.2765     5994.00000
    84.2896     5996.00000
    84.3027     6021.00000
    84.3159     6189.00000
    84.3290     6121.00000
    84.3421     5888.00000
    84.3553     5788.00000
    84.3684     6129.00000
    84.3815     5976.00000
    84.3946     6041.00000
    84.4078     5910.00000
    84.4209     6021.00000
    84.4340     5855.00000
    84.4472     5894.00000
    84.4603     5808.00000
    84.4734     5828.00000
    84.4866     6049.00000
    84.4997     6029.00000
    84.5128     6106.00000
    84.5260     6048.00000
    84.5391     6038.00000
    84.5522     6048.00000
    84.5653     6203.00000
    84.5785     6416.00000
    84.5916     6318.00000
    84.6047     6088.00000
    84.6179     6317.00000
    84.6310     6260.00000
    84.6441     6107.00000
    84.6573     6200.00000
    84.6704     6196.00000
    84.6835     6323.00000
    84.6966     6223.00000
    84.7098     6186.00000
    84.7229     6160.00000
    84.7360     6268.00000
    84.7492     6400.00000
    84.7623     6312.00000
    84.7754     6082.00000
    84.7886     6271.00000
    84.8017     6282.00000
    84.8148     6176.00000
    84.8279     6238.00000
    84.8411     6122.00000
    84.8542     6095.00000
    84.8673     6008.00000
    84.8805     6063.00000
    84.8936     6012.00000
    84.9067     6139.00000
    84.9199     6014.00000
    84.9330     6084.00000
    84.9461     6025.00000
    84.9593     6039.00000
    84.9724     6148.00000
    84.9855     6005.00000
    84.9986     5943.00000
    85.0118     6169.00000
    85.0249     5948.00000
    85.0380     6112.00000
    85.0512     6093.00000
    85.0643     5824.00000
    85.0774     5898.00000
    85.0906     5937.00000
    85.1037     5866.00000
    85.1168     5807.00000
    85.1299     5674.00000
    85.1431     5811.00000
    85.1562     5747.00000
    85.1693     5696.00000
    85.1825     5763.00000
    85.1956     5894.00000
    85.2087     5772.00000
    85.2219     5870.00000
    85.2350     5844.00000
    85.2481     5833.00000
    85.2612     5824.00000
    85.2744     5801.00000
    85.2875     5987.00000
    85.3006     5933.00000
    85.3138     5901.00000
    85.3269     5906.00000
    85.3400     6001.00000
    85.3532     5903.00000
    85.3663     5973.00000
    85.3794     5982.00000
    85.3925     6073.00000
    85.4057     5997.00000
    85.4188     5887.00000
    85.4319     5761.00000
    85.4451     5789.00000
    85.4582     5827.00000
    85.4713     5951.00000
    85.4845     5732.00000
    85.4976     5903.00000
    85.5107     5940.00000
    85.5238     5741.00000
    85.5370     5804.00000
    85.5501     5901.00000
    85.5632     5687.00000
    85.5764     5902.00000
    85.5895     5873.00000
    85.6026     6061.00000
    85.6158     5992.00000
    85.6289     5902.00000
    85.6420     5763.00000
    85.6552     5862.00000
    85.6683     5933.00000
    85.6814     5861.00000
    85.6945     5839.00000
    85.7077     5910.00000
    85.7208     5897.00000
    85.7339     5943.00000
    85.7471     5999.00000
    85.7602     5895.00000
    85.7733     6151.00000
    85.7865     6164.00000
    85.7996     6046.00000
    85.8127     5928.00000
    85.8259     6020.00000
    85.8390     6076.00000
    85.8521     5905.00000
    85.8652     5905.00000
    85.8784     5871.00000
    85.8915     5934.00000
    85.9046     6021.00000
    85.9178     6007.00000
    85.9309     5853.00000
    85.9440     5958.00000
    85.9572     5742.00000
    85.9703     5791.00000
    85.9834     5777.00000
    85.9965     6029.00000
    86.0097     5866.00000
    86.0228     6065.00000
    86.0359     6116.00000
    86.0491     5901.00000
    86.0622     5960.00000
    86.0753     5938.00000
    86.0885     5857.00000
    86.1016     5946.00000
    86.1147     5697.00000
    86.1278     5993.00000
    86.1410     5854.00000
    86.1541     5895.00000
    86.1672     5744.00000
    86.1804     5743.00000
    86.1935     5888.00000
    86.2066     5872.00000
    86.2198     5834.00000
    86.2329     5937.00000
    86.2460     5753.00000
    86.2591     5795.00000
    86.2723     5884.00000
    86.2854     5876.00000
    86.2985     5979.00000
    86.3117     6036.00000
    86.3248     5904.00000
    86.3379     6270.00000
    86.3511     5913.00000
    86.3642     5822.00000
    86.3773     5896.00000
    86.3904     5977.00000
    86.4036     5735.00000
    86.4167     5896.00000
    86.4298     6087.00000
    86.4430     6016.00000
    86.4561     5831.00000
    86.4692     6092.00000
    86.4824     6038.00000
    86.4955     6087.00000
    86.5086     6115.00000
    86.5218     6116.00000
    86.5349     6191.00000
    86.5480     5964.00000
    86.5611     6069.00000
    86.5743     6093.00000
    86.5874     6099.00000
    86.6005     6253.00000
    86.6137     6070.00000
    86.6268     6002.00000
    86.6399     6255.00000
    86.6531     6208.00000
    86.6662     5830.00000
    86.6793     6036.00000
    86.6925     6038.00000
    86.7056     6151.00000
    86.7187     6136.00000
    86.7318     6137.00000
    86.7450     6156.00000
    86.7581     6291.00000
    86.7712     6324.00000
    86.7844     6394.00000
    86.7975     6553.00000
    86.8106     6661.00000
    86.8238     6886.00000
    86.8369     6901.00000
    86.8500     6755.00000
    86.8631     7050.00000
    86.8763     6923.00000
    86.8894     7069.00000
    86.9025     6970.00000
    86.9157     6828.00000
    86.9288     6899.00000
    86.9419     6639.00000
    86.9551     6714.00000
    86.9682     6562.00000
    86.9813     6593.00000
    86.9944     6421.00000
    87.0076     6398.00000
    87.0207     6491.00000
    87.0338     6171.00000
    87.0470     6420.00000
    87.0601     6640.00000
    87.0732     6652.00000
    87.0864     6786.00000
    87.0995     6692.00000
    87.1126     6827.00000
    87.1257     6765.00000
    87.1389     6807.00000
    87.1520     6787.00000
    87.1651     6796.00000
    87.1783     6750.00000
    87.1914     6626.00000
    87.2045     6729.00000
    87.2177     6587.00000
    87.2308     6530.00000
    87.2439     6437.00000
    87.2570     6411.00000
    87.2702     6180.00000
    87.2833     6208.00000
    87.2964     6202.00000
    87.3096     6322.00000
    87.3227     6267.00000
    87.3358     6385.00000
    87.3490     6165.00000
    87.3621     6235.00000
    87.3752     6066.00000
    87.3884     5957.00000
    87.4015     6099.00000
    87.4146     6230.00000
    87.4277     6115.00000
    87.4409     6011.00000
    87.4540     6067.00000
    87.4671     6021.00000
    87.4803     5996.00000
    87.4934     5903.00000
    87.5065     6004.00000
    87.5197     6084.00000
    87.5328     5997.00000
    87.5459     6111.00000
    87.5590     5996.00000
    87.5722     5800.00000
    87.5853     5785.00000
    87.5984     5871.00000
    87.6116     6055.00000
    87.6247     6069.00000
    87.6378     5953.00000
    87.6510     5947.00000
    87.6641     6080.00000
    87.6772     6001.00000
    87.6904     5953.00000
    87.7035     5932.00000
    87.7166     5978.00000
    87.7297     5899.00000
    87.7429     5928.00000
    87.7560     6005.00000
    87.7691     6040.00000
    87.7823     6014.00000
    87.7954     5967.00000
    87.8085     6080.00000
    87.8217     5905.00000
    87.8348     6086.00000
    87.8479     6042.00000
    87.8610     6099.00000
    87.8742     6006.00000
    87.8873     6107.00000
    87.9004     5978.00000
    87.9136     5979.00000
    87.9267     6079.00000
    87.9398     6040.00000
    87.9530     5805.00000
    87.9661     5994.00000
    87.9792     6000.00000
    87.9923     6093.00000
    88.0055     6190.00000
    88.0186     6246.00000
    88.0317     6287.00000
    88.0449     6385.00000
    88.0580     6369.00000
    88.0711     6418.00000
    88.0843     6372.00000
    88.0974     6433.00000
    88.1105     6450.00000
    88.1236     6499.00000
    88.1368     6799.00000
    88.1499     6638.00000
    88.1630     6480.00000
    88.1762     6429.00000
    88.1893     6534.00000
    88.2024     6280.00000
    88.2156     6312.00000
    88.2287     6172.00000
    88.2418     6237.00000
    88.2550     6136.00000
    88.2681     6192.00000
    88.2812     6097.00000
    88.2943     6146.00000
    88.3075     6153.00000
    88.3206     6090.00000
    88.3337     6163.00000
    88.3469     6156.00000
    88.3600     6211.00000
    88.3731     6143.00000
    88.3863     6060.00000
    88.3994     6227.00000
    88.4125     6205.00000
    88.4256     6108.00000
    88.4388     6169.00000
    88.4519     5983.00000
    88.4650     6019.00000
    88.4782     6052.00000
    88.4913     5975.00000
    88.5044     5978.00000
    88.5176     6047.00000
    88.5307     5925.00000
    88.5438     5912.00000
    88.5569     6106.00000
    88.5701     6026.00000
    88.5832     5937.00000
    88.5963     6023.00000
    88.6095     6109.00000
    88.6226     6168.00000
    88.6357     6080.00000
    88.6489     6217.00000
    88.6620     6335.00000
    88.6751     6455.00000
    88.6882     6338.00000
    88.7014     6347.00000
    88.7145     6357.00000
    88.7276     6299.00000
    88.7408     6226.00000
    88.7539     6052.00000
    88.7670     6023.00000
    88.7802     6253.00000
    88.7933     6178.00000
    88.8064     6253.00000
    88.8196     6127.00000
    88.8327     6281.00000
    88.8458     6267.00000
    88.8589     6322.00000
    88.8721     6428.00000
    88.8852     6382.00000
    88.8983     6321.00000
    88.9115     6237.00000
    88.9246     6536.00000
    88.9377     6394.00000
    88.9509     6186.00000
    88.9640     6302.00000
    88.9771     6217.00000
    88.9902     6385.00000
    89.0034     6131.00000
    89.0165     6057.00000
    89.0296     6093.00000
    89.0428     6025.00000
    89.0559     6105.00000
    89.0690     6079.00000
    89.0822     6188.00000
    89.0953     6220.00000
    89.1084     6294.00000
    89.1216     6453.00000
    89.1347     6441.00000
    89.1478     6453.00000
    89.1609     6355.00000
    89.1741     6254.00000
    89.1872     6261.00000
    89.2003     6216.00000
    89.2135     6185.00000
    89.2266     6110.00000
    89.2397     6360.00000
    89.2529     6248.00000
    89.2660     6233.00000
    89.2791     6275.00000
    89.2922     6314.00000
    89.3054     6194.00000
    89.3185     6119.00000
    89.3316     6270.00000
    89.3448     6183.00000
    89.3579     6221.00000
    89.3710     6234.00000
    89.3842     6408.00000
    89.3973     6427.00000
    89.4104     6509.00000
    89.4235     6578.00000
    89.4367     6576.00000
    89.4498     6710.00000
    89.4629     6969.00000
    89.4761     6975.00000
    89.4892     6891.00000
    89.5023     6985.00000
    89.5155     6873.00000
    89.5286     6651.00000
    89.5417     6664.00000
    89.5548     6369.00000
    89.5680     6450.00000
    89.5811     6515.00000
    89.5942     6169.00000
    89.6074     6308.00000
    89.6205     6166.00000
    89.6336     6049.00000
    89.6468     6052.00000
    89.6599     6077.00000
    89.6730     6163.00000
    89.6861     6234.00000
    89.6993     6368.00000
    89.7124     6435.00000
    89.7255     6449.00000
    89.7387     6539.00000
    89.7518     6454.00000
    89.7649     6733.00000
    89.7781     6685.00000
    89.7912     6861.00000
    89.8043     6598.00000
    89.8175     6969.00000
    89.8306     7110.00000
    89.8437     6788.00000
    89.8568     6598.00000
    89.8700     6558.00000
    89.8831     6425.00000
    89.8962     6340.00000
    89.9094     6093.00000
    89.9225     5957.00000
    89.9356     6081.00000
    89.9488     6081.00000
    89.9619     5979.00000
    89.9750     5927.00000
    89.9882     5912.00000
    90.0013     6096.00000
    90.0144     5830.00000
    90.0275     5826.00000
    90.0407     5934.00000
    90.0538     5922.00000
    90.0669     6249.00000
    90.0801     6202.00000
    90.0932     6189.00000
    90.1063     6134.00000
    90.1195     6124.00000
    90.1326     6120.00000
    90.1457     6107.00000
    90.1588     6001.00000
    90.1720     5974.00000
    90.1851     5943.00000
    90.1982     5869.00000
    90.2114     5887.00000
    90.2245     5695.00000
    90.2376     5856.00000
    90.2508     5866.00000
    90.2639     6004.00000
    90.2770     5812.00000
    90.2901     5906.00000
    90.3033     5851.00000
    90.3164     5966.00000
    90.3295     5828.00000
    90.3427     5868.00000
    90.3558     5769.00000
    90.3689     5757.00000
    90.3821     5697.00000
    90.3952     5798.00000
    90.4083     5825.00000
    90.4214     5826.00000
    90.4346     5716.00000
    90.4477     5772.00000
    90.4608     5947.00000
    90.4740     5794.00000
    90.4871     5632.00000
    90.5002     5880.00000
    90.5134     5755.00000
    90.5265     5843.00000
    90.5396     5799.00000
    90.5527     5843.00000
    90.5659     5788.00000
    90.5790     5814.00000
    90.5921     5905.00000
    90.6053     5801.00000
    90.6184     5814.00000
    90.6315     5941.00000
    90.6447     5947.00000
    90.6578     5975.00000
    90.6709     5834.00000
    90.6841     5940.00000
    90.6972     5918.00000
    90.7103     5870.00000
    90.7234     5708.00000
    90.7366     5784.00000
    90.7497     5700.00000
    90.7628     5871.00000
    90.7760     5738.00000
    90.7891     5890.00000
    90.8022     5938.00000
    90.8154     5963.00000
    90.8285     5845.00000
    90.8416     5978.00000
    90.8548     5714.00000
    90.8679     5699.00000
    90.8810     5691.00000
    90.8941     5922.00000
    90.9073     5927.00000
    90.9204     5842.00000
    90.9335     5940.00000
    90.9467     5740.00000
    90.9598     5775.00000
    90.9729     5604.00000
    90.9861     5829.00000
    90.9992     5856.00000
    91.0123     5865.00000
    91.0254     5881.00000
    91.0386     5886.00000
    91.0517     5862.00000
    91.0648     5873.00000
    91.0780     5839.00000
    91.0911     5907.00000
    91.1042     5717.00000
    91.1174     5812.00000
    91.1305     5783.00000
    91.1436     5950.00000
    91.1567     5975.00000
    91.1699     5926.00000
    91.1830     6038.00000
    91.1961     5919.00000
    91.2093     5856.00000
    91.2224     5879.00000
    91.2355     6124.00000
    91.2487     5967.00000
    91.2618     6145.00000
    91.2749     6184.00000
    91.2880     6056.00000
    91.3012     6171.00000
    91.3143     6191.00000
    91.3274     6211.00000
    91.3406     6110.00000
    91.3537     6257.00000
    91.3668     6006.00000
    91.3800     6035.00000
    91.3931     5976.00000
    91.4062     6064.00000
    91.4193     5976.00000
    91.4325     5942.00000
    91.4456     6000.00000
    91.4587     6017.00000
    91.4719     5829.00000
    91.4850     5929.00000
    91.4981     6019.00000
    91.5113     5836.00000
    91.5244     6093.00000
    91.5375     6184.00000
    91.5507     6203.00000
    91.5638     6100.00000
    91.5769     5955.00000
    91.5900     6031.00000
    91.6032     6031.00000
    91.6163     5986.00000
    91.6294     6010.00000
    91.6426     6009.00000
    91.6557     6261.00000
    91.6688     6117.00000
    91.6820     6229.00000
    91.6951     6440.00000
    91.7082     6241.00000
    91.7213     6246.00000
    91.7345     6270.00000
    91.7476     6340.00000
    91.7607     6185.00000
    91.7739     6225.00000
    91.7870     6277.00000
    91.8001     6259.00000
    91.8133     6235.00000
    91.8264     6054.00000
    91.8395     6010.00000
    91.8526     6160.00000
    91.8658     6110.00000
    91.8789     6213.00000
    91.8920     6129.00000
    91.9052     6192.00000
    91.9183     6188.00000
    91.9314     6195.00000
    91.9446     6307.00000
    91.9577     6180.00000
    91.9708     6170.00000
    91.9840     6455.00000
    91.9971     6440.00000
    92.0102     6504.00000
    92.0233     6526.00000
    92.0365     6663.00000
    92.0496     6600.00000
    92.0627     6668.00000
    92.0759     6542.00000
    92.0890     6517.00000
    92.1021     6410.00000
    92.1153     6420.00000
    92.1284     6479.00000
    92.1415     6368.00000
    92.1546     6518.00000
    92.1678     6335.00000
    92.1809     6335.00000
    92.1940     6329.00000
    92.2072     6473.00000
    92.2203     6547.00000
    92.2334     6540.00000
    92.2466     6698.00000
    92.2597     6886.00000
    92.2728     6792.00000
    92.2859     6707.00000
    92.2991     6526.00000
    92.3122     6522.00000
    92.3253     6584.00000
    92.3385     6543.00000
    92.3516     6357.00000
    92.3647     6500.00000
    92.3779     6421.00000
    92.3910     6168.00000
    92.4041     6216.00000
    92.4173     6417.00000
    92.4304     6321.00000
    92.4435     6187.00000
    92.4566     6206.00000
    92.4698     6185.00000
    92.4829     6161.00000
    92.4960     6194.00000
    92.5092     6249.00000
    92.5223     6233.00000
    92.5354     6184.00000
    92.5486     6168.00000
    92.5617     6144.00000
    92.5748     6135.00000
    92.5879     5878.00000
    92.6011     6180.00000
    92.6142     5953.00000
    92.6273     6033.00000
    92.6405     6001.00000
    92.6536     5901.00000
    92.6667     5966.00000
    92.6799     6051.00000
    92.6930     5776.00000
    92.7061     5876.00000
    92.7192     5763.00000
    92.7324     5618.00000
    92.7455     5929.00000
    92.7586     5894.00000
    92.7718     5901.00000
    92.7849     5721.00000
    92.7980     5701.00000
    92.8112     5822.00000
    92.8243     5838.00000
    92.8374     5747.00000
    92.8505     5826.00000
    92.8637     5927.00000
    92.8768     5980.00000
    92.8899     5809.00000
    92.9031     5791.00000
    92.9162     5952.00000
    92.9293     6061.00000
    92.9425     5890.00000
    92.9556     5952.00000
    92.9687     6018.00000
    92.9819     5805.00000
    92.9950     5994.00000
    93.0081     6049.00000
    93.0212     5746.00000
    93.0344     5817.00000
    93.0475     5849.00000
    93.0606     5813.00000
    93.0738     5858.00000
    93.0869     5919.00000
    93.1000     6025.00000
    93.1132     5819.00000
    93.1263     5974.00000
    93.1394     5855.00000
    93.1525     5820.00000
    93.1657     5715.00000
    93.1788     5835.00000
    93.1919     5836.00000
    93.2051     5839.00000
    93.2182     5778.00000
    93.2313     5985.00000
    93.2445     5952.00000
    93.2576     5707.00000
    93.2707     5962.00000
    93.2839     5735.00000
    93.2970     5884.00000
    93.3101     5866.00000
    93.3232     5993.00000
    93.3364     5997.00000
    93.3495     5916.00000
    93.3626     5829.00000
    93.3758     5776.00000
    93.3889     5793.00000
    93.4020     5870.00000
    93.4152     5744.00000
    93.4283     5903.00000
    93.4414     6044.00000
    93.4545     5897.00000
    93.4677     5863.00000
    93.4808     5960.00000
    93.4939     5919.00000
    93.5071     5865.00000
    93.5202     5812.00000
    93.5333     5788.00000
    93.5465     5789.00000
    93.5596     5713.00000
    93.5727     5909.00000
    93.5858     5885.00000
    93.5990     5803.00000
    93.6121     5990.00000
    93.6252     5771.00000
    93.6384     5770.00000
    93.6515     5963.00000
    93.6646     5940.00000
    93.6778     5863.00000
    93.6909     5978.00000
    93.7040     5902.00000
    93.7171     5879.00000
    93.7303     5912.00000
    93.7434     6060.00000
    93.7565     6240.00000
    93.7697     6367.00000
    93.7828     6371.00000
    93.7959     6294.00000
    93.8091     6297.00000
    93.8222     6336.00000
    93.8353     6184.00000
    93.8484     6310.00000
    93.8616     6312.00000
    93.8747     6490.00000
    93.8878     6213.00000
    93.9010     6207.00000
    93.9141     6297.00000
    93.9272     6279.00000
    93.9404     6102.00000
    93.9535     5996.00000
    93.9666     6178.00000
    93.9798     6126.00000
    93.9929     5992.00000
    94.0060     5968.00000
    94.0191     5875.00000
    94.0323     6007.00000
    94.0454     5982.00000
    94.0585     6107.00000
    94.0717     6067.00000
    94.0848     6053.00000
    94.0979     5972.00000
    94.1111     6084.00000
    94.1242     5960.00000
    94.1373     5848.00000
    94.1505     5983.00000
    94.1636     5882.00000
    94.1767     6011.00000
    94.1898     6227.00000
    94.2030     6129.00000
    94.2161     5984.00000
    94.2292     6136.00000
    94.2424     5954.00000
    94.2555     5868.00000
    94.2686     5932.00000
    94.2818     5883.00000
    94.2949     6004.00000
    94.3080     5835.00000
    94.3211     5804.00000
    94.3343     5817.00000
    94.3474     5826.00000
    94.3605     5913.00000
    94.3737     5857.00000
    94.3868     5764.00000
    94.3999     5777.00000
    94.4131     6006.00000
    94.4262     5855.00000
    94.4393     5740.00000
    94.4524     5785.00000
    94.4656     5898.00000
    94.4787     5790.00000
    94.4918     5890.00000
    94.5050     5999.00000
    94.5181     5891.00000
    94.5312     6054.00000
    94.5444     6184.00000
    94.5575     6169.00000
    94.5706     6123.00000
    94.5837     6083.00000
    94.5969     6125.00000
    94.6100     6162.00000
    94.6231     6174.00000
    94.6363     6245.00000
    94.6494     6207.00000
    94.6625     6240.00000
    94.6757     6446.00000
    94.6888     6366.00000
    94.7019     6470.00000
    94.7150     6281.00000
    94.7282     6300.00000
    94.7413     6183.00000
    94.7544     6083.00000
    94.7676     6279.00000
    94.7807     6344.00000
    94.7938     6269.00000
    94.8070     6370.00000
    94.8201     6242.00000
    94.8332     6247.00000
    94.8464     6197.00000
    94.8595     6259.00000
    94.8726     6396.00000
    94.8857     6269.00000
    94.8989     6246.00000
    94.9120     6134.00000
    94.9251     6112.00000
    94.9383     6099.00000
    94.9514     6230.00000
    94.9645     6300.00000
    94.9777     6187.00000
    94.9908     6349.00000
    95.0039     6281.00000
    95.0170     6416.00000
    95.0302     6374.00000
    95.0433     6095.00000
    95.0564     6407.00000
    95.0696     6388.00000
    95.0827     6303.00000
    95.0958     6276.00000
    95.1090     6459.00000
    95.1221     6438.00000
    95.1352     6354.00000
    95.1484     6489.00000
    95.1615     6170.00000
    95.1746     6359.00000
    95.1877     6057.00000
    95.2009     5988.00000
    95.2140     6124.00000
    95.2271     6177.00000
    95.2403     5931.00000
    95.2534     5925.00000
    95.2665     5879.00000
    95.2797     5972.00000
    95.2928     6051.00000
    95.3059     6048.00000
    95.3190     6173.00000
    95.3322     5975.00000
    95.3453     6017.00000
    95.3584     5938.00000
    95.3716     5920.00000
    95.3847     6149.00000
    95.3978     6035.00000
    95.4110     6077.00000
    95.4241     6313.00000
    95.4372     6369.00000
    95.4503     6242.00000
    95.4635     6552.00000
    95.4766     6674.00000
    95.4897     6413.00000
    95.5029     6361.00000
    95.5160     6279.00000
    95.5291     6114.00000
    95.5423     6080.00000
    95.5554     6115.00000
    95.5685     6114.00000
    95.5816     6071.00000
    95.5948     6158.00000
    95.6079     5947.00000
    95.6210     6067.00000
    95.6342     6053.00000
    95.6473     5955.00000
    95.6604     6073.00000
    95.6736     5866.00000
    95.6867     5982.00000
    95.6998     6178.00000
    95.7130     6271.00000
    95.7261     6196.00000
    95.7392     6159.00000
    95.7523     6320.00000
    95.7655     6360.00000
    95.7786     6545.00000
    95.7917     6440.00000
    95.8049     6455.00000
    95.8180     6435.00000
    95.8311     6444.00000
    95.8443     6387.00000
    95.8574     6257.00000
    95.8705     6318.00000
    95.8836     6275.00000
    95.8968     6122.00000
    95.9099     6090.00000
    95.9230     5932.00000
    95.9362     5860.00000
    95.9493     5825.00000
    95.9624     5794.00000
    95.9756     5989.00000
    95.9887     5800.00000
    96.0018     5790.00000
    96.0149     5911.00000
    96.0281     5928.00000
    96.0412     5786.00000
    96.0543     5873.00000
    96.0675     5909.00000
    96.0806     5922.00000
    96.0937     5979.00000
    96.1069     5916.00000
    96.1200     5936.00000
    96.1331     6049.00000
    96.1463     6112.00000
    96.1594     5870.00000
    96.1725     5976.00000
    96.1856     6005.00000
    96.1988     5925.00000
    96.2119     5929.00000
    96.2250     5886.00000
    96.2382     5693.00000
    96.2513     5863.00000
    96.2644     5694.00000
    96.2776     5794.00000
    96.2907     5760.00000
    96.3038     5657.00000
    96.3169     5723.00000
    96.3301     5784.00000
    96.3432     5709.00000
    96.3563     5577.00000
    96.3695     5948.00000
    96.3826     5878.00000
    96.3957     5809.00000
    96.4089     5770.00000
    96.4220     5734.00000
    96.4351     5943.00000
    96.4482     5688.00000
    96.4614     5684.00000
    96.4745     5711.00000
    96.4876     5736.00000
    96.5008     5650.00000
    96.5139     5878.00000
    96.5270     5701.00000
    96.5402     5860.00000
    96.5533     5730.00000
    96.5664     5871.00000
    96.5796     5748.00000
    96.5927     5702.00000
    96.6058     5737.00000
    96.6189     5832.00000
    96.6321     5788.00000
    96.6452     5848.00000
    96.6583     5683.00000
    96.6715     5615.00000
    96.6846     5496.00000
    96.6977     5659.00000
    96.7109     5810.00000
    96.7240     5789.00000
    96.7371     5747.00000
    96.7502     5749.00000
    96.7634     5781.00000
    96.7765     5820.00000
    96.7896     5860.00000
    96.8028     5928.00000
    96.8159     5786.00000
    96.8290     5885.00000
    96.8422     5789.00000
    96.8553     5623.00000
    96.8684     5784.00000
    96.8815     5868.00000
    96.8947     5795.00000
    96.9078     5712.00000
    96.9209     5800.00000
    96.9341     5722.00000
    96.9472     5968.00000
    96.9603     5880.00000
    96.9735     5930.00000
    96.9866     5904.00000
    96.9997     5855.00000
    97.0128     5890.00000
    97.0260     6089.00000
    97.0391     5949.00000
    97.0522     5967.00000
    97.0654     5881.00000
    97.0785     5898.00000
    97.0916     6191.00000
    97.1048     5900.00000
    97.1179     6006.00000
    97.1310     6147.00000
    97.1442     6005.00000
    97.1573     6165.00000
    97.1704     6050.00000
    97.1835     6038.00000
    97.1967     5986.00000
    97.2098     6129.00000
    97.2229     6285.00000
    97.2361     6192.00000
    97.2492     6091.00000
    97.2623     5948.00000
    97.2755     5942.00000
    97.2886     6075.00000
    97.3017     5996.00000
    97.3148     6049.00000
    97.3280     6000.00000
    97.3411     6057.00000
    97.3542     6026.00000
    97.3674     6056.00000
    97.3805     6118.00000
    97.3936     5906.00000
    97.4068     6066.00000
    97.4199     5899.00000
    97.4330     5922.00000
    97.4462     6017.00000
    97.4593     5966.00000
    97.4724     5900.00000
    97.4855     6135.00000
    97.4987     6228.00000
    97.5118     6218.00000
    97.5249     6103.00000
    97.5381     6066.00000
    97.5512     6175.00000
    97.5643     6052.00000
    97.5775     6226.00000
    97.5906     6241.00000
    97.6037     6155.00000
    97.6168     6163.00000
    97.6300     6211.00000
    97.6431     6155.00000
    97.6562     6027.00000
    97.6694     5953.00000
    97.6825     6027.00000
    97.6956     5933.00000
    97.7088     5879.00000
    97.7219     6062.00000
    97.7350     5990.00000
    97.7481     5952.00000
    97.7613     5867.00000
    97.7744     5913.00000
    97.7875     5842.00000
    97.8007     5876.00000
    97.8138     5839.00000
    97.8269     5904.00000
    97.8401     5833.00000
    97.8532     5876.00000
    97.8663     5851.00000
    97.8794     5954.00000
    97.8926     5798.00000
    97.9057     5947.00000
    97.9188     5935.00000
    97.9320     5804.00000
    97.9451     5989.00000
    97.9582     5856.00000
    97.9714     5829.00000
    97.9845     5845.00000
    97.9976     5871.00000
    98.0107     5877.00000
    98.0239     5662.00000
    98.0370     5726.00000
    98.0501     5747.00000
    98.0633     5584.00000
    98.0764     5654.00000
    98.0895     5789.00000
    98.1027     5600.00000
    98.1158     5763.00000
    98.1289     5767.00000
    98.1421     5707.00000
    98.1552     5715.00000
    98.1683     5738.00000
    98.1814     5657.00000
    98.1946     5577.00000
    98.2077     5647.00000
    98.2208     5848.00000
    98.2340     5636.00000
    98.2471     5791.00000
    98.2602     5788.00000
    98.2734     5749.00000
    98.2865     5891.00000
    98.2996     5983.00000
    98.3128     5835.00000
    98.3259     6073.00000
    98.3390     6140.00000
    98.3521     5793.00000
    98.3653     5835.00000
    98.3784     6121.00000
    98.3915     6057.00000
    98.4047     5923.00000
    98.4178     5887.00000
    98.4309     5982.00000
    98.4441     5824.00000
    98.4572     6003.00000
    98.4703     5834.00000
    98.4834     5930.00000
    98.4966     6068.00000
    98.5097     6099.00000
    98.5228     6030.00000
    98.5360     6087.00000
    98.5491     5939.00000
    98.5622     5916.00000
    98.5754     5924.00000
    98.5885     5962.00000
    98.6016     6043.00000
    98.6147     5885.00000
    98.6279     6013.00000
    98.6410     6130.00000
    98.6541     6066.00000
    98.6673     6099.00000
    98.6804     6298.00000
    98.6935     6326.00000
    98.7067     6288.00000
    98.7198     6251.00000
    98.7329     6379.00000
    98.7460     6221.00000
    98.7592     6036.00000
    98.7723     6208.00000
    98.7854     6138.00000
    98.7986     6143.00000
    98.8117     6179.00000
    98.8248     5993.00000
    98.8380     5841.00000
    98.8511     5787.00000
    98.8642     5905.00000
    98.8773     5799.00000
    98.8905     5971.00000
    98.9036     6035.00000
    98.9167     5977.00000
    98.9299     5931.00000
    98.9430     5862.00000
    98.9561     6011.00000
    98.9693     5920.00000
    98.9824     5993.00000
    98.9955     5944.00000
    99.0087     5913.00000
    99.0218     5929.00000
    99.0349     6062.00000
    99.0480     6006.00000
    99.0612     6040.00000
    99.0743     5880.00000
    99.0874     5953.00000
    99.1006     5794.00000
    99.1137     5721.00000
    99.1268     5764.00000
    99.1400     5829.00000
    99.1531     5901.00000
    99.1662     5779.00000
    99.1793     5735.00000
    99.1925     5789.00000
    99.2056     5881.00000
    99.2187     5817.00000
    99.2319     5702.00000
    99.2450     5772.00000
    99.2581     5752.00000
    99.2713     5858.00000
    99.2844     5787.00000
    99.2975     5709.00000
    99.3107     5869.00000
    99.3238     5864.00000
    99.3369     5703.00000
    99.3500     5626.00000
    99.3632     5747.00000
    99.3763     5743.00000
    99.3894     5628.00000
    99.4026     5670.00000
    99.4157     5666.00000
    99.4288     5735.00000
    99.4420     5805.00000
    99.4551     5646.00000
    99.4682     5610.00000
    99.4813     5772.00000
    99.4945     5846.00000
    99.5076     5562.00000
    99.5207     5747.00000
    99.5339     5794.00000
    99.5470     5570.00000
    99.5601     5882.00000
    99.5733     5842.00000
    99.5864     5719.00000
    99.5995     5666.00000
    99.6126     5616.00000
    99.6258     5687.00000
    99.6389     5718.00000
    99.6520     5683.00000
    99.6652     5717.00000
    99.6783     5550.00000
    99.6914     5692.00000
    99.7046     5663.00000
    99.7177     5572.00000
    99.7308     5753.00000
    99.7439     5429.00000
    99.7571     5746.00000
    99.7702     5768.00000
    99.7833     5685.00000
    99.7965     5705.00000
    99.8096     5688.00000
    99.8227     5640.00000
    99.8359     5577.00000
    99.8490     5513.00000
    99.8621     5684.00000
    99.8753     5675.00000
    99.8884     5738.00000
    99.9015     5672.00000
    99.9146     5837.00000
    99.9278     5840.00000
    99.9409     5825.00000
    99.9540     5651.00000
    99.9672     5696.00000
    99.9803     5777.00000
    99.9934     5697.00000
