! Initial file:   D:\ZAKARY_OUAIL\MA_THESE\Deuxième_année_de_thèse\DRX\Affinement_DRX\Fullprof\Thermodiff3-nuit_NaNbO2F2\230°C\NaNbO2F2-Lent_230°C.xrdml
! Initial format:  58
! WAVE (A):      1.54060     1.54060     1.00000
! REM : data have been multiplied by     1.0000
! X_data : 2 Theta (deg.)                                                                                                                                                                                                                                                  
! Y_data : Intensity (arb. units)                                                                                                                                                                                                                                          
!     X         Y
!--------------------------------------------------------------------------------
    10.0116     7619.00000
    10.0247     7491.00000
    10.0379     7550.00000
    10.0510     7635.00000
    10.0641     7534.00000
    10.0772     7560.00000
    10.0904     7542.00000
    10.1035     7700.00000
    10.1166     7788.00000
    10.1298     8001.00000
    10.1429     7878.00000
    10.1560     7740.00000
    10.1692     7702.00000
    10.1823     7674.00000
    10.1954     7702.00000
    10.2086     7670.00000
    10.2217     7861.00000
    10.2348     7902.00000
    10.2479     7597.00000
    10.2611     7647.00000
    10.2742     7668.00000
    10.2873     7674.00000
    10.3005     7552.00000
    10.3136     7540.00000
    10.3267     7539.00000
    10.3399     7662.00000
    10.3530     7599.00000
    10.3661     7680.00000
    10.3792     7669.00000
    10.3924     7668.00000
    10.4055     7790.00000
    10.4186     7599.00000
    10.4318     7584.00000
    10.4449     7643.00000
    10.4580     7554.00000
    10.4712     7523.00000
    10.4843     7786.00000
    10.4974     7757.00000
    10.5105     7707.00000
    10.5237     7587.00000
    10.5368     7550.00000
    10.5499     7682.00000
    10.5631     7741.00000
    10.5762     7716.00000
    10.5893     7533.00000
    10.6025     7446.00000
    10.6156     7641.00000
    10.6287     7705.00000
    10.6418     7778.00000
    10.6550     7752.00000
    10.6681     7373.00000
    10.6812     7596.00000
    10.6944     7727.00000
    10.7075     7867.00000
    10.7206     7692.00000
    10.7338     7701.00000
    10.7469     7612.00000
    10.7600     7732.00000
    10.7732     7533.00000
    10.7863     7775.00000
    10.7994     7778.00000
    10.8125     7815.00000
    10.8257     7789.00000
    10.8388     7713.00000
    10.8519     7758.00000
    10.8651     8093.00000
    10.8782     8095.00000
    10.8913     7943.00000
    10.9045     8276.00000
    10.9176     8251.00000
    10.9307     7956.00000
    10.9438     7995.00000
    10.9570     8220.00000
    10.9701     8284.00000
    10.9832     8222.00000
    10.9964     8365.00000
    11.0095     8349.00000
    11.0226     8307.00000
    11.0358     8606.00000
    11.0489     8673.00000
    11.0620     8921.00000
    11.0751     9237.00000
    11.0883     9544.00000
    11.1014    10033.00000
    11.1145    10669.00000
    11.1277    11663.00000
    11.1408    12852.00000
    11.1539    14582.00000
    11.1671    17356.00000
    11.1802    21901.00000
    11.1933    28258.00000
    11.2065    39473.00000
    11.2196    54465.00000
    11.2327    70102.00000
    11.2458    79460.00000
    11.2590    79135.00000
    11.2721    68058.00000
    11.2852    52734.00000
    11.2984    37608.00000
    11.3115    25376.00000
    11.3246    17179.00000
    11.3378    12827.00000
    11.3509    10436.00000
    11.3640     9416.00000
    11.3771     8718.00000
    11.3903     8754.00000
    11.4034     8808.00000
    11.4165     8551.00000
    11.4297     8439.00000
    11.4428     8197.00000
    11.4559     8103.00000
    11.4691     8068.00000
    11.4822     7912.00000
    11.4953     8034.00000
    11.5084     7775.00000
    11.5216     7855.00000
    11.5347     7707.00000
    11.5478     7867.00000
    11.5610     7708.00000
    11.5741     7761.00000
    11.5872     7686.00000
    11.6004     7760.00000
    11.6135     7791.00000
    11.6266     7736.00000
    11.6398     7546.00000
    11.6529     7847.00000
    11.6660     7806.00000
    11.6791     7884.00000
    11.6923     7873.00000
    11.7054     7898.00000
    11.7185     7843.00000
    11.7317     7898.00000
    11.7448     7909.00000
    11.7579     7822.00000
    11.7711     7941.00000
    11.7842     8028.00000
    11.7973     7930.00000
    11.8104     7934.00000
    11.8236     7762.00000
    11.8367     7863.00000
    11.8498     7919.00000
    11.8630     7953.00000
    11.8761     8022.00000
    11.8892     8013.00000
    11.9024     8022.00000
    11.9155     7991.00000
    11.9286     8008.00000
    11.9417     8020.00000
    11.9549     8037.00000
    11.9680     8059.00000
    11.9811     7848.00000
    11.9943     7937.00000
    12.0074     7825.00000
    12.0205     7908.00000
    12.0337     7858.00000
    12.0468     7921.00000
    12.0599     8234.00000
    12.0731     8329.00000
    12.0862     8104.00000
    12.0993     8174.00000
    12.1124     8030.00000
    12.1256     8275.00000
    12.1387     8032.00000
    12.1518     7887.00000
    12.1650     7996.00000
    12.1781     8152.00000
    12.1912     7968.00000
    12.2044     7936.00000
    12.2175     8016.00000
    12.2306     8070.00000
    12.2437     8312.00000
    12.2569     8150.00000
    12.2700     8066.00000
    12.2831     8047.00000
    12.2963     8096.00000
    12.3094     8055.00000
    12.3225     8072.00000
    12.3357     7992.00000
    12.3488     8092.00000
    12.3619     8073.00000
    12.3750     8169.00000
    12.3882     7883.00000
    12.4013     8072.00000
    12.4144     8014.00000
    12.4276     8031.00000
    12.4407     8151.00000
    12.4538     8130.00000
    12.4670     8057.00000
    12.4801     8122.00000
    12.4932     8051.00000
    12.5063     7895.00000
    12.5195     8056.00000
    12.5326     8016.00000
    12.5457     7995.00000
    12.5589     8000.00000
    12.5720     8199.00000
    12.5851     8217.00000
    12.5983     8087.00000
    12.6114     7987.00000
    12.6245     8054.00000
    12.6377     8103.00000
    12.6508     7943.00000
    12.6639     7967.00000
    12.6770     7983.00000
    12.6902     8020.00000
    12.7033     7851.00000
    12.7164     7925.00000
    12.7296     8011.00000
    12.7427     7943.00000
    12.7558     7978.00000
    12.7690     8028.00000
    12.7821     8022.00000
    12.7952     7905.00000
    12.8083     8108.00000
    12.8215     8068.00000
    12.8346     8110.00000
    12.8477     7916.00000
    12.8609     7912.00000
    12.8740     8010.00000
    12.8871     7923.00000
    12.9003     7986.00000
    12.9134     8060.00000
    12.9265     8133.00000
    12.9396     8043.00000
    12.9528     7896.00000
    12.9659     8000.00000
    12.9790     8017.00000
    12.9922     7916.00000
    13.0053     7969.00000
    13.0184     8098.00000
    13.0316     8071.00000
    13.0447     7940.00000
    13.0578     7930.00000
    13.0710     8043.00000
    13.0841     7967.00000
    13.0972     8015.00000
    13.1103     7939.00000
    13.1235     7849.00000
    13.1366     7944.00000
    13.1497     7767.00000
    13.1629     7866.00000
    13.1760     7872.00000
    13.1891     7819.00000
    13.2023     8088.00000
    13.2154     7956.00000
    13.2285     7858.00000
    13.2416     7887.00000
    13.2548     7906.00000
    13.2679     7986.00000
    13.2810     7936.00000
    13.2942     8093.00000
    13.3073     7868.00000
    13.3204     7722.00000
    13.3336     7827.00000
    13.3467     7795.00000
    13.3598     7821.00000
    13.3729     7678.00000
    13.3861     7999.00000
    13.3992     7830.00000
    13.4123     7859.00000
    13.4255     7966.00000
    13.4386     8026.00000
    13.4517     7841.00000
    13.4649     7880.00000
    13.4780     7960.00000
    13.4911     7865.00000
    13.5043     7930.00000
    13.5174     7736.00000
    13.5305     7796.00000
    13.5436     7992.00000
    13.5568     7834.00000
    13.5699     7759.00000
    13.5830     7819.00000
    13.5962     7899.00000
    13.6093     7909.00000
    13.6224     7976.00000
    13.6356     7815.00000
    13.6487     7688.00000
    13.6618     7990.00000
    13.6749     8012.00000
    13.6881     7946.00000
    13.7012     8005.00000
    13.7143     8066.00000
    13.7275     8016.00000
    13.7406     8034.00000
    13.7537     7950.00000
    13.7669     7951.00000
    13.7800     7762.00000
    13.7931     7926.00000
    13.8062     7836.00000
    13.8194     7750.00000
    13.8325     7967.00000
    13.8456     7960.00000
    13.8588     7878.00000
    13.8719     7959.00000
    13.8850     7765.00000
    13.8982     7754.00000
    13.9113     7899.00000
    13.9244     7722.00000
    13.9376     7930.00000
    13.9507     7873.00000
    13.9638     7861.00000
    13.9769     7993.00000
    13.9901     7891.00000
    14.0032     7767.00000
    14.0163     7796.00000
    14.0295     8015.00000
    14.0426     7804.00000
    14.0557     8079.00000
    14.0689     7938.00000
    14.0820     7930.00000
    14.0951     8014.00000
    14.1082     7946.00000
    14.1214     7779.00000
    14.1345     7874.00000
    14.1476     7947.00000
    14.1608     7884.00000
    14.1739     7736.00000
    14.1870     7886.00000
    14.2002     7863.00000
    14.2133     7767.00000
    14.2264     7911.00000
    14.2395     7781.00000
    14.2527     7903.00000
    14.2658     7822.00000
    14.2789     8053.00000
    14.2921     7921.00000
    14.3052     7842.00000
    14.3183     7887.00000
    14.3315     7703.00000
    14.3446     7721.00000
    14.3577     7849.00000
    14.3708     7706.00000
    14.3840     7869.00000
    14.3971     7926.00000
    14.4102     8120.00000
    14.4234     7990.00000
    14.4365     8056.00000
    14.4496     8134.00000
    14.4628     8405.00000
    14.4759     8496.00000
    14.4890     8903.00000
    14.5022     9125.00000
    14.5153     9420.00000
    14.5284     9497.00000
    14.5415     9533.00000
    14.5547     9540.00000
    14.5678     9065.00000
    14.5809     8842.00000
    14.5941     8504.00000
    14.6072     8319.00000
    14.6203     7969.00000
    14.6335     7958.00000
    14.6466     7992.00000
    14.6597     7821.00000
    14.6728     7852.00000
    14.6860     7872.00000
    14.6991     7927.00000
    14.7122     7944.00000
    14.7254     7915.00000
    14.7385     7737.00000
    14.7516     7683.00000
    14.7648     7823.00000
    14.7779     7896.00000
    14.7910     7623.00000
    14.8041     7648.00000
    14.8173     7646.00000
    14.8304     7764.00000
    14.8435     7689.00000
    14.8567     7920.00000
    14.8698     7698.00000
    14.8829     7700.00000
    14.8961     7596.00000
    14.9092     7823.00000
    14.9223     7848.00000
    14.9355     7732.00000
    14.9486     7789.00000
    14.9617     7541.00000
    14.9748     7618.00000
    14.9880     7736.00000
    15.0011     7775.00000
    15.0142     7749.00000
    15.0274     7812.00000
    15.0405     7639.00000
    15.0536     7669.00000
    15.0668     7792.00000
    15.0799     7772.00000
    15.0930     7727.00000
    15.1061     7915.00000
    15.1193     7732.00000
    15.1324     7676.00000
    15.1455     7621.00000
    15.1587     7638.00000
    15.1718     7637.00000
    15.1849     7555.00000
    15.1981     7813.00000
    15.2112     7693.00000
    15.2243     7651.00000
    15.2374     7579.00000
    15.2506     7609.00000
    15.2637     7504.00000
    15.2768     7551.00000
    15.2900     7601.00000
    15.3031     7764.00000
    15.3162     7570.00000
    15.3294     7883.00000
    15.3425     7803.00000
    15.3556     7479.00000
    15.3688     7608.00000
    15.3819     7771.00000
    15.3950     7643.00000
    15.4081     7704.00000
    15.4213     7823.00000
    15.4344     7786.00000
    15.4475     7866.00000
    15.4607     7628.00000
    15.4738     7896.00000
    15.4869     7636.00000
    15.5001     7663.00000
    15.5132     7796.00000
    15.5263     7546.00000
    15.5394     7812.00000
    15.5526     7716.00000
    15.5657     7604.00000
    15.5788     7617.00000
    15.5920     7690.00000
    15.6051     7983.00000
    15.6182     7892.00000
    15.6314     7601.00000
    15.6445     7706.00000
    15.6576     7590.00000
    15.6707     7671.00000
    15.6839     7568.00000
    15.6970     7537.00000
    15.7101     7475.00000
    15.7233     7709.00000
    15.7364     7732.00000
    15.7495     7625.00000
    15.7627     7622.00000
    15.7758     7575.00000
    15.7889     7621.00000
    15.8021     7806.00000
    15.8152     7886.00000
    15.8283     7658.00000
    15.8414     7667.00000
    15.8546     7547.00000
    15.8677     7564.00000
    15.8808     7725.00000
    15.8940     7619.00000
    15.9071     7487.00000
    15.9202     7702.00000
    15.9334     7762.00000
    15.9465     7657.00000
    15.9596     7696.00000
    15.9727     7741.00000
    15.9859     7686.00000
    15.9990     7798.00000
    16.0121     7754.00000
    16.0253     7591.00000
    16.0384     7697.00000
    16.0515     7754.00000
    16.0647     7741.00000
    16.0778     7599.00000
    16.0909     7579.00000
    16.1040     7610.00000
    16.1172     7633.00000
    16.1303     7587.00000
    16.1434     7650.00000
    16.1566     7837.00000
    16.1697     7680.00000
    16.1828     7726.00000
    16.1960     7530.00000
    16.2091     7586.00000
    16.2222     7530.00000
    16.2353     7520.00000
    16.2485     7572.00000
    16.2616     7609.00000
    16.2747     7460.00000
    16.2879     7505.00000
    16.3010     7540.00000
    16.3141     7372.00000
    16.3273     7728.00000
    16.3404     7768.00000
    16.3535     7695.00000
    16.3667     7707.00000
    16.3798     7576.00000
    16.3929     7744.00000
    16.4060     7836.00000
    16.4192     7655.00000
    16.4323     7687.00000
    16.4454     7676.00000
    16.4586     7729.00000
    16.4717     7567.00000
    16.4848     7820.00000
    16.4980     7684.00000
    16.5111     7595.00000
    16.5242     7476.00000
    16.5373     7660.00000
    16.5505     7486.00000
    16.5636     7561.00000
    16.5767     7537.00000
    16.5899     7516.00000
    16.6030     7739.00000
    16.6161     7629.00000
    16.6293     7614.00000
    16.6424     7683.00000
    16.6555     7576.00000
    16.6686     7670.00000
    16.6818     7673.00000
    16.6949     7685.00000
    16.7080     7710.00000
    16.7212     7659.00000
    16.7343     7560.00000
    16.7474     7798.00000
    16.7606     7994.00000
    16.7737     7888.00000
    16.7868     8046.00000
    16.8000     8040.00000
    16.8131     8197.00000
    16.8262     7946.00000
    16.8393     7796.00000
    16.8525     7770.00000
    16.8656     7741.00000
    16.8787     7805.00000
    16.8919     7501.00000
    16.9050     7542.00000
    16.9181     7533.00000
    16.9313     7420.00000
    16.9444     7469.00000
    16.9575     7421.00000
    16.9706     7441.00000
    16.9838     7449.00000
    16.9969     7438.00000
    17.0100     7367.00000
    17.0232     7408.00000
    17.0363     7564.00000
    17.0494     7537.00000
    17.0626     7550.00000
    17.0757     7397.00000
    17.0888     7455.00000
    17.1019     7470.00000
    17.1151     7481.00000
    17.1282     7453.00000
    17.1413     7432.00000
    17.1545     7592.00000
    17.1676     7570.00000
    17.1807     7491.00000
    17.1939     7416.00000
    17.2070     7512.00000
    17.2201     7613.00000
    17.2333     7423.00000
    17.2464     7377.00000
    17.2595     7340.00000
    17.2726     7592.00000
    17.2858     7356.00000
    17.2989     7498.00000
    17.3120     7598.00000
    17.3252     7455.00000
    17.3383     7333.00000
    17.3514     7406.00000
    17.3646     7293.00000
    17.3777     7303.00000
    17.3908     7567.00000
    17.4039     7449.00000
    17.4171     7462.00000
    17.4302     7556.00000
    17.4433     7373.00000
    17.4565     7412.00000
    17.4696     7563.00000
    17.4827     7339.00000
    17.4959     7382.00000
    17.5090     7317.00000
    17.5221     7362.00000
    17.5352     7460.00000
    17.5484     7416.00000
    17.5615     7310.00000
    17.5746     7394.00000
    17.5878     7471.00000
    17.6009     7435.00000
    17.6140     7365.00000
    17.6272     7448.00000
    17.6403     7351.00000
    17.6534     7530.00000
    17.6666     7234.00000
    17.6797     7345.00000
    17.6928     7166.00000
    17.7059     7410.00000
    17.7191     7356.00000
    17.7322     7390.00000
    17.7453     7345.00000
    17.7585     7311.00000
    17.7716     7337.00000
    17.7847     7353.00000
    17.7979     7353.00000
    17.8110     7461.00000
    17.8241     7346.00000
    17.8372     7461.00000
    17.8504     7430.00000
    17.8635     7417.00000
    17.8766     7466.00000
    17.8898     7470.00000
    17.9029     7589.00000
    17.9160     7440.00000
    17.9292     7374.00000
    17.9423     7405.00000
    17.9554     7359.00000
    17.9685     7266.00000
    17.9817     7331.00000
    17.9948     7351.00000
    18.0079     7421.00000
    18.0211     7199.00000
    18.0342     7058.00000
    18.0473     7436.00000
    18.0605     7271.00000
    18.0736     7260.00000
    18.0867     7447.00000
    18.0998     7303.00000
    18.1130     7265.00000
    18.1261     7470.00000
    18.1392     7171.00000
    18.1524     7090.00000
    18.1655     7311.00000
    18.1786     7435.00000
    18.1918     7362.00000
    18.2049     7142.00000
    18.2180     7565.00000
    18.2312     7261.00000
    18.2443     7178.00000
    18.2574     7391.00000
    18.2705     7180.00000
    18.2837     7295.00000
    18.2968     7214.00000
    18.3099     7306.00000
    18.3231     7284.00000
    18.3362     7161.00000
    18.3493     7330.00000
    18.3625     7287.00000
    18.3756     7235.00000
    18.3887     7226.00000
    18.4018     7205.00000
    18.4150     7228.00000
    18.4281     7402.00000
    18.4412     7263.00000
    18.4544     7106.00000
    18.4675     7082.00000
    18.4806     7500.00000
    18.4938     7214.00000
    18.5069     7338.00000
    18.5200     7096.00000
    18.5331     7437.00000
    18.5463     7282.00000
    18.5594     7251.00000
    18.5725     7170.00000
    18.5857     7175.00000
    18.5988     7038.00000
    18.6119     7097.00000
    18.6251     7231.00000
    18.6382     7418.00000
    18.6513     7163.00000
    18.6645     7205.00000
    18.6776     7469.00000
    18.6907     7043.00000
    18.7038     7065.00000
    18.7170     7014.00000
    18.7301     7227.00000
    18.7432     7147.00000
    18.7564     7259.00000
    18.7695     7165.00000
    18.7826     7138.00000
    18.7958     7129.00000
    18.8089     7241.00000
    18.8220     7257.00000
    18.8351     7251.00000
    18.8483     7148.00000
    18.8614     7414.00000
    18.8745     7184.00000
    18.8877     7165.00000
    18.9008     7119.00000
    18.9139     7176.00000
    18.9271     7235.00000
    18.9402     7292.00000
    18.9533     7237.00000
    18.9664     7142.00000
    18.9796     7230.00000
    18.9927     7283.00000
    19.0058     7369.00000
    19.0190     7193.00000
    19.0321     7181.00000
    19.0452     7225.00000
    19.0584     7176.00000
    19.0715     7129.00000
    19.0846     7230.00000
    19.0978     7480.00000
    19.1109     7375.00000
    19.1240     7415.00000
    19.1371     7456.00000
    19.1503     7489.00000
    19.1634     7638.00000
    19.1765     7721.00000
    19.1897     7633.00000
    19.2028     7724.00000
    19.2159     7718.00000
    19.2291     7810.00000
    19.2422     7778.00000
    19.2553     7762.00000
    19.2684     7524.00000
    19.2816     7479.00000
    19.2947     7763.00000
    19.3078     7602.00000
    19.3210     7441.00000
    19.3341     7527.00000
    19.3472     7837.00000
    19.3604     7732.00000
    19.3735     7591.00000
    19.3866     7621.00000
    19.3997     7576.00000
    19.4129     7595.00000
    19.4260     7596.00000
    19.4391     7688.00000
    19.4523     7548.00000
    19.4654     7669.00000
    19.4785     7896.00000
    19.4917     7733.00000
    19.5048     7764.00000
    19.5179     7816.00000
    19.5311     7759.00000
    19.5442     7943.00000
    19.5573     7986.00000
    19.5704     8132.00000
    19.5836     8239.00000
    19.5967     8363.00000
    19.6098     8477.00000
    19.6230     8631.00000
    19.6361     8598.00000
    19.6492     8817.00000
    19.6624     9154.00000
    19.6755     9217.00000
    19.6886     9695.00000
    19.7017    10724.00000
    19.7149    11603.00000
    19.7280    13547.00000
    19.7411    16801.00000
    19.7543    20855.00000
    19.7674    28213.00000
    19.7805    39386.00000
    19.7937    53626.00000
    19.8068    70705.00000
    19.8199    87070.00000
    19.8330    97347.00000
    19.8462    95044.00000
    19.8593    83822.00000
    19.8724    72143.00000
    19.8856    60704.00000
    19.8987    47053.00000
    19.9118    33804.00000
    19.9250    23869.00000
    19.9381    17084.00000
    19.9512    13010.00000
    19.9643    11114.00000
    19.9775    10356.00000
    19.9906     9656.00000
    20.0037     9382.00000
    20.0169     9015.00000
    20.0300     8852.00000
    20.0431     8895.00000
    20.0563     8510.00000
    20.0694     8294.00000
    20.0825     8088.00000
    20.0957     8001.00000
    20.1088     7970.00000
    20.1219     8089.00000
    20.1350     8041.00000
    20.1482     7878.00000
    20.1613     7712.00000
    20.1744     7940.00000
    20.1876     7848.00000
    20.2007     7809.00000
    20.2138     7737.00000
    20.2270     7834.00000
    20.2401     7750.00000
    20.2532     7884.00000
    20.2663     7531.00000
    20.2795     7466.00000
    20.2926     7479.00000
    20.3057     7503.00000
    20.3189     7411.00000
    20.3320     7372.00000
    20.3451     7436.00000
    20.3583     7585.00000
    20.3714     7582.00000
    20.3845     7454.00000
    20.3976     7448.00000
    20.4108     7507.00000
    20.4239     7793.00000
    20.4370     7569.00000
    20.4502     7337.00000
    20.4633     7491.00000
    20.4764     7372.00000
    20.4896     7594.00000
    20.5027     7515.00000
    20.5158     7245.00000
    20.5290     7280.00000
    20.5421     7537.00000
    20.5552     7320.00000
    20.5683     7353.00000
    20.5815     7498.00000
    20.5946     7710.00000
    20.6077     7537.00000
    20.6209     7392.00000
    20.6340     7461.00000
    20.6471     7417.00000
    20.6603     7524.00000
    20.6734     7475.00000
    20.6865     7430.00000
    20.6996     7508.00000
    20.7128     7583.00000
    20.7259     7671.00000
    20.7390     7363.00000
    20.7522     7472.00000
    20.7653     7438.00000
    20.7784     7545.00000
    20.7916     7358.00000
    20.8047     7440.00000
    20.8178     7552.00000
    20.8309     7450.00000
    20.8441     7584.00000
    20.8572     7353.00000
    20.8703     7297.00000
    20.8835     7355.00000
    20.8966     7462.00000
    20.9097     7410.00000
    20.9229     7397.00000
    20.9360     7303.00000
    20.9491     7360.00000
    20.9623     7471.00000
    20.9754     7412.00000
    20.9885     7335.00000
    21.0016     7180.00000
    21.0148     7374.00000
    21.0279     7539.00000
    21.0410     7554.00000
    21.0542     7456.00000
    21.0673     7310.00000
    21.0804     7375.00000
    21.0936     7170.00000
    21.1067     7433.00000
    21.1198     7398.00000
    21.1329     7323.00000
    21.1461     7504.00000
    21.1592     7388.00000
    21.1723     7416.00000
    21.1855     7362.00000
    21.1986     7520.00000
    21.2117     7556.00000
    21.2249     7392.00000
    21.2380     7304.00000
    21.2511     7366.00000
    21.2642     7497.00000
    21.2774     7412.00000
    21.2905     7391.00000
    21.3036     7355.00000
    21.3168     7489.00000
    21.3299     7564.00000
    21.3430     7578.00000
    21.3562     7330.00000
    21.3693     7459.00000
    21.3824     7452.00000
    21.3956     7434.00000
    21.4087     7346.00000
    21.4218     7502.00000
    21.4349     7433.00000
    21.4481     7407.00000
    21.4612     7558.00000
    21.4743     7410.00000
    21.4875     7485.00000
    21.5006     7394.00000
    21.5137     7545.00000
    21.5269     7443.00000
    21.5400     7497.00000
    21.5531     7410.00000
    21.5662     7565.00000
    21.5794     7327.00000
    21.5925     7339.00000
    21.6056     7406.00000
    21.6188     7391.00000
    21.6319     7337.00000
    21.6450     7282.00000
    21.6582     7403.00000
    21.6713     7504.00000
    21.6844     7565.00000
    21.6975     7305.00000
    21.7107     7453.00000
    21.7238     7465.00000
    21.7369     7529.00000
    21.7501     7584.00000
    21.7632     7397.00000
    21.7763     7447.00000
    21.7895     7504.00000
    21.8026     7590.00000
    21.8157     7570.00000
    21.8288     7568.00000
    21.8420     7555.00000
    21.8551     7639.00000
    21.8682     7721.00000
    21.8814     7532.00000
    21.8945     7490.00000
    21.9076     7426.00000
    21.9208     7505.00000
    21.9339     7582.00000
    21.9470     7569.00000
    21.9602     7433.00000
    21.9733     7492.00000
    21.9864     7420.00000
    21.9995     7526.00000
    22.0127     7288.00000
    22.0258     7481.00000
    22.0389     7451.00000
    22.0521     7472.00000
    22.0652     7435.00000
    22.0783     7605.00000
    22.0915     7277.00000
    22.1046     7363.00000
    22.1177     7432.00000
    22.1308     7475.00000
    22.1440     7367.00000
    22.1571     7259.00000
    22.1702     7278.00000
    22.1834     7425.00000
    22.1965     7184.00000
    22.2096     7383.00000
    22.2228     7291.00000
    22.2359     7239.00000
    22.2490     7360.00000
    22.2621     7442.00000
    22.2753     7426.00000
    22.2884     7461.00000
    22.3015     7310.00000
    22.3147     7389.00000
    22.3278     7415.00000
    22.3409     7508.00000
    22.3541     7695.00000
    22.3672     7729.00000
    22.3803     7642.00000
    22.3935     7618.00000
    22.4066     7797.00000
    22.4197     7581.00000
    22.4328     7807.00000
    22.4460     7901.00000
    22.4591     8025.00000
    22.4722     8216.00000
    22.4854     8625.00000
    22.4985     9088.00000
    22.5116     9967.00000
    22.5248    11350.00000
    22.5379    13777.00000
    22.5510    18126.00000
    22.5641    23239.00000
    22.5773    29525.00000
    22.5904    32570.00000
    22.6035    32828.00000
    22.6167    30044.00000
    22.6298    26975.00000
    22.6429    24239.00000
    22.6561    21279.00000
    22.6692    17756.00000
    22.6823    14314.00000
    22.6954    11511.00000
    22.7086     9706.00000
    22.7217     8739.00000
    22.7348     8140.00000
    22.7480     8009.00000
    22.7611     7662.00000
    22.7742     7907.00000
    22.7874     7704.00000
    22.8005     7738.00000
    22.8136     7757.00000
    22.8268     7681.00000
    22.8399     7531.00000
    22.8530     7649.00000
    22.8661     7490.00000
    22.8793     7467.00000
    22.8924     7414.00000
    22.9055     7224.00000
    22.9187     7399.00000
    22.9318     7369.00000
    22.9449     7311.00000
    22.9581     7337.00000
    22.9712     7620.00000
    22.9843     7332.00000
    22.9974     7512.00000
    23.0106     7416.00000
    23.0237     7431.00000
    23.0368     7459.00000
    23.0500     7368.00000
    23.0631     7510.00000
    23.0762     7358.00000
    23.0894     7411.00000
    23.1025     7535.00000
    23.1156     7308.00000
    23.1287     7349.00000
    23.1419     7309.00000
    23.1550     7758.00000
    23.1681     7679.00000
    23.1813     7431.00000
    23.1944     7441.00000
    23.2075     7526.00000
    23.2207     7476.00000
    23.2338     7668.00000
    23.2469     7468.00000
    23.2601     7557.00000
    23.2732     7553.00000
    23.2863     7476.00000
    23.2994     7597.00000
    23.3126     7577.00000
    23.3257     7495.00000
    23.3388     7381.00000
    23.3520     7578.00000
    23.3651     7630.00000
    23.3782     7556.00000
    23.3914     7670.00000
    23.4045     7514.00000
    23.4176     7472.00000
    23.4307     7420.00000
    23.4439     7581.00000
    23.4570     7646.00000
    23.4701     7681.00000
    23.4833     7615.00000
    23.4964     7641.00000
    23.5095     7591.00000
    23.5227     7669.00000
    23.5358     7684.00000
    23.5489     7527.00000
    23.5620     7626.00000
    23.5752     7654.00000
    23.5883     7628.00000
    23.6014     7604.00000
    23.6146     7838.00000
    23.6277     7681.00000
    23.6408     7701.00000
    23.6540     7980.00000
    23.6671     7980.00000
    23.6802     8132.00000
    23.6933     8289.00000
    23.7065     8452.00000
    23.7196     8727.00000
    23.7327     9382.00000
    23.7459    10448.00000
    23.7590    12583.00000
    23.7721    16094.00000
    23.7853    20549.00000
    23.7984    26050.00000
    23.8115    29345.00000
    23.8247    29392.00000
    23.8378    26358.00000
    23.8509    23516.00000
    23.8640    21880.00000
    23.8772    20251.00000
    23.8903    17826.00000
    23.9034    14481.00000
    23.9166    11652.00000
    23.9297    10086.00000
    23.9428     9614.00000
    23.9560     9131.00000
    23.9691     8914.00000
    23.9822     9061.00000
    23.9953     9215.00000
    24.0085     9604.00000
    24.0216    10468.00000
    24.0347    11689.00000
    24.0479    14143.00000
    24.0610    18926.00000
    24.0741    25966.00000
    24.0873    34095.00000
    24.1004    39718.00000
    24.1135    38732.00000
    24.1266    33509.00000
    24.1398    30167.00000
    24.1529    28156.00000
    24.1660    25816.00000
    24.1792    21834.00000
    24.1923    17082.00000
    24.2054    13602.00000
    24.2186    11218.00000
    24.2317     9378.00000
    24.2448     8737.00000
    24.2580     8467.00000
    24.2711     8137.00000
    24.2842     8151.00000
    24.2973     8240.00000
    24.3105     7959.00000
    24.3236     7912.00000
    24.3367     7868.00000
    24.3499     8068.00000
    24.3630     8079.00000
    24.3761     7928.00000
    24.3893     7870.00000
    24.4024     7844.00000
    24.4155     7897.00000
    24.4286     7733.00000
    24.4418     7621.00000
    24.4549     7763.00000
    24.4680     7730.00000
    24.4812     7642.00000
    24.4943     7519.00000
    24.5074     7445.00000
    24.5206     7556.00000
    24.5337     7472.00000
    24.5468     7401.00000
    24.5599     7622.00000
    24.5731     7475.00000
    24.5862     7497.00000
    24.5993     7385.00000
    24.6125     7341.00000
    24.6256     7392.00000
    24.6387     7321.00000
    24.6519     7399.00000
    24.6650     7195.00000
    24.6781     7238.00000
    24.6913     7283.00000
    24.7044     7276.00000
    24.7175     7409.00000
    24.7306     7415.00000
    24.7438     7325.00000
    24.7569     7508.00000
    24.7700     7214.00000
    24.7832     7273.00000
    24.7963     7364.00000
    24.8094     7447.00000
    24.8226     7357.00000
    24.8357     7298.00000
    24.8488     7231.00000
    24.8619     7333.00000
    24.8751     7407.00000
    24.8882     7408.00000
    24.9013     7267.00000
    24.9145     7360.00000
    24.9276     7297.00000
    24.9407     7349.00000
    24.9539     7464.00000
    24.9670     7341.00000
    24.9801     7398.00000
    24.9932     7431.00000
    25.0064     7354.00000
    25.0195     7244.00000
    25.0326     7391.00000
    25.0458     7417.00000
    25.0589     7461.00000
    25.0720     7314.00000
    25.0852     7567.00000
    25.0983     7373.00000
    25.1114     7308.00000
    25.1246     7306.00000
    25.1377     7243.00000
    25.1508     7334.00000
    25.1639     7331.00000
    25.1771     7407.00000
    25.1902     7506.00000
    25.2033     7429.00000
    25.2165     7387.00000
    25.2296     7822.00000
    25.2427     7566.00000
    25.2559     7391.00000
    25.2690     7451.00000
    25.2821     7398.00000
    25.2952     7253.00000
    25.3084     7109.00000
    25.3215     7242.00000
    25.3346     7184.00000
    25.3478     7190.00000
    25.3609     7386.00000
    25.3740     7386.00000
    25.3872     7248.00000
    25.4003     7143.00000
    25.4134     7245.00000
    25.4265     7267.00000
    25.4397     7209.00000
    25.4528     7333.00000
    25.4659     7136.00000
    25.4791     7358.00000
    25.4922     7296.00000
    25.5053     7243.00000
    25.5185     7087.00000
    25.5316     7015.00000
    25.5447     7135.00000
    25.5579     7236.00000
    25.5710     7207.00000
    25.5841     7224.00000
    25.5972     7176.00000
    25.6104     7221.00000
    25.6235     7221.00000
    25.6366     7311.00000
    25.6498     7254.00000
    25.6629     7148.00000
    25.6760     7011.00000
    25.6892     7124.00000
    25.7023     7236.00000
    25.7154     7430.00000
    25.7285     7289.00000
    25.7417     7294.00000
    25.7548     7233.00000
    25.7679     7608.00000
    25.7811     7352.00000
    25.7942     7531.00000
    25.8073     7382.00000
    25.8205     7243.00000
    25.8336     7373.00000
    25.8467     7187.00000
    25.8598     7231.00000
    25.8730     7189.00000
    25.8861     7336.00000
    25.8992     7259.00000
    25.9124     7290.00000
    25.9255     7194.00000
    25.9386     7489.00000
    25.9518     7530.00000
    25.9649     7340.00000
    25.9780     7368.00000
    25.9911     7430.00000
    26.0043     7415.00000
    26.0174     7311.00000
    26.0305     7215.00000
    26.0437     7237.00000
    26.0568     7281.00000
    26.0699     7244.00000
    26.0831     7079.00000
    26.0962     7334.00000
    26.1093     7276.00000
    26.1225     7519.00000
    26.1356     7350.00000
    26.1487     7446.00000
    26.1618     7154.00000
    26.1750     7169.00000
    26.1881     7138.00000
    26.2012     7168.00000
    26.2144     6979.00000
    26.2275     7254.00000
    26.2406     7180.00000
    26.2538     7183.00000
    26.2669     7290.00000
    26.2800     7360.00000
    26.2931     7249.00000
    26.3063     7254.00000
    26.3194     7208.00000
    26.3325     7087.00000
    26.3457     7192.00000
    26.3588     7106.00000
    26.3719     7205.00000
    26.3851     7157.00000
    26.3982     7326.00000
    26.4113     7276.00000
    26.4244     7311.00000
    26.4376     7114.00000
    26.4507     7101.00000
    26.4638     7247.00000
    26.4770     7232.00000
    26.4901     7193.00000
    26.5032     7133.00000
    26.5164     7109.00000
    26.5295     7265.00000
    26.5426     7141.00000
    26.5558     7094.00000
    26.5689     7152.00000
    26.5820     7070.00000
    26.5951     7152.00000
    26.6083     7125.00000
    26.6214     7300.00000
    26.6345     7111.00000
    26.6477     7260.00000
    26.6608     7130.00000
    26.6739     7120.00000
    26.6871     7016.00000
    26.7002     7077.00000
    26.7133     7408.00000
    26.7264     7218.00000
    26.7396     7201.00000
    26.7527     7178.00000
    26.7658     7163.00000
    26.7790     7112.00000
    26.7921     7248.00000
    26.8052     7135.00000
    26.8184     6985.00000
    26.8315     7104.00000
    26.8446     7229.00000
    26.8577     7208.00000
    26.8709     7239.00000
    26.8840     7212.00000
    26.8971     7054.00000
    26.9103     7152.00000
    26.9234     7117.00000
    26.9365     7205.00000
    26.9497     7268.00000
    26.9628     7289.00000
    26.9759     7237.00000
    26.9891     7229.00000
    27.0022     7373.00000
    27.0153     7377.00000
    27.0284     7523.00000
    27.0416     7469.00000
    27.0547     7371.00000
    27.0678     7617.00000
    27.0810     7445.00000
    27.0941     7291.00000
    27.1072     7491.00000
    27.1204     7442.00000
    27.1335     7535.00000
    27.1466     7578.00000
    27.1597     7270.00000
    27.1729     7544.00000
    27.1860     7549.00000
    27.1991     7513.00000
    27.2123     7369.00000
    27.2254     7574.00000
    27.2385     7488.00000
    27.2517     7591.00000
    27.2648     7331.00000
    27.2779     7368.00000
    27.2910     7393.00000
    27.3042     7427.00000
    27.3173     7336.00000
    27.3304     7542.00000
    27.3436     7426.00000
    27.3567     7492.00000
    27.3698     7377.00000
    27.3830     7336.00000
    27.3961     7383.00000
    27.4092     7499.00000
    27.4224     7612.00000
    27.4355     7347.00000
    27.4486     7330.00000
    27.4617     7492.00000
    27.4749     7360.00000
    27.4880     7326.00000
    27.5011     7421.00000
    27.5143     7410.00000
    27.5274     7275.00000
    27.5405     7501.00000
    27.5537     7749.00000
    27.5668     7449.00000
    27.5799     7402.00000
    27.5930     7513.00000
    27.6062     7539.00000
    27.6193     7571.00000
    27.6324     7507.00000
    27.6456     7750.00000
    27.6587     7945.00000
    27.6718     8027.00000
    27.6850     7964.00000
    27.6981     8167.00000
    27.7112     8504.00000
    27.7243     8544.00000
    27.7375     8557.00000
    27.7506     8468.00000
    27.7637     8910.00000
    27.7769     9202.00000
    27.7900     9233.00000
    27.8031     9492.00000
    27.8163     9903.00000
    27.8294    10486.00000
    27.8425    11277.00000
    27.8556    12206.00000
    27.8688    13701.00000
    27.8819    16188.00000
    27.8950    20419.00000
    27.9082    27153.00000
    27.9213    37678.00000
    27.9344    52288.00000
    27.9476    68934.00000
    27.9607    83067.00000
    27.9738    89599.00000
    27.9870    86354.00000
    28.0001    78082.00000
    28.0132    68576.00000
    28.0263    62015.00000
    28.0395    56441.00000
    28.0526    50812.00000
    28.0657    42000.00000
    28.0789    32448.00000
    28.0920    23906.00000
    28.1051    18057.00000
    28.1183    14714.00000
    28.1314    12523.00000
    28.1445    11300.00000
    28.1576    10107.00000
    28.1708     9759.00000
    28.1839     9475.00000
    28.1970     9378.00000
    28.2102     8690.00000
    28.2233     8529.00000
    28.2364     8352.00000
    28.2496     8285.00000
    28.2627     8136.00000
    28.2758     7884.00000
    28.2889     7769.00000
    28.3021     7801.00000
    28.3152     7742.00000
    28.3283     7826.00000
    28.3415     7878.00000
    28.3546     7789.00000
    28.3677     7723.00000
    28.3809     7616.00000
    28.3940     7595.00000
    28.4071     7619.00000
    28.4203     7621.00000
    28.4334     7863.00000
    28.4465     7849.00000
    28.4596     7753.00000
    28.4728     8089.00000
    28.4859     8348.00000
    28.4990     8341.00000
    28.5122     8647.00000
    28.5253     8678.00000
    28.5384     8962.00000
    28.5516     8473.00000
    28.5647     8382.00000
    28.5778     8243.00000
    28.5909     8046.00000
    28.6041     7974.00000
    28.6172     8100.00000
    28.6303     7769.00000
    28.6435     7784.00000
    28.6566     7552.00000
    28.6697     7492.00000
    28.6829     7490.00000
    28.6960     7471.00000
    28.7091     7557.00000
    28.7222     7764.00000
    28.7354     7457.00000
    28.7485     7660.00000
    28.7616     7661.00000
    28.7748     7852.00000
    28.7879     7925.00000
    28.8010     7897.00000
    28.8142     7935.00000
    28.8273     8200.00000
    28.8404     8321.00000
    28.8536     8436.00000
    28.8667     8704.00000
    28.8798     8858.00000
    28.8929     9423.00000
    28.9061    10720.00000
    28.9192    12686.00000
    28.9323    16786.00000
    28.9455    23542.00000
    28.9586    32238.00000
    28.9717    39142.00000
    28.9849    39267.00000
    28.9980    34246.00000
    29.0111    28953.00000
    29.0242    26131.00000
    29.0374    25928.00000
    29.0505    25328.00000
    29.0636    23108.00000
    29.0768    18845.00000
    29.0899    14834.00000
    29.1030    12045.00000
    29.1162    10222.00000
    29.1293     9482.00000
    29.1424     8928.00000
    29.1555     8854.00000
    29.1687     9173.00000
    29.1818     9565.00000
    29.1949    10467.00000
    29.2081    11786.00000
    29.2212    13074.00000
    29.2343    14422.00000
    29.2475    15624.00000
    29.2606    16521.00000
    29.2737    16410.00000
    29.2869    15934.00000
    29.3000    15130.00000
    29.3131    14357.00000
    29.3262    14392.00000
    29.3394    13737.00000
    29.3525    12556.00000
    29.3656    11717.00000
    29.3788    10573.00000
    29.3919     9781.00000
    29.4050     9248.00000
    29.4182     8815.00000
    29.4313     8484.00000
    29.4444     8161.00000
    29.4575     7737.00000
    29.4707     7600.00000
    29.4838     7812.00000
    29.4969     7744.00000
    29.5101     7371.00000
    29.5232     7269.00000
    29.5363     7266.00000
    29.5495     7190.00000
    29.5626     7164.00000
    29.5757     7374.00000
    29.5888     7366.00000
    29.6020     7056.00000
    29.6151     7208.00000
    29.6282     7208.00000
    29.6414     7237.00000
    29.6545     7153.00000
    29.6676     7127.00000
    29.6808     7265.00000
    29.6939     7183.00000
    29.7070     7152.00000
    29.7201     7233.00000
    29.7333     7151.00000
    29.7464     7095.00000
    29.7595     7202.00000
    29.7727     7166.00000
    29.7858     7050.00000
    29.7989     7115.00000
    29.8121     7304.00000
    29.8252     7326.00000
    29.8383     7342.00000
    29.8515     7074.00000
    29.8646     7054.00000
    29.8777     7238.00000
    29.8908     7109.00000
    29.9040     7193.00000
    29.9171     7086.00000
    29.9302     6942.00000
    29.9434     7148.00000
    29.9565     6959.00000
    29.9696     7006.00000
    29.9828     7027.00000
    29.9959     7088.00000
    30.0090     7128.00000
    30.0221     7164.00000
    30.0353     7239.00000
    30.0484     7206.00000
    30.0615     6818.00000
    30.0747     6962.00000
    30.0878     6971.00000
    30.1009     6998.00000
    30.1141     7062.00000
    30.1272     7020.00000
    30.1403     7001.00000
    30.1535     7275.00000
    30.1666     6945.00000
    30.1797     7258.00000
    30.1928     7095.00000
    30.2060     6943.00000
    30.2191     7002.00000
    30.2322     6931.00000
    30.2454     6864.00000
    30.2585     6996.00000
    30.2716     6947.00000
    30.2848     6830.00000
    30.2979     6974.00000
    30.3110     6982.00000
    30.3241     7048.00000
    30.3373     7225.00000
    30.3504     7037.00000
    30.3635     7101.00000
    30.3767     7103.00000
    30.3898     7075.00000
    30.4029     6968.00000
    30.4161     6774.00000
    30.4292     6976.00000
    30.4423     6948.00000
    30.4554     6816.00000
    30.4686     7076.00000
    30.4817     6908.00000
    30.4948     6880.00000
    30.5080     6885.00000
    30.5211     6770.00000
    30.5342     6884.00000
    30.5474     7175.00000
    30.5605     7016.00000
    30.5736     7014.00000
    30.5868     6903.00000
    30.5999     6889.00000
    30.6130     6931.00000
    30.6261     6907.00000
    30.6393     6963.00000
    30.6524     7087.00000
    30.6655     7048.00000
    30.6787     7012.00000
    30.6918     6976.00000
    30.7049     6917.00000
    30.7181     6816.00000
    30.7312     6972.00000
    30.7443     6956.00000
    30.7574     7180.00000
    30.7706     7037.00000
    30.7837     6995.00000
    30.7968     6935.00000
    30.8100     7037.00000
    30.8231     6980.00000
    30.8362     6857.00000
    30.8494     7080.00000
    30.8625     6832.00000
    30.8756     6923.00000
    30.8887     6790.00000
    30.9019     7035.00000
    30.9150     6896.00000
    30.9281     6886.00000
    30.9413     6848.00000
    30.9544     6765.00000
    30.9675     6903.00000
    30.9807     6869.00000
    30.9938     6949.00000
    31.0069     6842.00000
    31.0200     6963.00000
    31.0332     6908.00000
    31.0463     6924.00000
    31.0594     7098.00000
    31.0726     6720.00000
    31.0857     6859.00000
    31.0988     6885.00000
    31.1120     6859.00000
    31.1251     6852.00000
    31.1382     6726.00000
    31.1514     6690.00000
    31.1645     6676.00000
    31.1776     6924.00000
    31.1907     6811.00000
    31.2039     6796.00000
    31.2170     7037.00000
    31.2301     6969.00000
    31.2433     6887.00000
    31.2564     6757.00000
    31.2695     6889.00000
    31.2827     6888.00000
    31.2958     6909.00000
    31.3089     6816.00000
    31.3220     6882.00000
    31.3352     6769.00000
    31.3483     6816.00000
    31.3614     6941.00000
    31.3746     6922.00000
    31.3877     7029.00000
    31.4008     6832.00000
    31.4140     6651.00000
    31.4271     6899.00000
    31.4402     6976.00000
    31.4533     6919.00000
    31.4665     6690.00000
    31.4796     6823.00000
    31.4927     7017.00000
    31.5059     6952.00000
    31.5190     7074.00000
    31.5321     7026.00000
    31.5453     6892.00000
    31.5584     6864.00000
    31.5715     6967.00000
    31.5847     6797.00000
    31.5978     6945.00000
    31.6109     6779.00000
    31.6240     6858.00000
    31.6372     6914.00000
    31.6503     6844.00000
    31.6634     6722.00000
    31.6766     6784.00000
    31.6897     6859.00000
    31.7028     6839.00000
    31.7160     6986.00000
    31.7291     6828.00000
    31.7422     6883.00000
    31.7553     6786.00000
    31.7685     6740.00000
    31.7816     7016.00000
    31.7947     6873.00000
    31.8079     6812.00000
    31.8210     6869.00000
    31.8341     6848.00000
    31.8473     6809.00000
    31.8604     6831.00000
    31.8735     7038.00000
    31.8866     6885.00000
    31.8998     6958.00000
    31.9129     6967.00000
    31.9260     6952.00000
    31.9392     7018.00000
    31.9523     6894.00000
    31.9654     6492.00000
    31.9786     6798.00000
    31.9917     6758.00000
    32.0048     6969.00000
    32.0180     6795.00000
    32.0311     6831.00000
    32.0442     6990.00000
    32.0573     6953.00000
    32.0705     6993.00000
    32.0836     6747.00000
    32.0967     6841.00000
    32.1099     6991.00000
    32.1230     6753.00000
    32.1361     6853.00000
    32.1493     6837.00000
    32.1624     6895.00000
    32.1755     6886.00000
    32.1886     6891.00000
    32.2018     6864.00000
    32.2149     6830.00000
    32.2280     6846.00000
    32.2412     6971.00000
    32.2543     6899.00000
    32.2674     6996.00000
    32.2806     6925.00000
    32.2937     6864.00000
    32.3068     6910.00000
    32.3199     7311.00000
    32.3331     7009.00000
    32.3462     6975.00000
    32.3593     7029.00000
    32.3725     6925.00000
    32.3856     7032.00000
    32.3987     6941.00000
    32.4119     6994.00000
    32.4250     7028.00000
    32.4381     6728.00000
    32.4512     7076.00000
    32.4644     6825.00000
    32.4775     6779.00000
    32.4906     6771.00000
    32.5038     7078.00000
    32.5169     6904.00000
    32.5300     6793.00000
    32.5432     6924.00000
    32.5563     6938.00000
    32.5694     6978.00000
    32.5826     6905.00000
    32.5957     6847.00000
    32.6088     7082.00000
    32.6219     6962.00000
    32.6351     6995.00000
    32.6482     7038.00000
    32.6613     7015.00000
    32.6745     6911.00000
    32.6876     7148.00000
    32.7007     7187.00000
    32.7139     7098.00000
    32.7270     7141.00000
    32.7401     7020.00000
    32.7532     7275.00000
    32.7664     7260.00000
    32.7795     7501.00000
    32.7926     7427.00000
    32.8058     7558.00000
    32.8189     8088.00000
    32.8320     8637.00000
    32.8452     9675.00000
    32.8583    11173.00000
    32.8714    12893.00000
    32.8845    14560.00000
    32.8977    15429.00000
    32.9108    15056.00000
    32.9239    13883.00000
    32.9371    13226.00000
    32.9502    13302.00000
    32.9633    14318.00000
    32.9765    16449.00000
    32.9896    19676.00000
    33.0027    22006.00000
    33.0159    22873.00000
    33.0290    20730.00000
    33.0421    17257.00000
    33.0552    14492.00000
    33.0684    13500.00000
    33.0815    13852.00000
    33.0946    14381.00000
    33.1078    13988.00000
    33.1209    12355.00000
    33.1340    10447.00000
    33.1472     9218.00000
    33.1603     8255.00000
    33.1734     7781.00000
    33.1865     7539.00000
    33.1997     7248.00000
    33.2128     7197.00000
    33.2259     7333.00000
    33.2391     7202.00000
    33.2522     7132.00000
    33.2653     7101.00000
    33.2785     7017.00000
    33.2916     7131.00000
    33.3047     7111.00000
    33.3178     7114.00000
    33.3310     7146.00000
    33.3441     7063.00000
    33.3572     7063.00000
    33.3704     6915.00000
    33.3835     6882.00000
    33.3966     6988.00000
    33.4098     6888.00000
    33.4229     7058.00000
    33.4360     6837.00000
    33.4492     6989.00000
    33.4623     6993.00000
    33.4754     7090.00000
    33.4885     6908.00000
    33.5017     7036.00000
    33.5148     7234.00000
    33.5279     7239.00000
    33.5411     7132.00000
    33.5542     7445.00000
    33.5673     7621.00000
    33.5805     7772.00000
    33.5936     8361.00000
    33.6067     9374.00000
    33.6198    10637.00000
    33.6330    12218.00000
    33.6461    13865.00000
    33.6592    14772.00000
    33.6724    15013.00000
    33.6855    14036.00000
    33.6986    12818.00000
    33.7118    11945.00000
    33.7249    11259.00000
    33.7380    11437.00000
    33.7511    11347.00000
    33.7643    10804.00000
    33.7774     9980.00000
    33.7905     9100.00000
    33.8037     8192.00000
    33.8168     7716.00000
    33.8299     7601.00000
    33.8431     7212.00000
    33.8562     7129.00000
    33.8693     7252.00000
    33.8825     7147.00000
    33.8956     7348.00000
    33.9087     7350.00000
    33.9218     7719.00000
    33.9350     7699.00000
    33.9481     7825.00000
    33.9612     7626.00000
    33.9744     7594.00000
    33.9875     7787.00000
    34.0006     7439.00000
    34.0138     7488.00000
    34.0269     7520.00000
    34.0400     7591.00000
    34.0531     7383.00000
    34.0663     7731.00000
    34.0794     7600.00000
    34.0925     7968.00000
    34.1057     8150.00000
    34.1188     9290.00000
    34.1319    10637.00000
    34.1451    12186.00000
    34.1582    13218.00000
    34.1713    13491.00000
    34.1844    12893.00000
    34.1976    11645.00000
    34.2107    10902.00000
    34.2238    10271.00000
    34.2370    10242.00000
    34.2501    10700.00000
    34.2632    10177.00000
    34.2764     9755.00000
    34.2895     8740.00000
    34.3026     8218.00000
    34.3158     7450.00000
    34.3289     7321.00000
    34.3420     7008.00000
    34.3551     6963.00000
    34.3683     6954.00000
    34.3814     6832.00000
    34.3945     6754.00000
    34.4077     6916.00000
    34.4208     6836.00000
    34.4339     6815.00000
    34.4471     6610.00000
    34.4602     6729.00000
    34.4733     6588.00000
    34.4864     6712.00000
    34.4996     6739.00000
    34.5127     6729.00000
    34.5258     6790.00000
    34.5390     6834.00000
    34.5521     6811.00000
    34.5652     6711.00000
    34.5784     6857.00000
    34.5915     6890.00000
    34.6046     6679.00000
    34.6177     7054.00000
    34.6309     6849.00000
    34.6440     6849.00000
    34.6571     6831.00000
    34.6703     6906.00000
    34.6834     6769.00000
    34.6965     6865.00000
    34.7097     6946.00000
    34.7228     6922.00000
    34.7359     6862.00000
    34.7491     6934.00000
    34.7622     7073.00000
    34.7753     7125.00000
    34.7884     7559.00000
    34.8016     7729.00000
    34.8147     8608.00000
    34.8278     9579.00000
    34.8410    10429.00000
    34.8541    11090.00000
    34.8672    11625.00000
    34.8804    11201.00000
    34.8935    10951.00000
    34.9066    10133.00000
    34.9197     9812.00000
    34.9329     9626.00000
    34.9460     9571.00000
    34.9591     9167.00000
    34.9723     8950.00000
    34.9854     8540.00000
    34.9985     8012.00000
    35.0117     7783.00000
    35.0248     7383.00000
    35.0379     7370.00000
    35.0510     7403.00000
    35.0642     7404.00000
    35.0773     7380.00000
    35.0904     7423.00000
    35.1036     7447.00000
    35.1167     7316.00000
    35.1298     7069.00000
    35.1430     6983.00000
    35.1561     7046.00000
    35.1692     7155.00000
    35.1824     7006.00000
    35.1955     6885.00000
    35.2086     6781.00000
    35.2217     6866.00000
    35.2349     6628.00000
    35.2480     6593.00000
    35.2611     6619.00000
    35.2743     6627.00000
    35.2874     6661.00000
    35.3005     6700.00000
    35.3137     6724.00000
    35.3268     6603.00000
    35.3399     6638.00000
    35.3530     6659.00000
    35.3662     6643.00000
    35.3793     6843.00000
    35.3924     6632.00000
    35.4056     6499.00000
    35.4187     6709.00000
    35.4318     6736.00000
    35.4450     6464.00000
    35.4581     6412.00000
    35.4712     6671.00000
    35.4843     6877.00000
    35.4975     6632.00000
    35.5106     6710.00000
    35.5237     6559.00000
    35.5369     6459.00000
    35.5500     6570.00000
    35.5631     6565.00000
    35.5763     6500.00000
    35.5894     6533.00000
    35.6025     6694.00000
    35.6156     6690.00000
    35.6288     6638.00000
    35.6419     6673.00000
    35.6550     6589.00000
    35.6682     6591.00000
    35.6813     6504.00000
    35.6944     6677.00000
    35.7076     6667.00000
    35.7207     6678.00000
    35.7338     6666.00000
    35.7470     6753.00000
    35.7601     6772.00000
    35.7732     6588.00000
    35.7863     6562.00000
    35.7995     6437.00000
    35.8126     6611.00000
    35.8257     6499.00000
    35.8389     6646.00000
    35.8520     6633.00000
    35.8651     6457.00000
    35.8783     6589.00000
    35.8914     6738.00000
    35.9045     6548.00000
    35.9176     6744.00000
    35.9308     6764.00000
    35.9439     6622.00000
    35.9570     6594.00000
    35.9702     6631.00000
    35.9833     6567.00000
    35.9964     6610.00000
    36.0096     6598.00000
    36.0227     6439.00000
    36.0358     6508.00000
    36.0489     6692.00000
    36.0621     6577.00000
    36.0752     6645.00000
    36.0883     6752.00000
    36.1015     6552.00000
    36.1146     6727.00000
    36.1277     6667.00000
    36.1409     6606.00000
    36.1540     6816.00000
    36.1671     6665.00000
    36.1802     6518.00000
    36.1934     6542.00000
    36.2065     6516.00000
    36.2196     6665.00000
    36.2328     6725.00000
    36.2459     6662.00000
    36.2590     6671.00000
    36.2722     6680.00000
    36.2853     6662.00000
    36.2984     6566.00000
    36.3116     6621.00000
    36.3247     6633.00000
    36.3378     6723.00000
    36.3509     6415.00000
    36.3641     6517.00000
    36.3772     6918.00000
    36.3903     6713.00000
    36.4035     6802.00000
    36.4166     6930.00000
    36.4297     7132.00000
    36.4429     7442.00000
    36.4560     7938.00000
    36.4691     8769.00000
    36.4822     9687.00000
    36.4954    10261.00000
    36.5085     9752.00000
    36.5216     8829.00000
    36.5348     8195.00000
    36.5479     7947.00000
    36.5610     8242.00000
    36.5742     8317.00000
    36.5873     8534.00000
    36.6004     8349.00000
    36.6135     7817.00000
    36.6267     7521.00000
    36.6398     7293.00000
    36.6529     6767.00000
    36.6661     6820.00000
    36.6792     6755.00000
    36.6923     6716.00000
    36.7055     6666.00000
    36.7186     6702.00000
    36.7317     6622.00000
    36.7449     6530.00000
    36.7580     6380.00000
    36.7711     6730.00000
    36.7842     6599.00000
    36.7974     6536.00000
    36.8105     6567.00000
    36.8236     6536.00000
    36.8368     6736.00000
    36.8499     6454.00000
    36.8630     6569.00000
    36.8762     6602.00000
    36.8893     6602.00000
    36.9024     6642.00000
    36.9155     6573.00000
    36.9287     6462.00000
    36.9418     6434.00000
    36.9549     6592.00000
    36.9681     6484.00000
    36.9812     6585.00000
    36.9943     6661.00000
    37.0075     6464.00000
    37.0206     6442.00000
    37.0337     6617.00000
    37.0468     6535.00000
    37.0600     6547.00000
    37.0731     6558.00000
    37.0862     6496.00000
    37.0994     6636.00000
    37.1125     6461.00000
    37.1256     6543.00000
    37.1388     6539.00000
    37.1519     6641.00000
    37.1650     6529.00000
    37.1782     6575.00000
    37.1913     6456.00000
    37.2044     6613.00000
    37.2175     6580.00000
    37.2307     6557.00000
    37.2438     6502.00000
    37.2569     6553.00000
    37.2701     6680.00000
    37.2832     6566.00000
    37.2963     6726.00000
    37.3095     6532.00000
    37.3226     6498.00000
    37.3357     6661.00000
    37.3488     6622.00000
    37.3620     6712.00000
    37.3751     6590.00000
    37.3882     6634.00000
    37.4014     6706.00000
    37.4145     6792.00000
    37.4276     6965.00000
    37.4408     7060.00000
    37.4539     7029.00000
    37.4670     7366.00000
    37.4801     7602.00000
    37.4933     7401.00000
    37.5064     7320.00000
    37.5195     7091.00000
    37.5327     7073.00000
    37.5458     7322.00000
    37.5589     7577.00000
    37.5721     7719.00000
    37.5852     7936.00000
    37.5983     8457.00000
    37.6115     8951.00000
    37.6246    10048.00000
    37.6377    10745.00000
    37.6508    11123.00000
    37.6640    11522.00000
    37.6771    11228.00000
    37.6902    10901.00000
    37.7034    10337.00000
    37.7165    10494.00000
    37.7296    10382.00000
    37.7428    10935.00000
    37.7559    11377.00000
    37.7690    11180.00000
    37.7821    10607.00000
    37.7953     9547.00000
    37.8084     8856.00000
    37.8215     8505.00000
    37.8347     8177.00000
    37.8478     7872.00000
    37.8609     7947.00000
    37.8741     7745.00000
    37.8872     7393.00000
    37.9003     7094.00000
    37.9134     7133.00000
    37.9266     6929.00000
    37.9397     6766.00000
    37.9528     6811.00000
    37.9660     6811.00000
    37.9791     6832.00000
    37.9922     6588.00000
    38.0054     6669.00000
    38.0185     6715.00000
    38.0316     6625.00000
    38.0448     6604.00000
    38.0579     6539.00000
    38.0710     6574.00000
    38.0841     6661.00000
    38.0973     6691.00000
    38.1104     6612.00000
    38.1235     6642.00000
    38.1367     6425.00000
    38.1498     6242.00000
    38.1629     6470.00000
    38.1761     6660.00000
    38.1892     6611.00000
    38.2023     6487.00000
    38.2154     6571.00000
    38.2286     6523.00000
    38.2417     6629.00000
    38.2548     6467.00000
    38.2680     6530.00000
    38.2811     6422.00000
    38.2942     6352.00000
    38.3074     6337.00000
    38.3205     6590.00000
    38.3336     6453.00000
    38.3467     6526.00000
    38.3599     6365.00000
    38.3730     6370.00000
    38.3861     6473.00000
    38.3993     6413.00000
    38.4124     6544.00000
    38.4255     6517.00000
    38.4387     6393.00000
    38.4518     6424.00000
    38.4649     6462.00000
    38.4781     6597.00000
    38.4912     6565.00000
    38.5043     6318.00000
    38.5174     6517.00000
    38.5306     6592.00000
    38.5437     6580.00000
    38.5568     6435.00000
    38.5700     6575.00000
    38.5831     6482.00000
    38.5962     6649.00000
    38.6094     6554.00000
    38.6225     6420.00000
    38.6356     6561.00000
    38.6487     6495.00000
    38.6619     6439.00000
    38.6750     6664.00000
    38.6881     6539.00000
    38.7013     6323.00000
    38.7144     6475.00000
    38.7275     6472.00000
    38.7407     6388.00000
    38.7538     6273.00000
    38.7669     6390.00000
    38.7800     6540.00000
    38.7932     6502.00000
    38.8063     6650.00000
    38.8194     6538.00000
    38.8326     6401.00000
    38.8457     6544.00000
    38.8588     6462.00000
    38.8720     6455.00000
    38.8851     6603.00000
    38.8982     6590.00000
    38.9114     6472.00000
    38.9245     6530.00000
    38.9376     6510.00000
    38.9507     6522.00000
    38.9639     6610.00000
    38.9770     6453.00000
    38.9901     6530.00000
    39.0033     6464.00000
    39.0164     6599.00000
    39.0295     6455.00000
    39.0427     6447.00000
    39.0558     6682.00000
    39.0689     6644.00000
    39.0820     6627.00000
    39.0952     6605.00000
    39.1083     6865.00000
    39.1214     6840.00000
    39.1346     6889.00000
    39.1477     7288.00000
    39.1608     7932.00000
    39.1740     8462.00000
    39.1871     9309.00000
    39.2002     9556.00000
    39.2133     9152.00000
    39.2265     8395.00000
    39.2396     7996.00000
    39.2527     7499.00000
    39.2659     7609.00000
    39.2790     7929.00000
    39.2921     8036.00000
    39.3053     8097.00000
    39.3184     7724.00000
    39.3315     7339.00000
    39.3446     7039.00000
    39.3578     6823.00000
    39.3709     6691.00000
    39.3840     6628.00000
    39.3972     6608.00000
    39.4103     6456.00000
    39.4234     6541.00000
    39.4366     6407.00000
    39.4497     6502.00000
    39.4628     6598.00000
    39.4760     6384.00000
    39.4891     6383.00000
    39.5022     6422.00000
    39.5153     6434.00000
    39.5285     6601.00000
    39.5416     6613.00000
    39.5547     6421.00000
    39.5679     6268.00000
    39.5810     6451.00000
    39.5941     6511.00000
    39.6073     6383.00000
    39.6204     6551.00000
    39.6335     6536.00000
    39.6466     6332.00000
    39.6598     6382.00000
    39.6729     6572.00000
    39.6860     6473.00000
    39.6992     6587.00000
    39.7123     6553.00000
    39.7254     6598.00000
    39.7386     6505.00000
    39.7517     6462.00000
    39.7648     6365.00000
    39.7779     6533.00000
    39.7911     6601.00000
    39.8042     6454.00000
    39.8173     6440.00000
    39.8305     6442.00000
    39.8436     6735.00000
    39.8567     6676.00000
    39.8699     6396.00000
    39.8830     6618.00000
    39.8961     6478.00000
    39.9092     6437.00000
    39.9224     6439.00000
    39.9355     6518.00000
    39.9486     6569.00000
    39.9618     6447.00000
    39.9749     6479.00000
    39.9880     6499.00000
    40.0012     6484.00000
    40.0143     6349.00000
    40.0274     6528.00000
    40.0406     6550.00000
    40.0537     6481.00000
    40.0668     6588.00000
    40.0799     6554.00000
    40.0931     6493.00000
    40.1062     6647.00000
    40.1193     6632.00000
    40.1325     6715.00000
    40.1456     6887.00000
    40.1587     7302.00000
    40.1719     7390.00000
    40.1850     7612.00000
    40.1981     7863.00000
    40.2112     7890.00000
    40.2244     8206.00000
    40.2375     8616.00000
    40.2506     9017.00000
    40.2638     9348.00000
    40.2769     9693.00000
    40.2900     9657.00000
    40.3032     9412.00000
    40.3163     9020.00000
    40.3294     8551.00000
    40.3425     8381.00000
    40.3557     8122.00000
    40.3688     8193.00000
    40.3819     7991.00000
    40.3951     7870.00000
    40.4082     7676.00000
    40.4213     7459.00000
    40.4345     7135.00000
    40.4476     7002.00000
    40.4607     6815.00000
    40.4739     6647.00000
    40.4870     6790.00000
    40.5001     6639.00000
    40.5132     6586.00000
    40.5264     6565.00000
    40.5395     6503.00000
    40.5526     6682.00000
    40.5658     6612.00000
    40.5789     6421.00000
    40.5920     6508.00000
    40.6052     6524.00000
    40.6183     6405.00000
    40.6314     6492.00000
    40.6445     6389.00000
    40.6577     6446.00000
    40.6708     6506.00000
    40.6839     6523.00000
    40.6971     6539.00000
    40.7102     6315.00000
    40.7233     6501.00000
    40.7365     6510.00000
    40.7496     6452.00000
    40.7627     6325.00000
    40.7758     6429.00000
    40.7890     6529.00000
    40.8021     6434.00000
    40.8152     6489.00000
    40.8284     6608.00000
    40.8415     6577.00000
    40.8546     6615.00000
    40.8678     6803.00000
    40.8809     6693.00000
    40.8940     6721.00000
    40.9072     6612.00000
    40.9203     6779.00000
    40.9334     6882.00000
    40.9465     6949.00000
    40.9597     7209.00000
    40.9728     7393.00000
    40.9859     7725.00000
    40.9991     8074.00000
    41.0122     8577.00000
    41.0253     8795.00000
    41.0385     8957.00000
    41.0516     9348.00000
    41.0647     9900.00000
    41.0778    10614.00000
    41.0910    11157.00000
    41.1041    11561.00000
    41.1172    11921.00000
    41.1304    11663.00000
    41.1435    11378.00000
    41.1566    10944.00000
    41.1698    10980.00000
    41.1829    11500.00000
    41.1960    11331.00000
    41.2091    11368.00000
    41.2223    10715.00000
    41.2354    10055.00000
    41.2485     9227.00000
    41.2617     8761.00000
    41.2748     8416.00000
    41.2879     8134.00000
    41.3011     8152.00000
    41.3142     7820.00000
    41.3273     7721.00000
    41.3405     7521.00000
    41.3536     7099.00000
    41.3667     6752.00000
    41.3798     6584.00000
    41.3930     6710.00000
    41.4061     6598.00000
    41.4192     6473.00000
    41.4324     6365.00000
    41.4455     6502.00000
    41.4586     6620.00000
    41.4718     6642.00000
    41.4849     6488.00000
    41.4980     6534.00000
    41.5111     6378.00000
    41.5243     6566.00000
    41.5374     6505.00000
    41.5505     6684.00000
    41.5637     6702.00000
    41.5768     6405.00000
    41.5899     6472.00000
    41.6031     6573.00000
    41.6162     6480.00000
    41.6293     6368.00000
    41.6424     6240.00000
    41.6556     6354.00000
    41.6687     6403.00000
    41.6818     6601.00000
    41.6950     6341.00000
    41.7081     6398.00000
    41.7212     6432.00000
    41.7344     6459.00000
    41.7475     6402.00000
    41.7606     6295.00000
    41.7738     6299.00000
    41.7869     6371.00000
    41.8000     6587.00000
    41.8131     6326.00000
    41.8263     6240.00000
    41.8394     6260.00000
    41.8525     6456.00000
    41.8657     6348.00000
    41.8788     6378.00000
    41.8919     6585.00000
    41.9051     6545.00000
    41.9182     6588.00000
    41.9313     6430.00000
    41.9444     6326.00000
    41.9576     6400.00000
    41.9707     6549.00000
    41.9838     6274.00000
    41.9970     6499.00000
    42.0101     6397.00000
    42.0232     6496.00000
    42.0364     6521.00000
    42.0495     6328.00000
    42.0626     6369.00000
    42.0757     6309.00000
    42.0889     6442.00000
    42.1020     6504.00000
    42.1151     6413.00000
    42.1283     6496.00000
    42.1414     6465.00000
    42.1545     6384.00000
    42.1677     6608.00000
    42.1808     6486.00000
    42.1939     6336.00000
    42.2071     6448.00000
    42.2202     6338.00000
    42.2333     6510.00000
    42.2464     6495.00000
    42.2596     6390.00000
    42.2727     6367.00000
    42.2858     6333.00000
    42.2990     6325.00000
    42.3121     6334.00000
    42.3252     6493.00000
    42.3384     6306.00000
    42.3515     6389.00000
    42.3646     6406.00000
    42.3777     6309.00000
    42.3909     6325.00000
    42.4040     6485.00000
    42.4171     6398.00000
    42.4303     6505.00000
    42.4434     6347.00000
    42.4565     6454.00000
    42.4697     6447.00000
    42.4828     6351.00000
    42.4959     6416.00000
    42.5090     6459.00000
    42.5222     6191.00000
    42.5353     6303.00000
    42.5484     6402.00000
    42.5616     6289.00000
    42.5747     6403.00000
    42.5878     6473.00000
    42.6010     6331.00000
    42.6141     6434.00000
    42.6272     6309.00000
    42.6404     6334.00000
    42.6535     6268.00000
    42.6666     6292.00000
    42.6797     6270.00000
    42.6929     6400.00000
    42.7060     6291.00000
    42.7191     6375.00000
    42.7323     6282.00000
    42.7454     6408.00000
    42.7585     6445.00000
    42.7717     6353.00000
    42.7848     6367.00000
    42.7979     6405.00000
    42.8110     6501.00000
    42.8242     6412.00000
    42.8373     6433.00000
    42.8504     6361.00000
    42.8636     6342.00000
    42.8767     6360.00000
    42.8898     6401.00000
    42.9030     6202.00000
    42.9161     6046.00000
    42.9292     6304.00000
    42.9423     6315.00000
    42.9555     6404.00000
    42.9686     6424.00000
    42.9817     6395.00000
    42.9949     6495.00000
    43.0080     6308.00000
    43.0211     6220.00000
    43.0343     6114.00000
    43.0474     6413.00000
    43.0605     6286.00000
    43.0736     6353.00000
    43.0868     6335.00000
    43.0999     6392.00000
    43.1130     6427.00000
    43.1262     6343.00000
    43.1393     6422.00000
    43.1524     6383.00000
    43.1656     6437.00000
    43.1787     6278.00000
    43.1918     6401.00000
    43.2050     6558.00000
    43.2181     6415.00000
    43.2312     6528.00000
    43.2443     6493.00000
    43.2575     6452.00000
    43.2706     6443.00000
    43.2837     6482.00000
    43.2969     6419.00000
    43.3100     6374.00000
    43.3231     6486.00000
    43.3363     6356.00000
    43.3494     6444.00000
    43.3625     6409.00000
    43.3756     6272.00000
    43.3888     6402.00000
    43.4019     6453.00000
    43.4150     6357.00000
    43.4282     6318.00000
    43.4413     6428.00000
    43.4544     6479.00000
    43.4676     6666.00000
    43.4807     6729.00000
    43.4938     6766.00000
    43.5069     6813.00000
    43.5201     6835.00000
    43.5332     7293.00000
    43.5463     7353.00000
    43.5595     7682.00000
    43.5726     7543.00000
    43.5857     7614.00000
    43.5989     7489.00000
    43.6120     7407.00000
    43.6251     7046.00000
    43.6383     7238.00000
    43.6514     7263.00000
    43.6645     7316.00000
    43.6776     7222.00000
    43.6908     7242.00000
    43.7039     6974.00000
    43.7170     6902.00000
    43.7302     6793.00000
    43.7433     6856.00000
    43.7564     6743.00000
    43.7696     6776.00000
    43.7827     6533.00000
    43.7958     6455.00000
    43.8089     6666.00000
    43.8221     6421.00000
    43.8352     6482.00000
    43.8483     6347.00000
    43.8615     6569.00000
    43.8746     6502.00000
    43.8877     6432.00000
    43.9009     6287.00000
    43.9140     6486.00000
    43.9271     6470.00000
    43.9402     6577.00000
    43.9534     6374.00000
    43.9665     6503.00000
    43.9796     6610.00000
    43.9928     6475.00000
    44.0059     6489.00000
    44.0190     6513.00000
    44.0322     6423.00000
    44.0453     6477.00000
    44.0584     6646.00000
    44.0715     6629.00000
    44.0847     6754.00000
    44.0978     6636.00000
    44.1109     6704.00000
    44.1241     6458.00000
    44.1372     6492.00000
    44.1503     6478.00000
    44.1635     6560.00000
    44.1766     6718.00000
    44.1897     6696.00000
    44.2029     6548.00000
    44.2160     6490.00000
    44.2291     6497.00000
    44.2422     6445.00000
    44.2554     6583.00000
    44.2685     6503.00000
    44.2816     6408.00000
    44.2948     6418.00000
    44.3079     6443.00000
    44.3210     6591.00000
    44.3342     6730.00000
    44.3473     6565.00000
    44.3604     6545.00000
    44.3735     6671.00000
    44.3867     6564.00000
    44.3998     6451.00000
    44.4129     6788.00000
    44.4261     6920.00000
    44.4392     6835.00000
    44.4523     6915.00000
    44.4655     6780.00000
    44.4786     6928.00000
    44.4917     7388.00000
    44.5048     7560.00000
    44.5180     7929.00000
    44.5311     8803.00000
    44.5442     9556.00000
    44.5574    10456.00000
    44.5705    11607.00000
    44.5836    12429.00000
    44.5968    12945.00000
    44.6099    12893.00000
    44.6230    12062.00000
    44.6362    11085.00000
    44.6493    10254.00000
    44.6624     9830.00000
    44.6755     9573.00000
    44.6887     9771.00000
    44.7018     9855.00000
    44.7149     9924.00000
    44.7281     9450.00000
    44.7412     9184.00000
    44.7543     8625.00000
    44.7675     8095.00000
    44.7806     7314.00000
    44.7937     7111.00000
    44.8068     6888.00000
    44.8200     6777.00000
    44.8331     6773.00000
    44.8462     6809.00000
    44.8594     6675.00000
    44.8725     6740.00000
    44.8856     6652.00000
    44.8988     6579.00000
    44.9119     6534.00000
    44.9250     6457.00000
    44.9381     6624.00000
    44.9513     6504.00000
    44.9644     6516.00000
    44.9775     6496.00000
    44.9907     6408.00000
    45.0038     6319.00000
    45.0169     6374.00000
    45.0301     6285.00000
    45.0432     6388.00000
    45.0563     6327.00000
    45.0695     6285.00000
    45.0826     6455.00000
    45.0957     6365.00000
    45.1088     6247.00000
    45.1220     6352.00000
    45.1351     6527.00000
    45.1482     6271.00000
    45.1614     6588.00000
    45.1745     6594.00000
    45.1876     6402.00000
    45.2008     6291.00000
    45.2139     6481.00000
    45.2270     6285.00000
    45.2401     6224.00000
    45.2533     6371.00000
    45.2664     6280.00000
    45.2795     6287.00000
    45.2927     6399.00000
    45.3058     6438.00000
    45.3189     6372.00000
    45.3321     6636.00000
    45.3452     6538.00000
    45.3583     6457.00000
    45.3714     6395.00000
    45.3846     6423.00000
    45.3977     6436.00000
    45.4108     6444.00000
    45.4240     6459.00000
    45.4371     6481.00000
    45.4502     6360.00000
    45.4634     6380.00000
    45.4765     6321.00000
    45.4896     6383.00000
    45.5028     6451.00000
    45.5159     6315.00000
    45.5290     6387.00000
    45.5421     6505.00000
    45.5553     6426.00000
    45.5684     6413.00000
    45.5815     6380.00000
    45.5947     6386.00000
    45.6078     6409.00000
    45.6209     6500.00000
    45.6341     6438.00000
    45.6472     6498.00000
    45.6603     6244.00000
    45.6734     6365.00000
    45.6866     6364.00000
    45.6997     6417.00000
    45.7128     6311.00000
    45.7260     6402.00000
    45.7391     6381.00000
    45.7522     6438.00000
    45.7654     6563.00000
    45.7785     6415.00000
    45.7916     6535.00000
    45.8047     6526.00000
    45.8179     6570.00000
    45.8310     6631.00000
    45.8441     6712.00000
    45.8573     6651.00000
    45.8704     6752.00000
    45.8835     6732.00000
    45.8967     6689.00000
    45.9098     6871.00000
    45.9229     6992.00000
    45.9361     6852.00000
    45.9492     6817.00000
    45.9623     6954.00000
    45.9754     7164.00000
    45.9886     7281.00000
    46.0017     7508.00000
    46.0148     7638.00000
    46.0280     8077.00000
    46.0411     8985.00000
    46.0542    10534.00000
    46.0674    12323.00000
    46.0805    15049.00000
    46.0936    17417.00000
    46.1067    18464.00000
    46.1199    18686.00000
    46.1330    17954.00000
    46.1461    16443.00000
    46.1593    14418.00000
    46.1724    12961.00000
    46.1855    12206.00000
    46.1987    12077.00000
    46.2118    12775.00000
    46.2249    13016.00000
    46.2380    12924.00000
    46.2512    12671.00000
    46.2643    12050.00000
    46.2774    11272.00000
    46.2906    10068.00000
    46.3037     8981.00000
    46.3168     8203.00000
    46.3300     7513.00000
    46.3431     7434.00000
    46.3562     7102.00000
    46.3694     7178.00000
    46.3825     7092.00000
    46.3956     7055.00000
    46.4087     7019.00000
    46.4219     7076.00000
    46.4350     6773.00000
    46.4481     6990.00000
    46.4613     6899.00000
    46.4744     6746.00000
    46.4875     6786.00000
    46.5007     6602.00000
    46.5138     6558.00000
    46.5269     6670.00000
    46.5400     6453.00000
    46.5532     6485.00000
    46.5663     6609.00000
    46.5794     6382.00000
    46.5926     6468.00000
    46.6057     6646.00000
    46.6188     6429.00000
    46.6320     6629.00000
    46.6451     6577.00000
    46.6582     6284.00000
    46.6713     6456.00000
    46.6845     6525.00000
    46.6976     6487.00000
    46.7107     6412.00000
    46.7239     6391.00000
    46.7370     6429.00000
    46.7501     6515.00000
    46.7633     6229.00000
    46.7764     6313.00000
    46.7895     6460.00000
    46.8027     6487.00000
    46.8158     6420.00000
    46.8289     6532.00000
    46.8420     6451.00000
    46.8552     6585.00000
    46.8683     6391.00000
    46.8814     6590.00000
    46.8946     6351.00000
    46.9077     6380.00000
    46.9208     6442.00000
    46.9340     6403.00000
    46.9471     6482.00000
    46.9602     6289.00000
    46.9733     6491.00000
    46.9865     6533.00000
    46.9996     6458.00000
    47.0127     6403.00000
    47.0259     6324.00000
    47.0390     6584.00000
    47.0521     6486.00000
    47.0653     6354.00000
    47.0784     6494.00000
    47.0915     6466.00000
    47.1046     6539.00000
    47.1178     6650.00000
    47.1309     6623.00000
    47.1440     6537.00000
    47.1572     6488.00000
    47.1703     6422.00000
    47.1834     6376.00000
    47.1966     6414.00000
    47.2097     6426.00000
    47.2228     6410.00000
    47.2359     6508.00000
    47.2491     6463.00000
    47.2622     6646.00000
    47.2753     6514.00000
    47.2885     6700.00000
    47.3016     6611.00000
    47.3147     6916.00000
    47.3279     6867.00000
    47.3410     6890.00000
    47.3541     7328.00000
    47.3673     7393.00000
    47.3804     7990.00000
    47.3935     8117.00000
    47.4066     8473.00000
    47.4198     8723.00000
    47.4329     8820.00000
    47.4460     8975.00000
    47.4592     8675.00000
    47.4723     8756.00000
    47.4854     8537.00000
    47.4986     8637.00000
    47.5117     9083.00000
    47.5248     9966.00000
    47.5379    11496.00000
    47.5511    13161.00000
    47.5642    13816.00000
    47.5773    13593.00000
    47.5905    12037.00000
    47.6036    10328.00000
    47.6167     9221.00000
    47.6299     8552.00000
    47.6430     8520.00000
    47.6561     8784.00000
    47.6692     9325.00000
    47.6824     9909.00000
    47.6955     9960.00000
    47.7086     9667.00000
    47.7218     9023.00000
    47.7349     8294.00000
    47.7480     7619.00000
    47.7612     7525.00000
    47.7743     7362.00000
    47.7874     7167.00000
    47.8005     7125.00000
    47.8137     6843.00000
    47.8268     6904.00000
    47.8399     6833.00000
    47.8531     6934.00000
    47.8662     6945.00000
    47.8793     6991.00000
    47.8925     7076.00000
    47.9056     7135.00000
    47.9187     7029.00000
    47.9319     7071.00000
    47.9450     7116.00000
    47.9581     7084.00000
    47.9712     7200.00000
    47.9844     7193.00000
    47.9975     7277.00000
    48.0106     7489.00000
    48.0238     7764.00000
    48.0369     7798.00000
    48.0500     8125.00000
    48.0632     8723.00000
    48.0763     9468.00000
    48.0894    10518.00000
    48.1025    12082.00000
    48.1157    13876.00000
    48.1288    15913.00000
    48.1419    17179.00000
    48.1551    17762.00000
    48.1682    18037.00000
    48.1813    17756.00000
    48.1945    16504.00000
    48.2076    14777.00000
    48.2207    13641.00000
    48.2338    12752.00000
    48.2470    12701.00000
    48.2601    12577.00000
    48.2732    12917.00000
    48.2864    12881.00000
    48.2995    12501.00000
    48.3126    12090.00000
    48.3258    11109.00000
    48.3389     9795.00000
    48.3520     9010.00000
    48.3652     8372.00000
    48.3783     7893.00000
    48.3914     7258.00000
    48.4045     6985.00000
    48.4177     7121.00000
    48.4308     7018.00000
    48.4439     6995.00000
    48.4571     6670.00000
    48.4702     6679.00000
    48.4833     6523.00000
    48.4965     6828.00000
    48.5096     6620.00000
    48.5227     6790.00000
    48.5358     6699.00000
    48.5490     6850.00000
    48.5621     6753.00000
    48.5752     6585.00000
    48.5884     6741.00000
    48.6015     6919.00000
    48.6146     6769.00000
    48.6278     6844.00000
    48.6409     6730.00000
    48.6540     6828.00000
    48.6671     7045.00000
    48.6803     7093.00000
    48.6934     7337.00000
    48.7065     7759.00000
    48.7197     7835.00000
    48.7328     7747.00000
    48.7459     7911.00000
    48.7591     7852.00000
    48.7722     7677.00000
    48.7853     7795.00000
    48.7985     7715.00000
    48.8116     7720.00000
    48.8247     7910.00000
    48.8378     7905.00000
    48.8510     7795.00000
    48.8641     7770.00000
    48.8772     7846.00000
    48.8904     7459.00000
    48.9035     7393.00000
    48.9166     7354.00000
    48.9298     7387.00000
    48.9429     7232.00000
    48.9560     7167.00000
    48.9691     7154.00000
    48.9823     7240.00000
    48.9954     7037.00000
    49.0085     7232.00000
    49.0217     7283.00000
    49.0348     7288.00000
    49.0479     7131.00000
    49.0611     7090.00000
    49.0742     7373.00000
    49.0873     7217.00000
    49.1004     7506.00000
    49.1136     7723.00000
    49.1267     8026.00000
    49.1398     8271.00000
    49.1530     9222.00000
    49.1661    10304.00000
    49.1792    11601.00000
    49.1924    12915.00000
    49.2055    14028.00000
    49.2186    14214.00000
    49.2318    14434.00000
    49.2449    14033.00000
    49.2580    13394.00000
    49.2711    12720.00000
    49.2843    11936.00000
    49.2974    11519.00000
    49.3105    11772.00000
    49.3237    12637.00000
    49.3368    13462.00000
    49.3499    14183.00000
    49.3631    14184.00000
    49.3762    13660.00000
    49.3893    12332.00000
    49.4024    11239.00000
    49.4156    10048.00000
    49.4287     9182.00000
    49.4418     8729.00000
    49.4550     8586.00000
    49.4681     8743.00000
    49.4812     8865.00000
    49.4944     8699.00000
    49.5075     8529.00000
    49.5206     8122.00000
    49.5337     7576.00000
    49.5469     7421.00000
    49.5600     7227.00000
    49.5731     6869.00000
    49.5863     6807.00000
    49.5994     6885.00000
    49.6125     6689.00000
    49.6257     6862.00000
    49.6388     6820.00000
    49.6519     6650.00000
    49.6651     6807.00000
    49.6782     6890.00000
    49.6913     6931.00000
    49.7044     7066.00000
    49.7176     7042.00000
    49.7307     7036.00000
    49.7438     6943.00000
    49.7570     7087.00000
    49.7701     7053.00000
    49.7832     7216.00000
    49.7964     7389.00000
    49.8095     7513.00000
    49.8226     7670.00000
    49.8357     8003.00000
    49.8489     8362.00000
    49.8620     9172.00000
    49.8751    10320.00000
    49.8883    12123.00000
    49.9014    14197.00000
    49.9145    16305.00000
    49.9277    18541.00000
    49.9408    19472.00000
    49.9539    18739.00000
    49.9670    16503.00000
    49.9802    14056.00000
    49.9933    12435.00000
    50.0064    11237.00000
    50.0196    11344.00000
    50.0327    11505.00000
    50.0458    12215.00000
    50.0590    13022.00000
    50.0721    13080.00000
    50.0852    12764.00000
    50.0984    11560.00000
    50.1115    10255.00000
    50.1246     9304.00000
    50.1377     8628.00000
    50.1509     7922.00000
    50.1640     7455.00000
    50.1771     7301.00000
    50.1903     7066.00000
    50.2034     7306.00000
    50.2165     6919.00000
    50.2297     6731.00000
    50.2428     6785.00000
    50.2559     6642.00000
    50.2690     6712.00000
    50.2822     6667.00000
    50.2953     6773.00000
    50.3084     6682.00000
    50.3216     6534.00000
    50.3347     6752.00000
    50.3478     6747.00000
    50.3610     6712.00000
    50.3741     6662.00000
    50.3872     6825.00000
    50.4003     6783.00000
    50.4135     6911.00000
    50.4266     7111.00000
    50.4397     7186.00000
    50.4529     7294.00000
    50.4660     7456.00000
    50.4791     7637.00000
    50.4923     7522.00000
    50.5054     7509.00000
    50.5185     7482.00000
    50.5317     7403.00000
    50.5448     7480.00000
    50.5579     7729.00000
    50.5710     8069.00000
    50.5842     8463.00000
    50.5973     8999.00000
    50.6104     9177.00000
    50.6236     9263.00000
    50.6367     9264.00000
    50.6498     8947.00000
    50.6630     9172.00000
    50.6761     9314.00000
    50.6892     9359.00000
    50.7023     9888.00000
    50.7155     9564.00000
    50.7286     9643.00000
    50.7417     9569.00000
    50.7549     9155.00000
    50.7680     8743.00000
    50.7811     8191.00000
    50.7943     8303.00000
    50.8074     8154.00000
    50.8205     8036.00000
    50.8336     7964.00000
    50.8468     8186.00000
    50.8599     7781.00000
    50.8730     7651.00000
    50.8862     7302.00000
    50.8993     7145.00000
    50.9124     6799.00000
    50.9256     6657.00000
    50.9387     6710.00000
    50.9518     6817.00000
    50.9649     6621.00000
    50.9781     6592.00000
    50.9912     6531.00000
    51.0043     6533.00000
    51.0175     6448.00000
    51.0306     6356.00000
    51.0437     6540.00000
    51.0569     6572.00000
    51.0700     6480.00000
    51.0831     6568.00000
    51.0963     6468.00000
    51.1094     6508.00000
    51.1225     6561.00000
    51.1356     6617.00000
    51.1488     6337.00000
    51.1619     6377.00000
    51.1750     6414.00000
    51.1882     6512.00000
    51.2013     6509.00000
    51.2144     6459.00000
    51.2276     6558.00000
    51.2407     6357.00000
    51.2538     6507.00000
    51.2669     6676.00000
    51.2801     6421.00000
    51.2932     6564.00000
    51.3063     6428.00000
    51.3195     6527.00000
    51.3326     6667.00000
    51.3457     6591.00000
    51.3589     6587.00000
    51.3720     6671.00000
    51.3851     6601.00000
    51.3982     6476.00000
    51.4114     6599.00000
    51.4245     6660.00000
    51.4376     6563.00000
    51.4508     6559.00000
    51.4639     6506.00000
    51.4770     6684.00000
    51.4902     6721.00000
    51.5033     6744.00000
    51.5164     6588.00000
    51.5296     6673.00000
    51.5427     6816.00000
    51.5558     6812.00000
    51.5689     7073.00000
    51.5821     7031.00000
    51.5952     7119.00000
    51.6083     7458.00000
    51.6215     7837.00000
    51.6346     8373.00000
    51.6477     9065.00000
    51.6609    10175.00000
    51.6740    11650.00000
    51.6871    13483.00000
    51.7002    15184.00000
    51.7134    15755.00000
    51.7265    14917.00000
    51.7396    13062.00000
    51.7528    11406.00000
    51.7659    10077.00000
    51.7790     9682.00000
    51.7922     9776.00000
    51.8053    10061.00000
    51.8184    10619.00000
    51.8315    11522.00000
    51.8447    12028.00000
    51.8578    11813.00000
    51.8709    10858.00000
    51.8841     9837.00000
    51.8972     8686.00000
    51.9103     7994.00000
    51.9235     7754.00000
    51.9366     7531.00000
    51.9497     7296.00000
    51.9628     7386.00000
    51.9760     7181.00000
    51.9891     7023.00000
    52.0022     7057.00000
    52.0154     6867.00000
    52.0285     6727.00000
    52.0416     6704.00000
    52.0548     6593.00000
    52.0679     6649.00000
    52.0810     6422.00000
    52.0942     6463.00000
    52.1073     6350.00000
    52.1204     6446.00000
    52.1335     6527.00000
    52.1467     6595.00000
    52.1598     6495.00000
    52.1729     6294.00000
    52.1861     6387.00000
    52.1992     6611.00000
    52.2123     6527.00000
    52.2255     6479.00000
    52.2386     6430.00000
    52.2517     6456.00000
    52.2648     6407.00000
    52.2780     6435.00000
    52.2911     6306.00000
    52.3042     6445.00000
    52.3174     6356.00000
    52.3305     6300.00000
    52.3436     6479.00000
    52.3568     6527.00000
    52.3699     6467.00000
    52.3830     6487.00000
    52.3961     6394.00000
    52.4093     6515.00000
    52.4224     6385.00000
    52.4355     6370.00000
    52.4487     6343.00000
    52.4618     6408.00000
    52.4749     6577.00000
    52.4881     6525.00000
    52.5012     6411.00000
    52.5143     6283.00000
    52.5275     6727.00000
    52.5406     6522.00000
    52.5537     6333.00000
    52.5668     6374.00000
    52.5800     6400.00000
    52.5931     6355.00000
    52.6062     6606.00000
    52.6194     6815.00000
    52.6325     7007.00000
    52.6456     7287.00000
    52.6588     7738.00000
    52.6719     8019.00000
    52.6850     8012.00000
    52.6981     7763.00000
    52.7113     7668.00000
    52.7244     7226.00000
    52.7375     7012.00000
    52.7507     6978.00000
    52.7638     6602.00000
    52.7769     6781.00000
    52.7901     6893.00000
    52.8032     7282.00000
    52.8163     7343.00000
    52.8294     7291.00000
    52.8426     7108.00000
    52.8557     6848.00000
    52.8688     6746.00000
    52.8820     6580.00000
    52.8951     6555.00000
    52.9082     6439.00000
    52.9214     6430.00000
    52.9345     6495.00000
    52.9476     6328.00000
    52.9608     6404.00000
    52.9739     6355.00000
    52.9870     6385.00000
    53.0001     6135.00000
    53.0133     6446.00000
    53.0264     6374.00000
    53.0395     6403.00000
    53.0527     6368.00000
    53.0658     6251.00000
    53.0789     6437.00000
    53.0921     6426.00000
    53.1052     6388.00000
    53.1183     6236.00000
    53.1314     6204.00000
    53.1446     6189.00000
    53.1577     6260.00000
    53.1708     6435.00000
    53.1840     6343.00000
    53.1971     6302.00000
    53.2102     6402.00000
    53.2234     6127.00000
    53.2365     6399.00000
    53.2496     6427.00000
    53.2627     6400.00000
    53.2759     6431.00000
    53.2890     6393.00000
    53.3021     6531.00000
    53.3153     6521.00000
    53.3284     6456.00000
    53.3415     6491.00000
    53.3547     6372.00000
    53.3678     6332.00000
    53.3809     6193.00000
    53.3941     6342.00000
    53.4072     6559.00000
    53.4203     6457.00000
    53.4334     6463.00000
    53.4466     6413.00000
    53.4597     6535.00000
    53.4728     6274.00000
    53.4860     6517.00000
    53.4991     6362.00000
    53.5122     6177.00000
    53.5254     6470.00000
    53.5385     6336.00000
    53.5516     6130.00000
    53.5647     6322.00000
    53.5779     6312.00000
    53.5910     6463.00000
    53.6041     6411.00000
    53.6173     6281.00000
    53.6304     6117.00000
    53.6435     6263.00000
    53.6567     6348.00000
    53.6698     6268.00000
    53.6829     6232.00000
    53.6960     6227.00000
    53.7092     6516.00000
    53.7223     6595.00000
    53.7354     6517.00000
    53.7486     6278.00000
    53.7617     6284.00000
    53.7748     6411.00000
    53.7880     6443.00000
    53.8011     6435.00000
    53.8142     6540.00000
    53.8274     6464.00000
    53.8405     6506.00000
    53.8536     6627.00000
    53.8667     6434.00000
    53.8799     6519.00000
    53.8930     6511.00000
    53.9061     6423.00000
    53.9193     6426.00000
    53.9324     6447.00000
    53.9455     6275.00000
    53.9587     6408.00000
    53.9718     6400.00000
    53.9849     6526.00000
    53.9980     6447.00000
    54.0112     6248.00000
    54.0243     6294.00000
    54.0374     6360.00000
    54.0506     6380.00000
    54.0637     6463.00000
    54.0768     6227.00000
    54.0900     6464.00000
    54.1031     6228.00000
    54.1162     6360.00000
    54.1293     6328.00000
    54.1425     6262.00000
    54.1556     6223.00000
    54.1687     6295.00000
    54.1819     6324.00000
    54.1950     6074.00000
    54.2081     6248.00000
    54.2213     6316.00000
    54.2344     6382.00000
    54.2475     6456.00000
    54.2607     6284.00000
    54.2738     6235.00000
    54.2869     6258.00000
    54.3000     6431.00000
    54.3132     6243.00000
    54.3263     6202.00000
    54.3394     6131.00000
    54.3526     6237.00000
    54.3657     6283.00000
    54.3788     6050.00000
    54.3920     6433.00000
    54.4051     6123.00000
    54.4182     6101.00000
    54.4313     6126.00000
    54.4445     6045.00000
    54.4576     6274.00000
    54.4707     6253.00000
    54.4839     6306.00000
    54.4970     6145.00000
    54.5101     6351.00000
    54.5233     6544.00000
    54.5364     6271.00000
    54.5495     6292.00000
    54.5626     6249.00000
    54.5758     6348.00000
    54.5889     6287.00000
    54.6020     6093.00000
    54.6152     6379.00000
    54.6283     6301.00000
    54.6414     6291.00000
    54.6546     6119.00000
    54.6677     6198.00000
    54.6808     6203.00000
    54.6940     6310.00000
    54.7071     6137.00000
    54.7202     6377.00000
    54.7333     6299.00000
    54.7465     6225.00000
    54.7596     6299.00000
    54.7727     6352.00000
    54.7859     6220.00000
    54.7990     6265.00000
    54.8121     6348.00000
    54.8253     6221.00000
    54.8384     6273.00000
    54.8515     6323.00000
    54.8646     6266.00000
    54.8778     6258.00000
    54.8909     6256.00000
    54.9040     6234.00000
    54.9172     6404.00000
    54.9303     6454.00000
    54.9434     6154.00000
    54.9566     6273.00000
    54.9697     6421.00000
    54.9828     6399.00000
    54.9959     6154.00000
    55.0091     6256.00000
    55.0222     6245.00000
    55.0353     6331.00000
    55.0485     6230.00000
    55.0616     6356.00000
    55.0747     6328.00000
    55.0879     6447.00000
    55.1010     6156.00000
    55.1141     6164.00000
    55.1272     6338.00000
    55.1404     6477.00000
    55.1535     6397.00000
    55.1666     6330.00000
    55.1798     6401.00000
    55.1929     6272.00000
    55.2060     6559.00000
    55.2192     6414.00000
    55.2323     6440.00000
    55.2454     6298.00000
    55.2586     6382.00000
    55.2717     6172.00000
    55.2848     6410.00000
    55.2979     6524.00000
    55.3111     6356.00000
    55.3242     6194.00000
    55.3373     6552.00000
    55.3505     6495.00000
    55.3636     6467.00000
    55.3767     6427.00000
    55.3899     6473.00000
    55.4030     6606.00000
    55.4161     6447.00000
    55.4292     6599.00000
    55.4424     6615.00000
    55.4555     7111.00000
    55.4686     7509.00000
    55.4818     7830.00000
    55.4949     8392.00000
    55.5080     8791.00000
    55.5212     8739.00000
    55.5343     8486.00000
    55.5474     8087.00000
    55.5605     7888.00000
    55.5737     7520.00000
    55.5868     7324.00000
    55.5999     7695.00000
    55.6131     7732.00000
    55.6262     7845.00000
    55.6393     8198.00000
    55.6525     8716.00000
    55.6656     8884.00000
    55.6787     9133.00000
    55.6918     9386.00000
    55.7050     9853.00000
    55.7181    10276.00000
    55.7312    11012.00000
    55.7444    11456.00000
    55.7575    12060.00000
    55.7706    12256.00000
    55.7838    12358.00000
    55.7969    11706.00000
    55.8100    11093.00000
    55.8232    10336.00000
    55.8363     9472.00000
    55.8494     9026.00000
    55.8625     8977.00000
    55.8757     8864.00000
    55.8888     9012.00000
    55.9019     9294.00000
    55.9151     9377.00000
    55.9282     9309.00000
    55.9413     9534.00000
    55.9545     8867.00000
    55.9676     8428.00000
    55.9807     8000.00000
    55.9938     7576.00000
    56.0070     7353.00000
    56.0201     7399.00000
    56.0332     7275.00000
    56.0464     7100.00000
    56.0595     6999.00000
    56.0726     7235.00000
    56.0858     7200.00000
    56.0989     7186.00000
    56.1120     7062.00000
    56.1251     6897.00000
    56.1383     6917.00000
    56.1514     6771.00000
    56.1645     6694.00000
    56.1777     6797.00000
    56.1908     6790.00000
    56.2039     6715.00000
    56.2171     6865.00000
    56.2302     6838.00000
    56.2433     7049.00000
    56.2565     7109.00000
    56.2696     7188.00000
    56.2827     7631.00000
    56.2958     7764.00000
    56.3090     8490.00000
    56.3221     8882.00000
    56.3352     9073.00000
    56.3484     9203.00000
    56.3615     9247.00000
    56.3746     8759.00000
    56.3878     8272.00000
    56.4009     7999.00000
    56.4140     7580.00000
    56.4271     7419.00000
    56.4403     7580.00000
    56.4534     7734.00000
    56.4665     7926.00000
    56.4797     8062.00000
    56.4928     8083.00000
    56.5059     8116.00000
    56.5191     8211.00000
    56.5322     8005.00000
    56.5453     7707.00000
    56.5584     7746.00000
    56.5716     7542.00000
    56.5847     7828.00000
    56.5978     8302.00000
    56.6110     9003.00000
    56.6241     9598.00000
    56.6372    10196.00000
    56.6504    10871.00000
    56.6635    10721.00000
    56.6766    10430.00000
    56.6898     9730.00000
    56.7029     8964.00000
    56.7160     8401.00000
    56.7291     7999.00000
    56.7423     7709.00000
    56.7554     7613.00000
    56.7685     7772.00000
    56.7817     8180.00000
    56.7948     8592.00000
    56.8079     8836.00000
    56.8211     8609.00000
    56.8342     8593.00000
    56.8473     8158.00000
    56.8604     7847.00000
    56.8736     7654.00000
    56.8867     7332.00000
    56.8998     7170.00000
    56.9130     7065.00000
    56.9261     6873.00000
    56.9392     7157.00000
    56.9524     7036.00000
    56.9655     6812.00000
    56.9786     6897.00000
    56.9917     6919.00000
    57.0049     6636.00000
    57.0180     6578.00000
    57.0311     6825.00000
    57.0443     6667.00000
    57.0574     6594.00000
    57.0705     6594.00000
    57.0837     6637.00000
    57.0968     6725.00000
    57.1099     6660.00000
    57.1231     6579.00000
    57.1362     6755.00000
    57.1493     6691.00000
    57.1624     6651.00000
    57.1756     6453.00000
    57.1887     6364.00000
    57.2018     6493.00000
    57.2150     6172.00000
    57.2281     6307.00000
    57.2412     6314.00000
    57.2544     6393.00000
    57.2675     6424.00000
    57.2806     6384.00000
    57.2937     6531.00000
    57.3069     6569.00000
    57.3200     6564.00000
    57.3331     6407.00000
    57.3463     6556.00000
    57.3594     6335.00000
    57.3725     6364.00000
    57.3857     6268.00000
    57.3988     6505.00000
    57.4119     6242.00000
    57.4250     6577.00000
    57.4382     6444.00000
    57.4513     6398.00000
    57.4644     6528.00000
    57.4776     6274.00000
    57.4907     6405.00000
    57.5038     6418.00000
    57.5170     6251.00000
    57.5301     6476.00000
    57.5432     6474.00000
    57.5564     6400.00000
    57.5695     6330.00000
    57.5826     6558.00000
    57.5957     6455.00000
    57.6089     6635.00000
    57.6220     6662.00000
    57.6351     6654.00000
    57.6483     6649.00000
    57.6614     6728.00000
    57.6745     6906.00000
    57.6877     6862.00000
    57.7008     7122.00000
    57.7139     7234.00000
    57.7270     7494.00000
    57.7402     7703.00000
    57.7533     8044.00000
    57.7664     8467.00000
    57.7796     8877.00000
    57.7927     9095.00000
    57.8058     9251.00000
    57.8190     9464.00000
    57.8321     9575.00000
    57.8452     9414.00000
    57.8583     9287.00000
    57.8715     9008.00000
    57.8846     9206.00000
    57.8977     9543.00000
    57.9109     9984.00000
    57.9240    10214.00000
    57.9371    10669.00000
    57.9503    11105.00000
    57.9634    10611.00000
    57.9765    10344.00000
    57.9897     9888.00000
    58.0028     9387.00000
    58.0159     8774.00000
    58.0290     8397.00000
    58.0422     8064.00000
    58.0553     8023.00000
    58.0684     7954.00000
    58.0816     8062.00000
    58.0947     8068.00000
    58.1078     8149.00000
    58.1210     8039.00000
    58.1341     7721.00000
    58.1472     7672.00000
    58.1603     7250.00000
    58.1735     6865.00000
    58.1866     6827.00000
    58.1997     6773.00000
    58.2129     6553.00000
    58.2260     6689.00000
    58.2391     6607.00000
    58.2523     6429.00000
    58.2654     6474.00000
    58.2785     6317.00000
    58.2916     6490.00000
    58.3048     6538.00000
    58.3179     6499.00000
    58.3310     6558.00000
    58.3442     6563.00000
    58.3573     6438.00000
    58.3704     6533.00000
    58.3836     6447.00000
    58.3967     6421.00000
    58.4098     6439.00000
    58.4230     6333.00000
    58.4361     6454.00000
    58.4492     6520.00000
    58.4623     6365.00000
    58.4755     6609.00000
    58.4886     6471.00000
    58.5017     6458.00000
    58.5149     6707.00000
    58.5280     6938.00000
    58.5411     6988.00000
    58.5543     7090.00000
    58.5674     7243.00000
    58.5805     7414.00000
    58.5936     7738.00000
    58.6068     7799.00000
    58.6199     7664.00000
    58.6330     7738.00000
    58.6462     7849.00000
    58.6593     7779.00000
    58.6724     7473.00000
    58.6856     7401.00000
    58.6987     7350.00000
    58.7118     7408.00000
    58.7249     7698.00000
    58.7381     7956.00000
    58.7512     8392.00000
    58.7643     8439.00000
    58.7775     8878.00000
    58.7906     9234.00000
    58.8037     9732.00000
    58.8169     9588.00000
    58.8300     9606.00000
    58.8431     9511.00000
    58.8562     9390.00000
    58.8694     9391.00000
    58.8825     9497.00000
    58.8956     9835.00000
    58.9088     9835.00000
    58.9219    10292.00000
    58.9350    10469.00000
    58.9482    10552.00000
    58.9613    10574.00000
    58.9744    10585.00000
    58.9876    10207.00000
    59.0007    10372.00000
    59.0138    10490.00000
    59.0269    10435.00000
    59.0401    10672.00000
    59.0532    10494.00000
    59.0663    10061.00000
    59.0795     9584.00000
    59.0926     9207.00000
    59.1057     9011.00000
    59.1189     8970.00000
    59.1320     8931.00000
    59.1451     8999.00000
    59.1582     9089.00000
    59.1714     9321.00000
    59.1845     9943.00000
    59.1976    10490.00000
    59.2108    10436.00000
    59.2239    10354.00000
    59.2370    10086.00000
    59.2502     9961.00000
    59.2633     9206.00000
    59.2764     8754.00000
    59.2895     8122.00000
    59.3027     7783.00000
    59.3158     7905.00000
    59.3289     7566.00000
    59.3421     7623.00000
    59.3552     7791.00000
    59.3683     7915.00000
    59.3815     8045.00000
    59.3946     7703.00000
    59.4077     7902.00000
    59.4208     7746.00000
    59.4340     7448.00000
    59.4471     6925.00000
    59.4602     6954.00000
    59.4734     6706.00000
    59.4865     6560.00000
    59.4996     6427.00000
    59.5128     6367.00000
    59.5259     6489.00000
    59.5390     6387.00000
    59.5522     6342.00000
    59.5653     6330.00000
    59.5784     6359.00000
    59.5915     6430.00000
    59.6047     6278.00000
    59.6178     6338.00000
    59.6309     6416.00000
    59.6441     6493.00000
    59.6572     6432.00000
    59.6703     6300.00000
    59.6835     6375.00000
    59.6966     6399.00000
    59.7097     6380.00000
    59.7228     6337.00000
    59.7360     6450.00000
    59.7491     6417.00000
    59.7622     6462.00000
    59.7754     6271.00000
    59.7885     6462.00000
    59.8016     6505.00000
    59.8148     6476.00000
    59.8279     6504.00000
    59.8410     6479.00000
    59.8541     6534.00000
    59.8673     6817.00000
    59.8804     6632.00000
    59.8935     6820.00000
    59.9067     6810.00000
    59.9198     6969.00000
    59.9329     7046.00000
    59.9461     7409.00000
    59.9592     7797.00000
    59.9723     8282.00000
    59.9855     9214.00000
    59.9986    10193.00000
    60.0117    11309.00000
    60.0248    12096.00000
    60.0380    12393.00000
    60.0511    11814.00000
    60.0642    10788.00000
    60.0774     9815.00000
    60.0905     8892.00000
    60.1036     8045.00000
    60.1168     7875.00000
    60.1299     7887.00000
    60.1430     8019.00000
    60.1561     8349.00000
    60.1693     8886.00000
    60.1824     9128.00000
    60.1955     9523.00000
    60.2087     9342.00000
    60.2218     8967.00000
    60.2349     8391.00000
    60.2481     7770.00000
    60.2612     7360.00000
    60.2743     6999.00000
    60.2874     6845.00000
    60.3006     6782.00000
    60.3137     6675.00000
    60.3268     6617.00000
    60.3400     6651.00000
    60.3531     6551.00000
    60.3662     6582.00000
    60.3794     6380.00000
    60.3925     6386.00000
    60.4056     6328.00000
    60.4188     6331.00000
    60.4319     6514.00000
    60.4450     6475.00000
    60.4581     6693.00000
    60.4713     6594.00000
    60.4844     6682.00000
    60.4975     6725.00000
    60.5107     6716.00000
    60.5238     7074.00000
    60.5369     7436.00000
    60.5501     7699.00000
    60.5632     8303.00000
    60.5763     8779.00000
    60.5894     8961.00000
    60.6026     8956.00000
    60.6157     8493.00000
    60.6288     8182.00000
    60.6420     7485.00000
    60.6551     7287.00000
    60.6682     7202.00000
    60.6814     7262.00000
    60.6945     7312.00000
    60.7076     7485.00000
    60.7207     7393.00000
    60.7339     7597.00000
    60.7470     7611.00000
    60.7601     7929.00000
    60.7733     7713.00000
    60.7864     7557.00000
    60.7995     7382.00000
    60.8127     7067.00000
    60.8258     6845.00000
    60.8389     6821.00000
    60.8521     6728.00000
    60.8652     6782.00000
    60.8783     6752.00000
    60.8914     6648.00000
    60.9046     6586.00000
    60.9177     6594.00000
    60.9308     6365.00000
    60.9440     6640.00000
    60.9571     6603.00000
    60.9702     6611.00000
    60.9834     6541.00000
    60.9965     6527.00000
    61.0096     6564.00000
    61.0227     6612.00000
    61.0359     6450.00000
    61.0490     6538.00000
    61.0621     6612.00000
    61.0753     6653.00000
    61.0884     6860.00000
    61.1015     6711.00000
    61.1147     6921.00000
    61.1278     7078.00000
    61.1409     7204.00000
    61.1540     7474.00000
    61.1672     7885.00000
    61.1803     8567.00000
    61.1934     9315.00000
    61.2066    10136.00000
    61.2197    10820.00000
    61.2328    11799.00000
    61.2460    12644.00000
    61.2591    13107.00000
    61.2722    13093.00000
    61.2854    13062.00000
    61.2985    12917.00000
    61.3116    12412.00000
    61.3247    11705.00000
    61.3379    11027.00000
    61.3510    10149.00000
    61.3641    10075.00000
    61.3773     9704.00000
    61.3904     9787.00000
    61.4035     9725.00000
    61.4167     9623.00000
    61.4298     9934.00000
    61.4429     9783.00000
    61.4560     9815.00000
    61.4692     9434.00000
    61.4823     9232.00000
    61.4954     8854.00000
    61.5086     8304.00000
    61.5217     7854.00000
    61.5348     7385.00000
    61.5480     7111.00000
    61.5611     6669.00000
    61.5742     6720.00000
    61.5873     6633.00000
    61.6005     6803.00000
    61.6136     6993.00000
    61.6267     7074.00000
    61.6399     7381.00000
    61.6530     7423.00000
    61.6661     7468.00000
    61.6793     7755.00000
    61.6924     7695.00000
    61.7055     7434.00000
    61.7187     7121.00000
    61.7318     6706.00000
    61.7449     6669.00000
    61.7580     6566.00000
    61.7712     6574.00000
    61.7843     6616.00000
    61.7974     6660.00000
    61.8106     6790.00000
    61.8237     6799.00000
    61.8368     6893.00000
    61.8500     6956.00000
    61.8631     6711.00000
    61.8762     6599.00000
    61.8893     6619.00000
    61.9025     6505.00000
    61.9156     6432.00000
    61.9287     6468.00000
    61.9419     6231.00000
    61.9550     6221.00000
    61.9681     6113.00000
    61.9813     6237.00000
    61.9944     6387.00000
    62.0075     6219.00000
    62.0206     6179.00000
    62.0338     6308.00000
    62.0469     6240.00000
    62.0600     6153.00000
    62.0732     6294.00000
    62.0863     6213.00000
    62.0994     6132.00000
    62.1126     6142.00000
    62.1257     6065.00000
    62.1388     6075.00000
    62.1520     6272.00000
    62.1651     6106.00000
    62.1782     6273.00000
    62.1913     6150.00000
    62.2045     6136.00000
    62.2176     6167.00000
    62.2307     6308.00000
    62.2439     6183.00000
    62.2570     6134.00000
    62.2701     6019.00000
    62.2833     6227.00000
    62.2964     6231.00000
    62.3095     6179.00000
    62.3226     6083.00000
    62.3358     6189.00000
    62.3489     6263.00000
    62.3620     6182.00000
    62.3752     6096.00000
    62.3883     6008.00000
    62.4014     6141.00000
    62.4146     6068.00000
    62.4277     6239.00000
    62.4408     6137.00000
    62.4539     6110.00000
    62.4671     6277.00000
    62.4802     5956.00000
    62.4933     5956.00000
    62.5065     6083.00000
    62.5196     6143.00000
    62.5327     6132.00000
    62.5459     6029.00000
    62.5590     5963.00000
    62.5721     6213.00000
    62.5852     5996.00000
    62.5984     5954.00000
    62.6115     6067.00000
    62.6246     6227.00000
    62.6378     5979.00000
    62.6509     5968.00000
    62.6640     6134.00000
    62.6772     6045.00000
    62.6903     5970.00000
    62.7034     5960.00000
    62.7166     6166.00000
    62.7297     6098.00000
    62.7428     6198.00000
    62.7559     6233.00000
    62.7691     6115.00000
    62.7822     6120.00000
    62.7953     6201.00000
    62.8085     6215.00000
    62.8216     6141.00000
    62.8347     6249.00000
    62.8479     6080.00000
    62.8610     6054.00000
    62.8741     6182.00000
    62.8872     6168.00000
    62.9004     6112.00000
    62.9135     6137.00000
    62.9266     6200.00000
    62.9398     6163.00000
    62.9529     6129.00000
    62.9660     6077.00000
    62.9792     6133.00000
    62.9923     6199.00000
    63.0054     6172.00000
    63.0185     6098.00000
    63.0317     6067.00000
    63.0448     6305.00000
    63.0579     6292.00000
    63.0711     6243.00000
    63.0842     6110.00000
    63.0973     6312.00000
    63.1105     6199.00000
    63.1236     6149.00000
    63.1367     6279.00000
    63.1499     6204.00000
    63.1630     6438.00000
    63.1761     6428.00000
    63.1892     6393.00000
    63.2024     6596.00000
    63.2155     6717.00000
    63.2286     6666.00000
    63.2418     6810.00000
    63.2549     7086.00000
    63.2680     7202.00000
    63.2812     7324.00000
    63.2943     7372.00000
    63.3074     7196.00000
    63.3205     7353.00000
    63.3337     7169.00000
    63.3468     6855.00000
    63.3599     6742.00000
    63.3731     6766.00000
    63.3862     6692.00000
    63.3993     6731.00000
    63.4125     6979.00000
    63.4256     7017.00000
    63.4387     7287.00000
    63.4518     7327.00000
    63.4650     7531.00000
    63.4781     7962.00000
    63.4912     8116.00000
    63.5044     8412.00000
    63.5175     8188.00000
    63.5306     8069.00000
    63.5438     7833.00000
    63.5569     7412.00000
    63.5700     7003.00000
    63.5831     6817.00000
    63.5963     6682.00000
    63.6094     6825.00000
    63.6225     6726.00000
    63.6357     6771.00000
    63.6488     6878.00000
    63.6619     7155.00000
    63.6751     7426.00000
    63.6882     7284.00000
    63.7013     7127.00000
    63.7145     7075.00000
    63.7276     6967.00000
    63.7407     6605.00000
    63.7538     6520.00000
    63.7670     6368.00000
    63.7801     6237.00000
    63.7932     6242.00000
    63.8064     6243.00000
    63.8195     6256.00000
    63.8326     6328.00000
    63.8458     6207.00000
    63.8589     6172.00000
    63.8720     6135.00000
    63.8851     6229.00000
    63.8983     6133.00000
    63.9114     6079.00000
    63.9245     6117.00000
    63.9377     5980.00000
    63.9508     6030.00000
    63.9639     6156.00000
    63.9771     6207.00000
    63.9902     6074.00000
    64.0033     6116.00000
    64.0164     6233.00000
    64.0296     6149.00000
    64.0427     6010.00000
    64.0558     6046.00000
    64.0690     6123.00000
    64.0821     6117.00000
    64.0952     5972.00000
    64.1084     6234.00000
    64.1215     6128.00000
    64.1346     6264.00000
    64.1478     6028.00000
    64.1609     6115.00000
    64.1740     6059.00000
    64.1871     6190.00000
    64.2003     6235.00000
    64.2134     6169.00000
    64.2265     6353.00000
    64.2397     6331.00000
    64.2528     6344.00000
    64.2659     6651.00000
    64.2791     6422.00000
    64.2922     6699.00000
    64.3053     6675.00000
    64.3184     7028.00000
    64.3316     7156.00000
    64.3447     7178.00000
    64.3578     7052.00000
    64.3710     7211.00000
    64.3841     7031.00000
    64.3972     7099.00000
    64.4104     6869.00000
    64.4235     6663.00000
    64.4366     6517.00000
    64.4498     6458.00000
    64.4629     6674.00000
    64.4760     6593.00000
    64.4891     6530.00000
    64.5023     6678.00000
    64.5154     6711.00000
    64.5285     6647.00000
    64.5417     6542.00000
    64.5548     6679.00000
    64.5679     6384.00000
    64.5811     6505.00000
    64.5942     6462.00000
    64.6073     6525.00000
    64.6204     6503.00000
    64.6336     6459.00000
    64.6467     6297.00000
    64.6598     6389.00000
    64.6730     6265.00000
    64.6861     6048.00000
    64.6992     6024.00000
    64.7124     6049.00000
    64.7255     6153.00000
    64.7386     6343.00000
    64.7517     6123.00000
    64.7649     6264.00000
    64.7780     6206.00000
    64.7911     6176.00000
    64.8043     6062.00000
    64.8174     5997.00000
    64.8305     5870.00000
    64.8437     6039.00000
    64.8568     6190.00000
    64.8699     5941.00000
    64.8830     5979.00000
    64.8962     6054.00000
    64.9093     5873.00000
    64.9224     6152.00000
    64.9356     6080.00000
    64.9487     6093.00000
    64.9618     6269.00000
    64.9750     6206.00000
    64.9881     6030.00000
    65.0012     5874.00000
    65.0144     6033.00000
    65.0275     6206.00000
    65.0406     6229.00000
    65.0537     6102.00000
    65.0669     6065.00000
    65.0800     6018.00000
    65.0931     6079.00000
    65.1063     5998.00000
    65.1194     5952.00000
    65.1325     6153.00000
    65.1457     5999.00000
    65.1588     6115.00000
    65.1719     6048.00000
    65.1850     6059.00000
    65.1982     6012.00000
    65.2113     6037.00000
    65.2244     6104.00000
    65.2376     5951.00000
    65.2507     6078.00000
    65.2638     6132.00000
    65.2770     6047.00000
    65.2901     6062.00000
    65.3032     6156.00000
    65.3163     6196.00000
    65.3295     6201.00000
    65.3426     6292.00000
    65.3557     6111.00000
    65.3689     6109.00000
    65.3820     5966.00000
    65.3951     6108.00000
    65.4083     6189.00000
    65.4214     6083.00000
    65.4345     6164.00000
    65.4476     6075.00000
    65.4608     6156.00000
    65.4739     6260.00000
    65.4870     5900.00000
    65.5002     5925.00000
    65.5133     6040.00000
    65.5264     6130.00000
    65.5396     6020.00000
    65.5527     5993.00000
    65.5658     6003.00000
    65.5790     6131.00000
    65.5921     6314.00000
    65.6052     5964.00000
    65.6183     5948.00000
    65.6315     5970.00000
    65.6446     6080.00000
    65.6577     5975.00000
    65.6709     5893.00000
    65.6840     6064.00000
    65.6971     6101.00000
    65.7103     5985.00000
    65.7234     6022.00000
    65.7365     5943.00000
    65.7496     5959.00000
    65.7628     5988.00000
    65.7759     6052.00000
    65.7890     6063.00000
    65.8022     5934.00000
    65.8153     6026.00000
    65.8284     5879.00000
    65.8416     6020.00000
    65.8547     5970.00000
    65.8678     6027.00000
    65.8810     5921.00000
    65.8941     5851.00000
    65.9072     5899.00000
    65.9203     5882.00000
    65.9335     6141.00000
    65.9466     5960.00000
    65.9597     6042.00000
    65.9729     5902.00000
    65.9860     6050.00000
    65.9991     6093.00000
    66.0123     5887.00000
    66.0254     5838.00000
    66.0385     5823.00000
    66.0516     5972.00000
    66.0648     6116.00000
    66.0779     5849.00000
    66.0910     5986.00000
    66.1042     6086.00000
    66.1173     5876.00000
    66.1304     5949.00000
    66.1436     5978.00000
    66.1567     5890.00000
    66.1698     6193.00000
    66.1829     6060.00000
    66.1961     5985.00000
    66.2092     5994.00000
    66.2223     6133.00000
    66.2355     6079.00000
    66.2486     5965.00000
    66.2617     6093.00000
    66.2749     5997.00000
    66.2880     5993.00000
    66.3011     6043.00000
    66.3142     6081.00000
    66.3274     5832.00000
    66.3405     5839.00000
    66.3536     6152.00000
    66.3668     5987.00000
    66.3799     6105.00000
    66.3930     5994.00000
    66.4062     5926.00000
    66.4193     5924.00000
    66.4324     6133.00000
    66.4455     6169.00000
    66.4587     6124.00000
    66.4718     6232.00000
    66.4849     6210.00000
    66.4981     6191.00000
    66.5112     6071.00000
    66.5243     6116.00000
    66.5375     6040.00000
    66.5506     5932.00000
    66.5637     5894.00000
    66.5769     5978.00000
    66.5900     5924.00000
    66.6031     6026.00000
    66.6162     5897.00000
    66.6294     5951.00000
    66.6425     5913.00000
    66.6556     6016.00000
    66.6688     5879.00000
    66.6819     5989.00000
    66.6950     5980.00000
    66.7082     5982.00000
    66.7213     6137.00000
    66.7344     5953.00000
    66.7476     6082.00000
    66.7607     6029.00000
    66.7738     5810.00000
    66.7869     6029.00000
    66.8001     5853.00000
    66.8132     5885.00000
    66.8263     5911.00000
    66.8395     5912.00000
    66.8526     5933.00000
    66.8657     5910.00000
    66.8789     5774.00000
    66.8920     5858.00000
    66.9051     6100.00000
    66.9182     6042.00000
    66.9314     5929.00000
    66.9445     5956.00000
    66.9576     5892.00000
    66.9708     5989.00000
    66.9839     5906.00000
    66.9970     6074.00000
    67.0102     6031.00000
    67.0233     5809.00000
    67.0364     5895.00000
    67.0495     5934.00000
    67.0627     5969.00000
    67.0758     6022.00000
    67.0889     5845.00000
    67.1021     5950.00000
    67.1152     5924.00000
    67.1283     5825.00000
    67.1415     6111.00000
    67.1546     6045.00000
    67.1677     5943.00000
    67.1808     5860.00000
    67.1940     5922.00000
    67.2071     5896.00000
    67.2202     5979.00000
    67.2334     5910.00000
    67.2465     6032.00000
    67.2596     6076.00000
    67.2728     6057.00000
    67.2859     5843.00000
    67.2990     6048.00000
    67.3121     6082.00000
    67.3253     6030.00000
    67.3384     6034.00000
    67.3515     5942.00000
    67.3647     6006.00000
    67.3778     6043.00000
    67.3909     5920.00000
    67.4041     6425.00000
    67.4172     6277.00000
    67.4303     6062.00000
    67.4435     6112.00000
    67.4566     6135.00000
    67.4697     5879.00000
    67.4828     6098.00000
    67.4960     6014.00000
    67.5091     5964.00000
    67.5222     5934.00000
    67.5354     6257.00000
    67.5485     6266.00000
    67.5616     5920.00000
    67.5748     6035.00000
    67.5879     5972.00000
    67.6010     6108.00000
    67.6142     5995.00000
    67.6273     6092.00000
    67.6404     6158.00000
    67.6535     5910.00000
    67.6667     5944.00000
    67.6798     6058.00000
    67.6929     5995.00000
    67.7061     6040.00000
    67.7192     6151.00000
    67.7323     6041.00000
    67.7455     5996.00000
    67.7586     5861.00000
    67.7717     5976.00000
    67.7848     5773.00000
    67.7980     5876.00000
    67.8111     5954.00000
    67.8242     6093.00000
    67.8374     5926.00000
    67.8505     5984.00000
    67.8636     5821.00000
    67.8768     5994.00000
    67.8899     6072.00000
    67.9030     5980.00000
    67.9161     6135.00000
    67.9293     5932.00000
    67.9424     5864.00000
    67.9555     5932.00000
    67.9687     5928.00000
    67.9818     5875.00000
    67.9949     5971.00000
    68.0081     6092.00000
    68.0212     6037.00000
    68.0343     6012.00000
    68.0474     6004.00000
    68.0606     5837.00000
    68.0737     5881.00000
    68.0868     5940.00000
    68.1000     5949.00000
    68.1131     5813.00000
    68.1262     5956.00000
    68.1394     6152.00000
    68.1525     6079.00000
    68.1656     5953.00000
    68.1787     6068.00000
    68.1919     6185.00000
    68.2050     6062.00000
    68.2181     6021.00000
    68.2313     6059.00000
    68.2444     5947.00000
    68.2575     5948.00000
    68.2707     5917.00000
    68.2838     6000.00000
    68.2969     5921.00000
    68.3101     5888.00000
    68.3232     6028.00000
    68.3363     6053.00000
    68.3494     6156.00000
    68.3626     5921.00000
    68.3757     5915.00000
    68.3888     5951.00000
    68.4020     6014.00000
    68.4151     5942.00000
    68.4282     6027.00000
    68.4414     6103.00000
    68.4545     6095.00000
    68.4676     5906.00000
    68.4807     5936.00000
    68.4939     5858.00000
    68.5070     6133.00000
    68.5201     6096.00000
    68.5333     6025.00000
    68.5464     5996.00000
    68.5595     5946.00000
    68.5727     6025.00000
    68.5858     6121.00000
    68.5989     6106.00000
    68.6120     5888.00000
    68.6252     6020.00000
    68.6383     6078.00000
    68.6514     6059.00000
    68.6646     6108.00000
    68.6777     6022.00000
    68.6908     6081.00000
    68.7040     6183.00000
    68.7171     6162.00000
    68.7302     6200.00000
    68.7434     6227.00000
    68.7565     6195.00000
    68.7696     6323.00000
    68.7827     6252.00000
    68.7959     6247.00000
    68.8090     6288.00000
    68.8221     6462.00000
    68.8353     6337.00000
    68.8484     6446.00000
    68.8615     6615.00000
    68.8747     6690.00000
    68.8878     6837.00000
    68.9009     6895.00000
    68.9140     6962.00000
    68.9272     7144.00000
    68.9403     7156.00000
    68.9534     7072.00000
    68.9666     7191.00000
    68.9797     7222.00000
    68.9928     7128.00000
    69.0060     7298.00000
    69.0191     7001.00000
    69.0322     7020.00000
    69.0453     6895.00000
    69.0585     6703.00000
    69.0716     6782.00000
    69.0847     6781.00000
    69.0979     6643.00000
    69.1110     6697.00000
    69.1241     6844.00000
    69.1373     6885.00000
    69.1504     6854.00000
    69.1635     6870.00000
    69.1767     6979.00000
    69.1898     7310.00000
    69.2029     7256.00000
    69.2160     7940.00000
    69.2292     8395.00000
    69.2423     8586.00000
    69.2554     8332.00000
    69.2686     8316.00000
    69.2817     7964.00000
    69.2948     7419.00000
    69.3080     7199.00000
    69.3211     6938.00000
    69.3342     6932.00000
    69.3473     6833.00000
    69.3605     7215.00000
    69.3736     7341.00000
    69.3867     7519.00000
    69.3999     7871.00000
    69.4130     8027.00000
    69.4261     8430.00000
    69.4393     8765.00000
    69.4524     8819.00000
    69.4655     9064.00000
    69.4786     8676.00000
    69.4918     8034.00000
    69.5049     8049.00000
    69.5180     7766.00000
    69.5312     7579.00000
    69.5443     7224.00000
    69.5574     7201.00000
    69.5706     6943.00000
    69.5837     7074.00000
    69.5968     6950.00000
    69.6099     6985.00000
    69.6231     6911.00000
    69.6362     7040.00000
    69.6493     6877.00000
    69.6625     7079.00000
    69.6756     6982.00000
    69.6887     7030.00000
    69.7019     6901.00000
    69.7150     6731.00000
    69.7281     6825.00000
    69.7413     6718.00000
    69.7544     6645.00000
    69.7675     6726.00000
    69.7806     6727.00000
    69.7938     6656.00000
    69.8069     7030.00000
    69.8200     7190.00000
    69.8332     7409.00000
    69.8463     7901.00000
    69.8594     7734.00000
    69.8726     7526.00000
    69.8857     7298.00000
    69.8988     7089.00000
    69.9119     6611.00000
    69.9251     6701.00000
    69.9382     6462.00000
    69.9513     6509.00000
    69.9645     6422.00000
    69.9776     6460.00000
    69.9907     6415.00000
    70.0039     6489.00000
    70.0170     6647.00000
    70.0301     6596.00000
    70.0433     6770.00000
    70.0564     6968.00000
    70.0695     6947.00000
    70.0826     6764.00000
    70.0958     6700.00000
    70.1089     6559.00000
    70.1220     6361.00000
    70.1352     6431.00000
    70.1483     6234.00000
    70.1614     6127.00000
    70.1746     6219.00000
    70.1877     6235.00000
    70.2008     6313.00000
    70.2139     6192.00000
    70.2271     6107.00000
    70.2402     6066.00000
    70.2533     5950.00000
    70.2665     6283.00000
    70.2796     6198.00000
    70.2927     6339.00000
    70.3059     6332.00000
    70.3190     6088.00000
    70.3321     6086.00000
    70.3452     6295.00000
    70.3584     6137.00000
    70.3715     6101.00000
    70.3846     6065.00000
    70.3978     6224.00000
    70.4109     6128.00000
    70.4240     6148.00000
    70.4372     6150.00000
    70.4503     6235.00000
    70.4634     6220.00000
    70.4765     6203.00000
    70.4897     6228.00000
    70.5028     6163.00000
    70.5159     6564.00000
    70.5291     6268.00000
    70.5422     6521.00000
    70.5553     6515.00000
    70.5685     6671.00000
    70.5816     6563.00000
    70.5947     6454.00000
    70.6078     6433.00000
    70.6210     6500.00000
    70.6341     6564.00000
    70.6472     6654.00000
    70.6604     6505.00000
    70.6735     6464.00000
    70.6866     6589.00000
    70.6998     6746.00000
    70.7129     6807.00000
    70.7260     6684.00000
    70.7392     6792.00000
    70.7523     6673.00000
    70.7654     6742.00000
    70.7785     6750.00000
    70.7917     6627.00000
    70.8048     6612.00000
    70.8179     6630.00000
    70.8311     6457.00000
    70.8442     6388.00000
    70.8573     6323.00000
    70.8705     6423.00000
    70.8836     6302.00000
    70.8967     6334.00000
    70.9099     6407.00000
    70.9230     6334.00000
    70.9361     6567.00000
    70.9492     6374.00000
    70.9624     6394.00000
    70.9755     6451.00000
    70.9886     6382.00000
    71.0018     6240.00000
    71.0149     6263.00000
    71.0280     6041.00000
    71.0412     6053.00000
    71.0543     6089.00000
    71.0674     6214.00000
    71.0805     6003.00000
    71.0937     6231.00000
    71.1068     6126.00000
    71.1199     5969.00000
    71.1331     6080.00000
    71.1462     6098.00000
    71.1593     6108.00000
    71.1725     5927.00000
    71.1856     6070.00000
    71.1987     5955.00000
    71.2118     6027.00000
    71.2250     6020.00000
    71.2381     5924.00000
    71.2512     5973.00000
    71.2644     6153.00000
    71.2775     5947.00000
    71.2906     5937.00000
    71.3038     5848.00000
    71.3169     5991.00000
    71.3300     6046.00000
    71.3431     5983.00000
    71.3563     5891.00000
    71.3694     6030.00000
    71.3825     6204.00000
    71.3957     5905.00000
    71.4088     6128.00000
    71.4219     6157.00000
    71.4351     5957.00000
    71.4482     6093.00000
    71.4613     6154.00000
    71.4744     6086.00000
    71.4876     6178.00000
    71.5007     6160.00000
    71.5138     6060.00000
    71.5270     6125.00000
    71.5401     6090.00000
    71.5532     6165.00000
    71.5664     6239.00000
    71.5795     6203.00000
    71.5926     6199.00000
    71.6058     6187.00000
    71.6189     6335.00000
    71.6320     6300.00000
    71.6451     6420.00000
    71.6583     6240.00000
    71.6714     6425.00000
    71.6845     6387.00000
    71.6977     6475.00000
    71.7108     6532.00000
    71.7239     6364.00000
    71.7371     6474.00000
    71.7502     6347.00000
    71.7633     6349.00000
    71.7764     6355.00000
    71.7896     6444.00000
    71.8027     6492.00000
    71.8158     6410.00000
    71.8290     6435.00000
    71.8421     6687.00000
    71.8552     6978.00000
    71.8684     7152.00000
    71.8815     7287.00000
    71.8946     7592.00000
    71.9078     8018.00000
    71.9209     8244.00000
    71.9340     8290.00000
    71.9471     8471.00000
    71.9603     8210.00000
    71.9734     8084.00000
    71.9865     7965.00000
    71.9997     7975.00000
    72.0128     7568.00000
    72.0259     7366.00000
    72.0391     7193.00000
    72.0522     7107.00000
    72.0653     6961.00000
    72.0784     6964.00000
    72.0916     6907.00000
    72.1047     7101.00000
    72.1178     7064.00000
    72.1310     7134.00000
    72.1441     7090.00000
    72.1572     7176.00000
    72.1704     7008.00000
    72.1835     6939.00000
    72.1966     6865.00000
    72.2097     6929.00000
    72.2229     6801.00000
    72.2360     6550.00000
    72.2491     6417.00000
    72.2623     6376.00000
    72.2754     6433.00000
    72.2885     6140.00000
    72.3017     6107.00000
    72.3148     6114.00000
    72.3279     6165.00000
    72.3410     6157.00000
    72.3542     6246.00000
    72.3673     5942.00000
    72.3804     6067.00000
    72.3936     6035.00000
    72.4067     5836.00000
    72.4198     5996.00000
    72.4330     5970.00000
    72.4461     5927.00000
    72.4592     6099.00000
    72.4724     6065.00000
    72.4855     6100.00000
    72.4986     6132.00000
    72.5117     6267.00000
    72.5249     6248.00000
    72.5380     6329.00000
    72.5511     6326.00000
    72.5643     6432.00000
    72.5774     6562.00000
    72.5905     6724.00000
    72.6037     6775.00000
    72.6168     6744.00000
    72.6299     6478.00000
    72.6430     6448.00000
    72.6562     6188.00000
    72.6693     6192.00000
    72.6824     6181.00000
    72.6956     6203.00000
    72.7087     6264.00000
    72.7218     6131.00000
    72.7350     6150.00000
    72.7481     6128.00000
    72.7612     6111.00000
    72.7743     6287.00000
    72.7875     6349.00000
    72.8006     6454.00000
    72.8137     6312.00000
    72.8269     6318.00000
    72.8400     6296.00000
    72.8531     6177.00000
    72.8663     6072.00000
    72.8794     6176.00000
    72.8925     6069.00000
    72.9057     6132.00000
    72.9188     6048.00000
    72.9319     6206.00000
    72.9450     6200.00000
    72.9582     6261.00000
    72.9713     6266.00000
    72.9844     6321.00000
    72.9976     6347.00000
    73.0107     6333.00000
    73.0238     6126.00000
    73.0370     6033.00000
    73.0501     6122.00000
    73.0632     6099.00000
    73.0763     6067.00000
    73.0895     6136.00000
    73.1026     6095.00000
    73.1157     6115.00000
    73.1289     6100.00000
    73.1420     6184.00000
    73.1551     6181.00000
    73.1683     6382.00000
    73.1814     6295.00000
    73.1945     6398.00000
    73.2076     6483.00000
    73.2208     6658.00000
    73.2339     6684.00000
    73.2470     6900.00000
    73.2602     7009.00000
    73.2733     7225.00000
    73.2864     6957.00000
    73.2996     7105.00000
    73.3127     7029.00000
    73.3258     7061.00000
    73.3390     7053.00000
    73.3521     7040.00000
    73.3652     7206.00000
    73.3783     6963.00000
    73.3915     6833.00000
    73.4046     6813.00000
    73.4177     6560.00000
    73.4309     6445.00000
    73.4440     6486.00000
    73.4571     6593.00000
    73.4703     6401.00000
    73.4834     6548.00000
    73.4965     6481.00000
    73.5096     6589.00000
    73.5228     6562.00000
    73.5359     6565.00000
    73.5490     6494.00000
    73.5622     6563.00000
    73.5753     6815.00000
    73.5884     6614.00000
    73.6016     6378.00000
    73.6147     6401.00000
    73.6278     6182.00000
    73.6409     6353.00000
    73.6541     6366.00000
    73.6672     6343.00000
    73.6803     6101.00000
    73.6935     6098.00000
    73.7066     6083.00000
    73.7197     6009.00000
    73.7329     6013.00000
    73.7460     6192.00000
    73.7591     5986.00000
    73.7722     6107.00000
    73.7854     6329.00000
    73.7985     6179.00000
    73.8116     6093.00000
    73.8248     6005.00000
    73.8379     6225.00000
    73.8510     6142.00000
    73.8642     6349.00000
    73.8773     6296.00000
    73.8904     6256.00000
    73.9035     6342.00000
    73.9167     6226.00000
    73.9298     6330.00000
    73.9429     6124.00000
    73.9561     6282.00000
    73.9692     6233.00000
    73.9823     6212.00000
    73.9955     6296.00000
    74.0086     6311.00000
    74.0217     6147.00000
    74.0349     6264.00000
    74.0480     6581.00000
    74.0611     6629.00000
    74.0742     6644.00000
    74.0874     6611.00000
    74.1005     6656.00000
    74.1136     6884.00000
    74.1268     6985.00000
    74.1399     7013.00000
    74.1530     6918.00000
    74.1662     7004.00000
    74.1793     7075.00000
    74.1924     7084.00000
    74.2056     7035.00000
    74.2187     7042.00000
    74.2318     7264.00000
    74.2449     7290.00000
    74.2581     7044.00000
    74.2712     7247.00000
    74.2843     7313.00000
    74.2975     7325.00000
    74.3106     7243.00000
    74.3237     7176.00000
    74.3369     6941.00000
    74.3500     6939.00000
    74.3631     6973.00000
    74.3762     6826.00000
    74.3894     6939.00000
    74.4025     7151.00000
    74.4156     6940.00000
    74.4288     6769.00000
    74.4419     6868.00000
    74.4550     6792.00000
    74.4682     6838.00000
    74.4813     6538.00000
    74.4944     6648.00000
    74.5075     6612.00000
    74.5207     6575.00000
    74.5338     6490.00000
    74.5469     6310.00000
    74.5601     6430.00000
    74.5732     6282.00000
    74.5863     6446.00000
    74.5995     6405.00000
    74.6126     6488.00000
    74.6257     6412.00000
    74.6388     6249.00000
    74.6520     6283.00000
    74.6651     6196.00000
    74.6782     6063.00000
    74.6914     6132.00000
    74.7045     6073.00000
    74.7176     6114.00000
    74.7308     6100.00000
    74.7439     6178.00000
    74.7570     6007.00000
    74.7701     6080.00000
    74.7833     6083.00000
    74.7964     5906.00000
    74.8095     6142.00000
    74.8227     5991.00000
    74.8358     6038.00000
    74.8489     5968.00000
    74.8621     6101.00000
    74.8752     6063.00000
    74.8883     6140.00000
    74.9015     6040.00000
    74.9146     6060.00000
    74.9277     6078.00000
    74.9408     6110.00000
    74.9540     5977.00000
    74.9671     6062.00000
    74.9802     6038.00000
    74.9934     5991.00000
    75.0065     5801.00000
    75.0196     6025.00000
    75.0328     5918.00000
    75.0459     6021.00000
    75.0590     5942.00000
    75.0722     5949.00000
    75.0853     5863.00000
    75.0984     5929.00000
    75.1115     5882.00000
    75.1247     6075.00000
    75.1378     5924.00000
    75.1509     5852.00000
    75.1641     5775.00000
    75.1772     5944.00000
    75.1903     5895.00000
    75.2035     5888.00000
    75.2166     5846.00000
    75.2297     5907.00000
    75.2428     5920.00000
    75.2560     5956.00000
    75.2691     5851.00000
    75.2822     5926.00000
    75.2954     5942.00000
    75.3085     5776.00000
    75.3216     5835.00000
    75.3348     5921.00000
    75.3479     5881.00000
    75.3610     5935.00000
    75.3741     6077.00000
    75.3873     6072.00000
    75.4004     6002.00000
    75.4135     5902.00000
    75.4267     5894.00000
    75.4398     5935.00000
    75.4529     5993.00000
    75.4661     5758.00000
    75.4792     5764.00000
    75.4923     5833.00000
    75.5054     5898.00000
    75.5186     5992.00000
    75.5317     5765.00000
    75.5448     5889.00000
    75.5580     6058.00000
    75.5711     6027.00000
    75.5842     5979.00000
    75.5974     5782.00000
    75.6105     5677.00000
    75.6236     6039.00000
    75.6367     5892.00000
    75.6499     5987.00000
    75.6630     5734.00000
    75.6761     5916.00000
    75.6893     5873.00000
    75.7024     6102.00000
    75.7155     6042.00000
    75.7287     6155.00000
    75.7418     6253.00000
    75.7549     6356.00000
    75.7681     6511.00000
    75.7812     6339.00000
    75.7943     6376.00000
    75.8074     6269.00000
    75.8206     6069.00000
    75.8337     6210.00000
    75.8468     6063.00000
    75.8600     6159.00000
    75.8731     6069.00000
    75.8862     6077.00000
    75.8994     5938.00000
    75.9125     6083.00000
    75.9256     6187.00000
    75.9387     6232.00000
    75.9519     6058.00000
    75.9650     5983.00000
    75.9781     6096.00000
    75.9913     6185.00000
    76.0044     6123.00000
    76.0175     6225.00000
    76.0307     6125.00000
    76.0438     5936.00000
    76.0569     6037.00000
    76.0701     5954.00000
    76.0832     6055.00000
    76.0963     6041.00000
    76.1094     5954.00000
    76.1226     5917.00000
    76.1357     6121.00000
    76.1488     5884.00000
    76.1620     5841.00000
    76.1751     5936.00000
    76.1882     6008.00000
    76.2014     6039.00000
    76.2145     5882.00000
    76.2276     5955.00000
    76.2407     6138.00000
    76.2539     5955.00000
    76.2670     6038.00000
    76.2801     5965.00000
    76.2933     6121.00000
    76.3064     5933.00000
    76.3195     6091.00000
    76.3327     6087.00000
    76.3458     6243.00000
    76.3589     6245.00000
    76.3720     6094.00000
    76.3852     6202.00000
    76.3983     6301.00000
    76.4114     6210.00000
    76.4246     6354.00000
    76.4377     6347.00000
    76.4508     6302.00000
    76.4640     6305.00000
    76.4771     6195.00000
    76.4902     6207.00000
    76.5033     6185.00000
    76.5165     6130.00000
    76.5296     6116.00000
    76.5427     6114.00000
    76.5559     6104.00000
    76.5690     6265.00000
    76.5821     6452.00000
    76.5953     6368.00000
    76.6084     6425.00000
    76.6215     6347.00000
    76.6347     6405.00000
    76.6478     6479.00000
    76.6609     6505.00000
    76.6740     6678.00000
    76.6872     6802.00000
    76.7003     6800.00000
    76.7134     6772.00000
    76.7266     6910.00000
    76.7397     7127.00000
    76.7528     7186.00000
    76.7660     7335.00000
    76.7791     7105.00000
    76.7922     7303.00000
    76.8053     7024.00000
    76.8185     6953.00000
    76.8316     6938.00000
    76.8447     7040.00000
    76.8579     7028.00000
    76.8710     7098.00000
    76.8841     7402.00000
    76.8973     7451.00000
    76.9104     7667.00000
    76.9235     7458.00000
    76.9366     7296.00000
    76.9498     7398.00000
    76.9629     7045.00000
    76.9760     6900.00000
    76.9892     6865.00000
    77.0023     6749.00000
    77.0154     6632.00000
    77.0286     6545.00000
    77.0417     6488.00000
    77.0548     6298.00000
    77.0679     6194.00000
    77.0811     6470.00000
    77.0942     6441.00000
    77.1073     6498.00000
    77.1205     6650.00000
    77.1336     6661.00000
    77.1467     6707.00000
    77.1599     6503.00000
    77.1730     6555.00000
    77.1861     6394.00000
    77.1993     6268.00000
    77.2124     6112.00000
    77.2255     6294.00000
    77.2386     6147.00000
    77.2518     6307.00000
    77.2649     6363.00000
    77.2780     6278.00000
    77.2912     6378.00000
    77.3043     6141.00000
    77.3174     6086.00000
    77.3306     6095.00000
    77.3437     6184.00000
    77.3568     5885.00000
    77.3699     5943.00000
    77.3831     5980.00000
    77.3962     6258.00000
    77.4093     6075.00000
    77.4225     6245.00000
    77.4356     6109.00000
    77.4487     6136.00000
    77.4619     6345.00000
    77.4750     6477.00000
    77.4881     6777.00000
    77.5013     7062.00000
    77.5144     7136.00000
    77.5275     7176.00000
    77.5406     7315.00000
    77.5538     7126.00000
    77.5669     6841.00000
    77.5800     6771.00000
    77.5932     6495.00000
    77.6063     6428.00000
    77.6194     6302.00000
    77.6326     6137.00000
    77.6457     6085.00000
    77.6588     5956.00000
    77.6719     6234.00000
    77.6851     6099.00000
    77.6982     6218.00000
    77.7113     6407.00000
    77.7245     6301.00000
    77.7376     6512.00000
    77.7507     6482.00000
    77.7639     6476.00000
    77.7770     6420.00000
    77.7901     6279.00000
    77.8032     6143.00000
    77.8164     6259.00000
    77.8295     6189.00000
    77.8426     6005.00000
    77.8558     6023.00000
    77.8689     5901.00000
    77.8820     6023.00000
    77.8952     6043.00000
    77.9083     5929.00000
    77.9214     5928.00000
    77.9345     5838.00000
    77.9477     5979.00000
    77.9608     5892.00000
    77.9739     5831.00000
    77.9871     5955.00000
    78.0002     5877.00000
    78.0133     5868.00000
    78.0265     5852.00000
    78.0396     6039.00000
    78.0527     5917.00000
    78.0658     5917.00000
    78.0790     5775.00000
    78.0921     5881.00000
    78.1052     5881.00000
    78.1184     5888.00000
    78.1315     5900.00000
    78.1446     5821.00000
    78.1578     5759.00000
    78.1709     5758.00000
    78.1840     5800.00000
    78.1972     5788.00000
    78.2103     6119.00000
    78.2234     5892.00000
    78.2365     5798.00000
    78.2497     5847.00000
    78.2628     5821.00000
    78.2759     5962.00000
    78.2891     5863.00000
    78.3022     5839.00000
    78.3153     5676.00000
    78.3285     6003.00000
    78.3416     5891.00000
    78.3547     5805.00000
    78.3679     5873.00000
    78.3810     5858.00000
    78.3941     5945.00000
    78.4072     5849.00000
    78.4204     5939.00000
    78.4335     5945.00000
    78.4466     5933.00000
    78.4598     5920.00000
    78.4729     5847.00000
    78.4860     5981.00000
    78.4992     6016.00000
    78.5123     6090.00000
    78.5254     6029.00000
    78.5385     5992.00000
    78.5517     5995.00000
    78.5648     5960.00000
    78.5779     6011.00000
    78.5911     6053.00000
    78.6042     5975.00000
    78.6173     6074.00000
    78.6305     6020.00000
    78.6436     5994.00000
    78.6567     6052.00000
    78.6698     6127.00000
    78.6830     6019.00000
    78.6961     6064.00000
    78.7092     6045.00000
    78.7224     5948.00000
    78.7355     5965.00000
    78.7486     6027.00000
    78.7618     6103.00000
    78.7749     6121.00000
    78.7880     6148.00000
    78.8011     6222.00000
    78.8143     6159.00000
    78.8274     6189.00000
    78.8405     6161.00000
    78.8537     6357.00000
    78.8668     6308.00000
    78.8799     6355.00000
    78.8931     6375.00000
    78.9062     6522.00000
    78.9193     6640.00000
    78.9324     6743.00000
    78.9456     6620.00000
    78.9587     6792.00000
    78.9718     6943.00000
    78.9850     7047.00000
    78.9981     6984.00000
    79.0112     7037.00000
    79.0244     7013.00000
    79.0375     6891.00000
    79.0506     6917.00000
    79.0638     6718.00000
    79.0769     6720.00000
    79.0900     6705.00000
    79.1031     6605.00000
    79.1163     6443.00000
    79.1294     6401.00000
    79.1425     6420.00000
    79.1557     6569.00000
    79.1688     6454.00000
    79.1819     6485.00000
    79.1951     6588.00000
    79.2082     6727.00000
    79.2213     6793.00000
    79.2345     6722.00000
    79.2476     6545.00000
    79.2607     6561.00000
    79.2738     6728.00000
    79.2870     6604.00000
    79.3001     6508.00000
    79.3132     6548.00000
    79.3264     6399.00000
    79.3395     6468.00000
    79.3526     6317.00000
    79.3658     6290.00000
    79.3789     6284.00000
    79.3920     6041.00000
    79.4051     6027.00000
    79.4183     6021.00000
    79.4314     6218.00000
    79.4445     6164.00000
    79.4577     6242.00000
    79.4708     6103.00000
    79.4839     6044.00000
    79.4971     6232.00000
    79.5102     6109.00000
    79.5233     6171.00000
    79.5364     6137.00000
    79.5496     6198.00000
    79.5627     6246.00000
    79.5758     6165.00000
    79.5890     6276.00000
    79.6021     6471.00000
    79.6152     6587.00000
    79.6284     6629.00000
    79.6415     6693.00000
    79.6546     6687.00000
    79.6677     6834.00000
    79.6809     6999.00000
    79.6940     6765.00000
    79.7071     6785.00000
    79.7203     6795.00000
    79.7334     6842.00000
    79.7465     6727.00000
    79.7597     6582.00000
    79.7728     6392.00000
    79.7859     6412.00000
    79.7990     6544.00000
    79.8122     6513.00000
    79.8253     6663.00000
    79.8384     6653.00000
    79.8516     6745.00000
    79.8647     7072.00000
    79.8778     6884.00000
    79.8910     6981.00000
    79.9041     6758.00000
    79.9172     6687.00000
    79.9304     6616.00000
    79.9435     6683.00000
    79.9566     6627.00000
    79.9697     6618.00000
    79.9829     6500.00000
    79.9960     6484.00000
    80.0091     6326.00000
    80.0223     6292.00000
    80.0354     6190.00000
    80.0485     6166.00000
    80.0617     6031.00000
    80.0748     6247.00000
    80.0879     6226.00000
    80.1010     6216.00000
    80.1142     6332.00000
    80.1273     6268.00000
    80.1404     6399.00000
    80.1536     6103.00000
    80.1667     6064.00000
    80.1798     5931.00000
    80.1930     5968.00000
    80.2061     6043.00000
    80.2192     5961.00000
    80.2323     5880.00000
    80.2455     5910.00000
    80.2586     6006.00000
    80.2717     6122.00000
    80.2849     6017.00000
    80.2980     5866.00000
    80.3111     6048.00000
    80.3243     6036.00000
    80.3374     5911.00000
    80.3505     6057.00000
    80.3637     5980.00000
    80.3768     6015.00000
    80.3899     5962.00000
    80.4030     5961.00000
    80.4162     5896.00000
    80.4293     5927.00000
    80.4424     5947.00000
    80.4556     6000.00000
    80.4687     6089.00000
    80.4818     6025.00000
    80.4950     6217.00000
    80.5081     6253.00000
    80.5212     6084.00000
    80.5343     6311.00000
    80.5475     6516.00000
    80.5606     6370.00000
    80.5737     6628.00000
    80.5869     6626.00000
    80.6000     6708.00000
    80.6131     6831.00000
    80.6263     6913.00000
    80.6394     6879.00000
    80.6525     6813.00000
    80.6656     6840.00000
    80.6788     6706.00000
    80.6919     6779.00000
    80.7050     6527.00000
    80.7182     6569.00000
    80.7313     6761.00000
    80.7444     6770.00000
    80.7576     6871.00000
    80.7707     6598.00000
    80.7838     6756.00000
    80.7970     6852.00000
    80.8101     6730.00000
    80.8232     6791.00000
    80.8363     6735.00000
    80.8495     6855.00000
    80.8626     6867.00000
    80.8757     6691.00000
    80.8889     6629.00000
    80.9020     6548.00000
    80.9151     6397.00000
    80.9283     6524.00000
    80.9414     6445.00000
    80.9545     6377.00000
    80.9676     6521.00000
    80.9808     6152.00000
    80.9939     6303.00000
    81.0070     6332.00000
    81.0202     6180.00000
    81.0333     6173.00000
    81.0464     6287.00000
    81.0596     6206.00000
    81.0727     6330.00000
    81.0858     6427.00000
    81.0989     6243.00000
    81.1121     6350.00000
    81.1252     6425.00000
    81.1383     6363.00000
    81.1515     6453.00000
    81.1646     6465.00000
    81.1777     6518.00000
    81.1909     6218.00000
    81.2040     6290.00000
    81.2171     6327.00000
    81.2302     6307.00000
    81.2434     6240.00000
    81.2565     6228.00000
    81.2696     6365.00000
    81.2828     6167.00000
    81.2959     6295.00000
    81.3090     6427.00000
    81.3222     6513.00000
    81.3353     6556.00000
    81.3484     6467.00000
    81.3616     6632.00000
    81.3747     6702.00000
    81.3878     6826.00000
    81.4009     6799.00000
    81.4141     6663.00000
    81.4272     6812.00000
    81.4403     6877.00000
    81.4535     6921.00000
    81.4666     6734.00000
    81.4797     6847.00000
    81.4929     6656.00000
    81.5060     6501.00000
    81.5191     6455.00000
    81.5322     6245.00000
    81.5454     6593.00000
    81.5585     6385.00000
    81.5716     6415.00000
    81.5848     6330.00000
    81.5979     6234.00000
    81.6110     6397.00000
    81.6242     6212.00000
    81.6373     6177.00000
    81.6504     6191.00000
    81.6636     6351.00000
    81.6767     6126.00000
    81.6898     6282.00000
    81.7029     6232.00000
    81.7161     6206.00000
    81.7292     6085.00000
    81.7423     6053.00000
    81.7555     6073.00000
    81.7686     6126.00000
    81.7817     6081.00000
    81.7949     5950.00000
    81.8080     5934.00000
    81.8211     6017.00000
    81.8342     6057.00000
    81.8474     6195.00000
    81.8605     5838.00000
    81.8736     6073.00000
    81.8868     6045.00000
    81.8999     5932.00000
    81.9130     5936.00000
    81.9262     5946.00000
    81.9393     6018.00000
    81.9524     6204.00000
    81.9655     6045.00000
    81.9787     6114.00000
    81.9918     5951.00000
    82.0049     6006.00000
    82.0181     6174.00000
    82.0312     5934.00000
    82.0443     5892.00000
    82.0575     6013.00000
    82.0706     6186.00000
    82.0837     5929.00000
    82.0968     5918.00000
    82.1100     6076.00000
    82.1231     6016.00000
    82.1362     5974.00000
    82.1494     6014.00000
    82.1625     6016.00000
    82.1756     6172.00000
    82.1888     6182.00000
    82.2019     6143.00000
    82.2150     6320.00000
    82.2281     6216.00000
    82.2413     6251.00000
    82.2544     6315.00000
    82.2675     6207.00000
    82.2807     6205.00000
    82.2938     6298.00000
    82.3069     6193.00000
    82.3201     6107.00000
    82.3332     6183.00000
    82.3463     6179.00000
    82.3595     6092.00000
    82.3726     6135.00000
    82.3857     6181.00000
    82.3988     6233.00000
    82.4120     6191.00000
    82.4251     6269.00000
    82.4382     6310.00000
    82.4514     6287.00000
    82.4645     6260.00000
    82.4776     6465.00000
    82.4908     6397.00000
    82.5039     6456.00000
    82.5170     6304.00000
    82.5302     6221.00000
    82.5433     6238.00000
    82.5564     6253.00000
    82.5695     6348.00000
    82.5827     6300.00000
    82.5958     6396.00000
    82.6089     6405.00000
    82.6221     6223.00000
    82.6352     6109.00000
    82.6483     6213.00000
    82.6615     6134.00000
    82.6746     6183.00000
    82.6877     6116.00000
    82.7008     6038.00000
    82.7140     5963.00000
    82.7271     5935.00000
    82.7402     6003.00000
    82.7534     6180.00000
    82.7665     6101.00000
    82.7796     6242.00000
    82.7928     5866.00000
    82.8059     6075.00000
    82.8190     6030.00000
    82.8321     6221.00000
    82.8453     6112.00000
    82.8584     6188.00000
    82.8715     6237.00000
    82.8847     6217.00000
    82.8978     6201.00000
    82.9109     6241.00000
    82.9241     6323.00000
    82.9372     6312.00000
    82.9503     6395.00000
    82.9634     6433.00000
    82.9766     6497.00000
    82.9897     6516.00000
    83.0028     6592.00000
    83.0160     6705.00000
    83.0291     6469.00000
    83.0422     6387.00000
    83.0554     6252.00000
    83.0685     6174.00000
    83.0816     6148.00000
    83.0947     6114.00000
    83.1079     6050.00000
    83.1210     5952.00000
    83.1341     6009.00000
    83.1473     6039.00000
    83.1604     5855.00000
    83.1735     5999.00000
    83.1867     5985.00000
    83.1998     6168.00000
    83.2129     6259.00000
    83.2261     6231.00000
    83.2392     6131.00000
    83.2523     6197.00000
    83.2654     6375.00000
    83.2786     6136.00000
    83.2917     6047.00000
    83.3048     6047.00000
    83.3180     6053.00000
    83.3311     6008.00000
    83.3442     5990.00000
    83.3574     6117.00000
    83.3705     5903.00000
    83.3836     5851.00000
    83.3967     5864.00000
    83.4099     6100.00000
    83.4230     5923.00000
    83.4361     5862.00000
    83.4493     5888.00000
    83.4624     5905.00000
    83.4755     5813.00000
    83.4887     5926.00000
    83.5018     5875.00000
    83.5149     5887.00000
    83.5281     5935.00000
    83.5412     5921.00000
    83.5543     5777.00000
    83.5674     5887.00000
    83.5806     5767.00000
    83.5937     5814.00000
    83.6068     5756.00000
    83.6200     5844.00000
    83.6331     5735.00000
    83.6462     5786.00000
    83.6594     5865.00000
    83.6725     5722.00000
    83.6856     5772.00000
    83.6987     5842.00000
    83.7119     5896.00000
    83.7250     5906.00000
    83.7381     5842.00000
    83.7513     5815.00000
    83.7644     5854.00000
    83.7775     5685.00000
    83.7907     5778.00000
    83.8038     5972.00000
    83.8169     5840.00000
    83.8300     5811.00000
    83.8432     5789.00000
    83.8563     5965.00000
    83.8694     5888.00000
    83.8826     5826.00000
    83.8957     5823.00000
    83.9088     5778.00000
    83.9220     5855.00000
    83.9351     5711.00000
    83.9482     5742.00000
    83.9613     5882.00000
    83.9745     5831.00000
    83.9876     5851.00000
    84.0007     5909.00000
    84.0139     6021.00000
    84.0270     5841.00000
    84.0401     5803.00000
    84.0533     5801.00000
    84.0664     5837.00000
    84.0795     5782.00000
    84.0927     5719.00000
    84.1058     5925.00000
    84.1189     5906.00000
    84.1320     5717.00000
    84.1452     5964.00000
    84.1583     5921.00000
    84.1714     5932.00000
    84.1846     5861.00000
    84.1977     5848.00000
    84.2108     5790.00000
    84.2240     6055.00000
    84.2371     5987.00000
    84.2502     5989.00000
    84.2633     6123.00000
    84.2765     6046.00000
    84.2896     5962.00000
    84.3027     6072.00000
    84.3159     5819.00000
    84.3290     5964.00000
    84.3421     5903.00000
    84.3553     6029.00000
    84.3684     6063.00000
    84.3815     5983.00000
    84.3946     5943.00000
    84.4078     5853.00000
    84.4209     6048.00000
    84.4340     6153.00000
    84.4472     6150.00000
    84.4603     6108.00000
    84.4734     6166.00000
    84.4866     6143.00000
    84.4997     6162.00000
    84.5128     6200.00000
    84.5260     6163.00000
    84.5391     6329.00000
    84.5522     6309.00000
    84.5653     6033.00000
    84.5785     6195.00000
    84.5916     6321.00000
    84.6047     6361.00000
    84.6179     6439.00000
    84.6310     6354.00000
    84.6441     6320.00000
    84.6573     6229.00000
    84.6704     6302.00000
    84.6835     6242.00000
    84.6966     6367.00000
    84.7098     6357.00000
    84.7229     6203.00000
    84.7360     6209.00000
    84.7492     6249.00000
    84.7623     6167.00000
    84.7754     6005.00000
    84.7886     5918.00000
    84.8017     6076.00000
    84.8148     6158.00000
    84.8279     5999.00000
    84.8411     5829.00000
    84.8542     6064.00000
    84.8673     6046.00000
    84.8805     5884.00000
    84.8936     6086.00000
    84.9067     5904.00000
    84.9199     6137.00000
    84.9330     6009.00000
    84.9461     5949.00000
    84.9593     6070.00000
    84.9724     6063.00000
    84.9855     5917.00000
    84.9986     6002.00000
    85.0118     5965.00000
    85.0249     5933.00000
    85.0380     5960.00000
    85.0512     5838.00000
    85.0643     5813.00000
    85.0774     5821.00000
    85.0906     5750.00000
    85.1037     5821.00000
    85.1168     5831.00000
    85.1299     5843.00000
    85.1431     5821.00000
    85.1562     5890.00000
    85.1693     5597.00000
    85.1825     5731.00000
    85.1956     5874.00000
    85.2087     5743.00000
    85.2219     5717.00000
    85.2350     5828.00000
    85.2481     5891.00000
    85.2612     5943.00000
    85.2744     5863.00000
    85.2875     5764.00000
    85.3006     5825.00000
    85.3138     5908.00000
    85.3269     5837.00000
    85.3400     5897.00000
    85.3532     6009.00000
    85.3663     5883.00000
    85.3794     6021.00000
    85.3925     5943.00000
    85.4057     5997.00000
    85.4188     5871.00000
    85.4319     5775.00000
    85.4451     5799.00000
    85.4582     5966.00000
    85.4713     5776.00000
    85.4845     5796.00000
    85.4976     5640.00000
    85.5107     5821.00000
    85.5238     5914.00000
    85.5370     5744.00000
    85.5501     5699.00000
    85.5632     5855.00000
    85.5764     5897.00000
    85.5895     5804.00000
    85.6026     5900.00000
    85.6158     5950.00000
    85.6289     5729.00000
    85.6420     5773.00000
    85.6552     6012.00000
    85.6683     5976.00000
    85.6814     6037.00000
    85.6945     5994.00000
    85.7077     6070.00000
    85.7208     6096.00000
    85.7339     6271.00000
    85.7471     6128.00000
    85.7602     6034.00000
    85.7733     6144.00000
    85.7865     6179.00000
    85.7996     6005.00000
    85.8127     5839.00000
    85.8259     5837.00000
    85.8390     5950.00000
    85.8521     5893.00000
    85.8652     5888.00000
    85.8784     5872.00000
    85.8915     5859.00000
    85.9046     5656.00000
    85.9178     5884.00000
    85.9309     5876.00000
    85.9440     5883.00000
    85.9572     6001.00000
    85.9703     6040.00000
    85.9834     5871.00000
    85.9965     6043.00000
    86.0097     6145.00000
    86.0228     5907.00000
    86.0359     5808.00000
    86.0491     5747.00000
    86.0622     6003.00000
    86.0753     6016.00000
    86.0885     5788.00000
    86.1016     5695.00000
    86.1147     5930.00000
    86.1278     5886.00000
    86.1410     5789.00000
    86.1541     5837.00000
    86.1672     5965.00000
    86.1804     5981.00000
    86.1935     5800.00000
    86.2066     5836.00000
    86.2198     5920.00000
    86.2329     5951.00000
    86.2460     5862.00000
    86.2591     5847.00000
    86.2723     5872.00000
    86.2854     5842.00000
    86.2985     6020.00000
    86.3117     6098.00000
    86.3248     6060.00000
    86.3379     6065.00000
    86.3511     5801.00000
    86.3642     6073.00000
    86.3773     6029.00000
    86.3904     6007.00000
    86.4036     5942.00000
    86.4167     6024.00000
    86.4298     5804.00000
    86.4430     6062.00000
    86.4561     6108.00000
    86.4692     6171.00000
    86.4824     5849.00000
    86.4955     5904.00000
    86.5086     6138.00000
    86.5218     6196.00000
    86.5349     6112.00000
    86.5480     6093.00000
    86.5611     6153.00000
    86.5743     6119.00000
    86.5874     6085.00000
    86.6005     6182.00000
    86.6137     6134.00000
    86.6268     6246.00000
    86.6399     6123.00000
    86.6531     6337.00000
    86.6662     6057.00000
    86.6793     6293.00000
    86.6925     6174.00000
    86.7056     6236.00000
    86.7187     6317.00000
    86.7318     6209.00000
    86.7450     6488.00000
    86.7581     6597.00000
    86.7712     6726.00000
    86.7844     6895.00000
    86.7975     6990.00000
    86.8106     7116.00000
    86.8238     7128.00000
    86.8369     7162.00000
    86.8500     7188.00000
    86.8631     6899.00000
    86.8763     6788.00000
    86.8894     6692.00000
    86.9025     6557.00000
    86.9157     6408.00000
    86.9288     6416.00000
    86.9419     6362.00000
    86.9551     6532.00000
    86.9682     6317.00000
    86.9813     6348.00000
    86.9944     6394.00000
    87.0076     6319.00000
    87.0207     6607.00000
    87.0338     6861.00000
    87.0470     6779.00000
    87.0601     6901.00000
    87.0732     6904.00000
    87.0864     7131.00000
    87.0995     6960.00000
    87.1126     6711.00000
    87.1257     6705.00000
    87.1389     6591.00000
    87.1520     6598.00000
    87.1651     6448.00000
    87.1783     6476.00000
    87.1914     6526.00000
    87.2045     6303.00000
    87.2177     6120.00000
    87.2308     6168.00000
    87.2439     6161.00000
    87.2570     6284.00000
    87.2702     6149.00000
    87.2833     6303.00000
    87.2964     6271.00000
    87.3096     6070.00000
    87.3227     6102.00000
    87.3358     6203.00000
    87.3490     6224.00000
    87.3621     6128.00000
    87.3752     5965.00000
    87.3884     5982.00000
    87.4015     6237.00000
    87.4146     5944.00000
    87.4277     6089.00000
    87.4409     6106.00000
    87.4540     5973.00000
    87.4671     5870.00000
    87.4803     5892.00000
    87.4934     5973.00000
    87.5065     5938.00000
    87.5197     5966.00000
    87.5328     6030.00000
    87.5459     5764.00000
    87.5590     5910.00000
    87.5722     5969.00000
    87.5853     5969.00000
    87.5984     5821.00000
    87.6116     6016.00000
    87.6247     5809.00000
    87.6378     5822.00000
    87.6510     5769.00000
    87.6641     5823.00000
    87.6772     5809.00000
    87.6904     5879.00000
    87.7035     5988.00000
    87.7166     6074.00000
    87.7297     6123.00000
    87.7429     5974.00000
    87.7560     6148.00000
    87.7691     6120.00000
    87.7823     6177.00000
    87.7954     5930.00000
    87.8085     5957.00000
    87.8217     5955.00000
    87.8348     6100.00000
    87.8479     6076.00000
    87.8610     5862.00000
    87.8742     6035.00000
    87.8873     6194.00000
    87.9004     6134.00000
    87.9136     6137.00000
    87.9267     6247.00000
    87.9398     6086.00000
    87.9530     6388.00000
    87.9661     6351.00000
    87.9792     6374.00000
    87.9923     6395.00000
    88.0055     6257.00000
    88.0186     6467.00000
    88.0317     6457.00000
    88.0449     6466.00000
    88.0580     6639.00000
    88.0711     6510.00000
    88.0843     6444.00000
    88.0974     6404.00000
    88.1105     6661.00000
    88.1236     6291.00000
    88.1368     6142.00000
    88.1499     6109.00000
    88.1630     5982.00000
    88.1762     6138.00000
    88.1893     6053.00000
    88.2024     6056.00000
    88.2156     6101.00000
    88.2287     6151.00000
    88.2418     6208.00000
    88.2550     6032.00000
    88.2681     6183.00000
    88.2812     6034.00000
    88.2943     6073.00000
    88.3075     6109.00000
    88.3206     6182.00000
    88.3337     6113.00000
    88.3469     6047.00000
    88.3600     6150.00000
    88.3731     6135.00000
    88.3863     6123.00000
    88.3994     6012.00000
    88.4125     6105.00000
    88.4256     6001.00000
    88.4388     5887.00000
    88.4519     5880.00000
    88.4650     5931.00000
    88.4782     5898.00000
    88.4913     6059.00000
    88.5044     5990.00000
    88.5176     5863.00000
    88.5307     5952.00000
    88.5438     5912.00000
    88.5569     5979.00000
    88.5701     6010.00000
    88.5832     6102.00000
    88.5963     6157.00000
    88.6095     6320.00000
    88.6226     6302.00000
    88.6357     6452.00000
    88.6489     6345.00000
    88.6620     6389.00000
    88.6751     6188.00000
    88.6882     6306.00000
    88.7014     6256.00000
    88.7145     6245.00000
    88.7276     6266.00000
    88.7408     6325.00000
    88.7539     6238.00000
    88.7670     6167.00000
    88.7802     6155.00000
    88.7933     6262.00000
    88.8064     6273.00000
    88.8196     6234.00000
    88.8327     6275.00000
    88.8458     6384.00000
    88.8589     6196.00000
    88.8721     6145.00000
    88.8852     6440.00000
    88.8983     6408.00000
    88.9115     6549.00000
    88.9246     6315.00000
    88.9377     6349.00000
    88.9509     6289.00000
    88.9640     6381.00000
    88.9771     6149.00000
    88.9902     6174.00000
    89.0034     6176.00000
    89.0165     6236.00000
    89.0296     6056.00000
    89.0428     6061.00000
    89.0559     6178.00000
    89.0690     6223.00000
    89.0822     6209.00000
    89.0953     6264.00000
    89.1084     6382.00000
    89.1216     6538.00000
    89.1347     6319.00000
    89.1478     6302.00000
    89.1609     6261.00000
    89.1741     6113.00000
    89.1872     6202.00000
    89.2003     6474.00000
    89.2135     6137.00000
    89.2266     6217.00000
    89.2397     6041.00000
    89.2529     6210.00000
    89.2660     6237.00000
    89.2791     6075.00000
    89.2922     6364.00000
    89.3054     6148.00000
    89.3185     6293.00000
    89.3316     6289.00000
    89.3448     6348.00000
    89.3579     6560.00000
    89.3710     6633.00000
    89.3842     6766.00000
    89.3973     6630.00000
    89.4104     6641.00000
    89.4235     6672.00000
    89.4367     6834.00000
    89.4498     6908.00000
    89.4629     6882.00000
    89.4761     6800.00000
    89.4892     6707.00000
    89.5023     6584.00000
    89.5155     6472.00000
    89.5286     6363.00000
    89.5417     6269.00000
    89.5548     6251.00000
    89.5680     6348.00000
    89.5811     6295.00000
    89.5942     6172.00000
    89.6074     6196.00000
    89.6205     6024.00000
    89.6336     6213.00000
    89.6468     6254.00000
    89.6599     6145.00000
    89.6730     6281.00000
    89.6861     6354.00000
    89.6993     6428.00000
    89.7124     6634.00000
    89.7255     6495.00000
    89.7387     6496.00000
    89.7518     6617.00000
    89.7649     6969.00000
    89.7781     7009.00000
    89.7912     6978.00000
    89.8043     6735.00000
    89.8175     6514.00000
    89.8306     6433.00000
    89.8437     6292.00000
    89.8568     6319.00000
    89.8700     6199.00000
    89.8831     6055.00000
    89.8962     6031.00000
    89.9094     6044.00000
    89.9225     5816.00000
    89.9356     5951.00000
    89.9488     5887.00000
    89.9619     5882.00000
    89.9750     5985.00000
    89.9882     5941.00000
    90.0013     6093.00000
    90.0144     5985.00000
    90.0275     6096.00000
    90.0407     6069.00000
    90.0538     6182.00000
    90.0669     6260.00000
    90.0801     6196.00000
    90.0932     6170.00000
    90.1063     6225.00000
    90.1195     6208.00000
    90.1326     5979.00000
    90.1457     5796.00000
    90.1588     5851.00000
    90.1720     5793.00000
    90.1851     5844.00000
    90.1982     5875.00000
    90.2114     5803.00000
    90.2245     5844.00000
    90.2376     5849.00000
    90.2508     5680.00000
    90.2639     5863.00000
    90.2770     5823.00000
    90.2901     5822.00000
    90.3033     5698.00000
    90.3164     5722.00000
    90.3295     5832.00000
    90.3427     5820.00000
    90.3558     5758.00000
    90.3689     5717.00000
    90.3821     5844.00000
    90.3952     5798.00000
    90.4083     5714.00000
    90.4214     5740.00000
    90.4346     5751.00000
    90.4477     5838.00000
    90.4608     5969.00000
    90.4740     5785.00000
    90.4871     5808.00000
    90.5002     5840.00000
    90.5134     5767.00000
    90.5265     5878.00000
    90.5396     5961.00000
    90.5527     5824.00000
    90.5659     5839.00000
    90.5790     5869.00000
    90.5921     5987.00000
    90.6053     5802.00000
    90.6184     5847.00000
    90.6315     5866.00000
    90.6447     5691.00000
    90.6578     5741.00000
    90.6709     5798.00000
    90.6841     6037.00000
    90.6972     5781.00000
    90.7103     5763.00000
    90.7234     5895.00000
    90.7366     5746.00000
    90.7497     5757.00000
    90.7628     5787.00000
    90.7760     5669.00000
    90.7891     5782.00000
    90.8022     5770.00000
    90.8154     5725.00000
    90.8285     5762.00000
    90.8416     5701.00000
    90.8548     5756.00000
    90.8679     5881.00000
    90.8810     5922.00000
    90.8941     5868.00000
    90.9073     5839.00000
    90.9204     5894.00000
    90.9335     6019.00000
    90.9467     5884.00000
    90.9598     5854.00000
    90.9729     5900.00000
    90.9861     5848.00000
    90.9992     5993.00000
    91.0123     5746.00000
    91.0254     5921.00000
    91.0386     5850.00000
    91.0517     5672.00000
    91.0648     5764.00000
    91.0780     5810.00000
    91.0911     5943.00000
    91.1042     5961.00000
    91.1174     5981.00000
    91.1305     6071.00000
    91.1436     5962.00000
    91.1567     5899.00000
    91.1699     6087.00000
    91.1830     6042.00000
    91.1961     6046.00000
    91.2093     6046.00000
    91.2224     5881.00000
    91.2355     6003.00000
    91.2487     6125.00000
    91.2618     6161.00000
    91.2749     5904.00000
    91.2880     5998.00000
    91.3012     6100.00000
    91.3143     6159.00000
    91.3274     5900.00000
    91.3406     5920.00000
    91.3537     6026.00000
    91.3668     5889.00000
    91.3800     5945.00000
    91.3931     6002.00000
    91.4062     5934.00000
    91.4193     5924.00000
    91.4325     6090.00000
    91.4456     6072.00000
    91.4587     5955.00000
    91.4719     5945.00000
    91.4850     6147.00000
    91.4981     6114.00000
    91.5113     6016.00000
    91.5244     6232.00000
    91.5375     6105.00000
    91.5507     6186.00000
    91.5638     6060.00000
    91.5769     6281.00000
    91.5900     6323.00000
    91.6032     6339.00000
    91.6163     6189.00000
    91.6294     6306.00000
    91.6426     6324.00000
    91.6557     6470.00000
    91.6688     6131.00000
    91.6820     5965.00000
    91.6951     6303.00000
    91.7082     6148.00000
    91.7213     6012.00000
    91.7345     6186.00000
    91.7476     6082.00000
    91.7607     6038.00000
    91.7739     6196.00000
    91.7870     5975.00000
    91.8001     6113.00000
    91.8133     6167.00000
    91.8264     6036.00000
    91.8395     6046.00000
    91.8526     6150.00000
    91.8658     6337.00000
    91.8789     6218.00000
    91.8920     6354.00000
    91.9052     6309.00000
    91.9183     6359.00000
    91.9314     6381.00000
    91.9446     6536.00000
    91.9577     6580.00000
    91.9708     6658.00000
    91.9840     6629.00000
    91.9971     6614.00000
    92.0102     6451.00000
    92.0233     6368.00000
    92.0365     6595.00000
    92.0496     6434.00000
    92.0627     6273.00000
    92.0759     6376.00000
    92.0890     6255.00000
    92.1021     6392.00000
    92.1153     6479.00000
    92.1284     6580.00000
    92.1415     6512.00000
    92.1546     6522.00000
    92.1678     6661.00000
    92.1809     6462.00000
    92.1940     6777.00000
    92.2072     6765.00000
    92.2203     6714.00000
    92.2334     6632.00000
    92.2466     6644.00000
    92.2597     6636.00000
    92.2728     6630.00000
    92.2859     6573.00000
    92.2991     6538.00000
    92.3122     6305.00000
    92.3253     6312.00000
    92.3385     6083.00000
    92.3516     6135.00000
    92.3647     6278.00000
    92.3779     6053.00000
    92.3910     5982.00000
    92.4041     6129.00000
    92.4173     6167.00000
    92.4304     6114.00000
    92.4435     6024.00000
    92.4566     6202.00000
    92.4698     6228.00000
    92.4829     6248.00000
    92.4960     5994.00000
    92.5092     6166.00000
    92.5223     6201.00000
    92.5354     6019.00000
    92.5486     6284.00000
    92.5617     5994.00000
    92.5748     6023.00000
    92.5879     6015.00000
    92.6011     5960.00000
    92.6142     5982.00000
    92.6273     6034.00000
    92.6405     5981.00000
    92.6536     5742.00000
    92.6667     5845.00000
    92.6799     5936.00000
    92.6930     5838.00000
    92.7061     5772.00000
    92.7192     5695.00000
    92.7324     5768.00000
    92.7455     5777.00000
    92.7586     5909.00000
    92.7718     5763.00000
    92.7849     5820.00000
    92.7980     5828.00000
    92.8112     5925.00000
    92.8243     5875.00000
    92.8374     5915.00000
    92.8505     5847.00000
    92.8637     6035.00000
    92.8768     5942.00000
    92.8899     5760.00000
    92.9031     5872.00000
    92.9162     5980.00000
    92.9293     6009.00000
    92.9425     5901.00000
    92.9556     5818.00000
    92.9687     5914.00000
    92.9819     6013.00000
    92.9950     6076.00000
    93.0081     5796.00000
    93.0212     5983.00000
    93.0344     5866.00000
    93.0475     5824.00000
    93.0606     5806.00000
    93.0738     5801.00000
    93.0869     5812.00000
    93.1000     5868.00000
    93.1132     5801.00000
    93.1263     6008.00000
    93.1394     5888.00000
    93.1525     6023.00000
    93.1657     6049.00000
    93.1788     5767.00000
    93.1919     5736.00000
    93.2051     5878.00000
    93.2182     5909.00000
    93.2313     5940.00000
    93.2445     5792.00000
    93.2576     5805.00000
    93.2707     5706.00000
    93.2839     5928.00000
    93.2970     5908.00000
    93.3101     5966.00000
    93.3232     5790.00000
    93.3364     5862.00000
    93.3495     5827.00000
    93.3626     5778.00000
    93.3758     5825.00000
    93.3889     5797.00000
    93.4020     5954.00000
    93.4152     5968.00000
    93.4283     5686.00000
    93.4414     5819.00000
    93.4545     5830.00000
    93.4677     5936.00000
    93.4808     5625.00000
    93.4939     5771.00000
    93.5071     5697.00000
    93.5202     5995.00000
    93.5333     6094.00000
    93.5465     5949.00000
    93.5596     5960.00000
    93.5727     5818.00000
    93.5858     6065.00000
    93.5990     6007.00000
    93.6121     6041.00000
    93.6252     6039.00000
    93.6384     6160.00000
    93.6515     6091.00000
    93.6646     6092.00000
    93.6778     6003.00000
    93.6909     6168.00000
    93.7040     6146.00000
    93.7171     6188.00000
    93.7303     6110.00000
    93.7434     6139.00000
    93.7565     6131.00000
    93.7697     6279.00000
    93.7828     6241.00000
    93.7959     6352.00000
    93.8091     6395.00000
    93.8222     6589.00000
    93.8353     6341.00000
    93.8484     6200.00000
    93.8616     6038.00000
    93.8747     6063.00000
    93.8878     6070.00000
    93.9010     6084.00000
    93.9141     6091.00000
    93.9272     6159.00000
    93.9404     5930.00000
    93.9535     5983.00000
    93.9666     6039.00000
    93.9798     5964.00000
    93.9929     5995.00000
    94.0060     6019.00000
    94.0191     6048.00000
    94.0323     5953.00000
    94.0454     6001.00000
    94.0585     6073.00000
    94.0717     6139.00000
    94.0848     6181.00000
    94.0979     6082.00000
    94.1111     6220.00000
    94.1242     5979.00000
    94.1373     6012.00000
    94.1505     5946.00000
    94.1636     5968.00000
    94.1767     6073.00000
    94.1898     5994.00000
    94.2030     5834.00000
    94.2161     5856.00000
    94.2292     5777.00000
    94.2424     5874.00000
    94.2555     5937.00000
    94.2686     5664.00000
    94.2818     5799.00000
    94.2949     5891.00000
    94.3080     5846.00000
    94.3211     5681.00000
    94.3343     5984.00000
    94.3474     5890.00000
    94.3605     5856.00000
    94.3737     5910.00000
    94.3868     5870.00000
    94.3999     5816.00000
    94.4131     5939.00000
    94.4262     5999.00000
    94.4393     6236.00000
    94.4524     6129.00000
    94.4656     6108.00000
    94.4787     5932.00000
    94.4918     6250.00000
    94.5050     6306.00000
    94.5181     6223.00000
    94.5312     6298.00000
    94.5444     6436.00000
    94.5575     6225.00000
    94.5706     6326.00000
    94.5837     6329.00000
    94.5969     6232.00000
    94.6100     6282.00000
    94.6231     6219.00000
    94.6363     6185.00000
    94.6494     6168.00000
    94.6625     6190.00000
    94.6757     6304.00000
    94.6888     6378.00000
    94.7019     6320.00000
    94.7150     6112.00000
    94.7282     6107.00000
    94.7413     6124.00000
    94.7544     6198.00000
    94.7676     6314.00000
    94.7807     6167.00000
    94.7938     6223.00000
    94.8070     6198.00000
    94.8201     6259.00000
    94.8332     6201.00000
    94.8464     6159.00000
    94.8595     6247.00000
    94.8726     6147.00000
    94.8857     6229.00000
    94.8989     6166.00000
    94.9120     6275.00000
    94.9251     6329.00000
    94.9383     6259.00000
    94.9514     6221.00000
    94.9645     6393.00000
    94.9777     6225.00000
    94.9908     6426.00000
    95.0039     6485.00000
    95.0170     6233.00000
    95.0302     6264.00000
    95.0433     6234.00000
    95.0564     6268.00000
    95.0696     6087.00000
    95.0827     6160.00000
    95.0958     6189.00000
    95.1090     6197.00000
    95.1221     5995.00000
    95.1352     6038.00000
    95.1484     5855.00000
    95.1615     5927.00000
    95.1746     5842.00000
    95.1877     5926.00000
    95.2009     5969.00000
    95.2140     5865.00000
    95.2271     5978.00000
    95.2403     6163.00000
    95.2534     5965.00000
    95.2665     6127.00000
    95.2797     6230.00000
    95.2928     6145.00000
    95.3059     6127.00000
    95.3190     6263.00000
    95.3322     6192.00000
    95.3453     6175.00000
    95.3584     6351.00000
    95.3716     6235.00000
    95.3847     6205.00000
    95.3978     6375.00000
    95.4110     6196.00000
    95.4241     6447.00000
    95.4372     6174.00000
    95.4503     6277.00000
    95.4635     6244.00000
    95.4766     6224.00000
    95.4897     6137.00000
    95.5029     6006.00000
    95.5160     5913.00000
    95.5291     6053.00000
    95.5423     5949.00000
    95.5554     6008.00000
    95.5685     6100.00000
    95.5816     5902.00000
    95.5948     6170.00000
    95.6079     6022.00000
    95.6210     6074.00000
    95.6342     6125.00000
    95.6473     6132.00000
    95.6604     6187.00000
    95.6736     6439.00000
    95.6867     6149.00000
    95.6998     6374.00000
    95.7130     6352.00000
    95.7261     6359.00000
    95.7392     6327.00000
    95.7523     6487.00000
    95.7655     6380.00000
    95.7786     6214.00000
    95.7917     6334.00000
    95.8049     6218.00000
    95.8180     6265.00000
    95.8311     5992.00000
    95.8443     5928.00000
    95.8574     5955.00000
    95.8705     5992.00000
    95.8836     6054.00000
    95.8968     5982.00000
    95.9099     6046.00000
    95.9230     5878.00000
    95.9362     6028.00000
    95.9493     6002.00000
    95.9624     5852.00000
    95.9756     5958.00000
    95.9887     5827.00000
    96.0018     6025.00000
    96.0149     5995.00000
    96.0281     5993.00000
    96.0412     5975.00000
    96.0543     6224.00000
    96.0675     5922.00000
    96.0806     5978.00000
    96.0937     5985.00000
    96.1069     5875.00000
    96.1200     5875.00000
    96.1331     6048.00000
    96.1463     5932.00000
    96.1594     5901.00000
    96.1725     5909.00000
    96.1856     5843.00000
    96.1988     6001.00000
    96.2119     5738.00000
    96.2250     5729.00000
    96.2382     5695.00000
    96.2513     5601.00000
    96.2644     5747.00000
    96.2776     5857.00000
    96.2907     5791.00000
    96.3038     5610.00000
    96.3169     5535.00000
    96.3301     5716.00000
    96.3432     5552.00000
    96.3563     5690.00000
    96.3695     5765.00000
    96.3826     5717.00000
    96.3957     5634.00000
    96.4089     5731.00000
    96.4220     5698.00000
    96.4351     5698.00000
    96.4482     5676.00000
    96.4614     5656.00000
    96.4745     5782.00000
    96.4876     5653.00000
    96.5008     5612.00000
    96.5139     5765.00000
    96.5270     5788.00000
    96.5402     5816.00000
    96.5533     5788.00000
    96.5664     5850.00000
    96.5796     5814.00000
    96.5927     5946.00000
    96.6058     5971.00000
    96.6189     5807.00000
    96.6321     5683.00000
    96.6452     5846.00000
    96.6583     5793.00000
    96.6715     5811.00000
    96.6846     5854.00000
    96.6977     5804.00000
    96.7109     5886.00000
    96.7240     5776.00000
    96.7371     5812.00000
    96.7502     5597.00000
    96.7634     5777.00000
    96.7765     5844.00000
    96.7896     5817.00000
    96.8028     5966.00000
    96.8159     5882.00000
    96.8290     5887.00000
    96.8422     5927.00000
    96.8553     5855.00000
    96.8684     5765.00000
    96.8815     6102.00000
    96.8947     5849.00000
    96.9078     5927.00000
    96.9209     5834.00000
    96.9341     5987.00000
    96.9472     5912.00000
    96.9603     5995.00000
    96.9735     6192.00000
    96.9866     6012.00000
    96.9997     5855.00000
    97.0128     5980.00000
    97.0260     5997.00000
    97.0391     6235.00000
    97.0522     6028.00000
    97.0654     5917.00000
    97.0785     5840.00000
    97.0916     6129.00000
    97.1048     6051.00000
    97.1179     6135.00000
    97.1310     6106.00000
    97.1442     5984.00000
    97.1573     5955.00000
    97.1704     6112.00000
    97.1835     5891.00000
    97.1967     5968.00000
    97.2098     6029.00000
    97.2229     5827.00000
    97.2361     5950.00000
    97.2492     5878.00000
    97.2623     5922.00000
    97.2755     5985.00000
    97.2886     5960.00000
    97.3017     6215.00000
    97.3148     6038.00000
    97.3280     6033.00000
    97.3411     6067.00000
    97.3542     6041.00000
    97.3674     6167.00000
    97.3805     6203.00000
    97.3936     6148.00000
    97.4068     6068.00000
    97.4199     5993.00000
    97.4330     5970.00000
    97.4462     6199.00000
    97.4593     6096.00000
    97.4724     6121.00000
    97.4855     6203.00000
    97.4987     6149.00000
    97.5118     6107.00000
    97.5249     6067.00000
    97.5381     5925.00000
    97.5512     6055.00000
    97.5643     6060.00000
    97.5775     6129.00000
    97.5906     6120.00000
    97.6037     6087.00000
    97.6168     6146.00000
    97.6300     5969.00000
    97.6431     6047.00000
    97.6562     6066.00000
    97.6694     5864.00000
    97.6825     5751.00000
    97.6956     5884.00000
    97.7088     5701.00000
    97.7219     5909.00000
    97.7350     5811.00000
    97.7481     5848.00000
    97.7613     5928.00000
    97.7744     5773.00000
    97.7875     5813.00000
    97.8007     5596.00000
    97.8138     5795.00000
    97.8269     5810.00000
    97.8401     5768.00000
    97.8532     5761.00000
    97.8663     5849.00000
    97.8794     5721.00000
    97.8926     5815.00000
    97.9057     5932.00000
    97.9188     6027.00000
    97.9320     5859.00000
    97.9451     5811.00000
    97.9582     5815.00000
    97.9714     5815.00000
    97.9845     5902.00000
    97.9976     5812.00000
    98.0107     5813.00000
    98.0239     5796.00000
    98.0370     5614.00000
    98.0501     5614.00000
    98.0633     5649.00000
    98.0764     5786.00000
    98.0895     5723.00000
    98.1027     5774.00000
    98.1158     5759.00000
    98.1289     5835.00000
    98.1421     5769.00000
    98.1552     5728.00000
    98.1683     5804.00000
    98.1814     6022.00000
    98.1946     5810.00000
    98.2077     5642.00000
    98.2208     5809.00000
    98.2340     5803.00000
    98.2471     5776.00000
    98.2602     5850.00000
    98.2734     5830.00000
    98.2865     6027.00000
    98.2996     5919.00000
    98.3128     6057.00000
    98.3259     6062.00000
    98.3390     5859.00000
    98.3521     6033.00000
    98.3653     5890.00000
    98.3784     5961.00000
    98.3915     5867.00000
    98.4047     6122.00000
    98.4178     6101.00000
    98.4309     6014.00000
    98.4441     5997.00000
    98.4572     5852.00000
    98.4703     6011.00000
    98.4834     6057.00000
    98.4966     5901.00000
    98.5097     5882.00000
    98.5228     6010.00000
    98.5360     6097.00000
    98.5491     5986.00000
    98.5622     5858.00000
    98.5754     6087.00000
    98.5885     6187.00000
    98.6016     6164.00000
    98.6147     6326.00000
    98.6279     6187.00000
    98.6410     6158.00000
    98.6541     6178.00000
    98.6673     6264.00000
    98.6804     6290.00000
    98.6935     6217.00000
    98.7067     6225.00000
    98.7198     6197.00000
    98.7329     6089.00000
    98.7460     6163.00000
    98.7592     6123.00000
    98.7723     5998.00000
    98.7854     5884.00000
    98.7986     5806.00000
    98.8117     5917.00000
    98.8248     5925.00000
    98.8380     5850.00000
    98.8511     5812.00000
    98.8642     5963.00000
    98.8773     6029.00000
    98.8905     5830.00000
    98.9036     5872.00000
    98.9167     6073.00000
    98.9299     5928.00000
    98.9430     5905.00000
    98.9561     5919.00000
    98.9693     5884.00000
    98.9824     5983.00000
    98.9955     5942.00000
    99.0087     5874.00000
    99.0218     5955.00000
    99.0349     5892.00000
    99.0480     5835.00000
    99.0612     6019.00000
    99.0743     5935.00000
    99.0874     5889.00000
    99.1006     5787.00000
    99.1137     5935.00000
    99.1268     5877.00000
    99.1400     5801.00000
    99.1531     5738.00000
    99.1662     5882.00000
    99.1793     5748.00000
    99.1925     5629.00000
    99.2056     5808.00000
    99.2187     5700.00000
    99.2319     5704.00000
    99.2450     5800.00000
    99.2581     5853.00000
    99.2713     5738.00000
    99.2844     5766.00000
    99.2975     5607.00000
    99.3107     5640.00000
    99.3238     5984.00000
    99.3369     5698.00000
    99.3500     5714.00000
    99.3632     5858.00000
    99.3763     5776.00000
    99.3894     5731.00000
    99.4026     5754.00000
    99.4157     5928.00000
    99.4288     5881.00000
    99.4420     5668.00000
    99.4551     5769.00000
    99.4682     5723.00000
    99.4813     5796.00000
    99.4945     5718.00000
    99.5076     5676.00000
    99.5207     5613.00000
    99.5339     5738.00000
    99.5470     5810.00000
    99.5601     5800.00000
    99.5733     5839.00000
    99.5864     5802.00000
    99.5995     5767.00000
    99.6126     5658.00000
    99.6258     5794.00000
    99.6389     5545.00000
    99.6520     5761.00000
    99.6652     5718.00000
    99.6783     5771.00000
    99.6914     5810.00000
    99.7046     5682.00000
    99.7177     5788.00000
    99.7308     5728.00000
    99.7439     5858.00000
    99.7571     5620.00000
    99.7702     5734.00000
    99.7833     5776.00000
    99.7965     5773.00000
    99.8096     5785.00000
    99.8227     5760.00000
    99.8359     5737.00000
    99.8490     5732.00000
    99.8621     5732.00000
    99.8753     5761.00000
    99.8884     5775.00000
    99.9015     5775.00000
    99.9146     5688.00000
    99.9278     5616.00000
    99.9409     5798.00000
    99.9540     5876.00000
    99.9672     5635.00000
    99.9803     5630.00000
    99.9934     5757.00000
