! Initial file:   D:\ZAKARY_OUAIL\MA_THESE\Deuxième_année_de_thèse\DRX\Affinement_DRX\Fullprof\Thermodiff3-nuit_NaNbO2F2\240°C\NaNbO2F2-Lent_240°C.xrdml
! Initial format:  58
! WAVE (A):      1.54060     1.54060     1.00000
! REM : data have been multiplied by     1.0000
! X_data : 2 Theta (deg.)                                                                                                                                                                                                                                                  
! Y_data : Intensity (arb. units)                                                                                                                                                                                                                                          
!     X         Y
!--------------------------------------------------------------------------------
    10.0116     7515.00000
    10.0247     7490.00000
    10.0379     7491.00000
    10.0510     7303.00000
    10.0641     7841.00000
    10.0772     7634.00000
    10.0904     7714.00000
    10.1035     7621.00000
    10.1166     7636.00000
    10.1298     7778.00000
    10.1429     7748.00000
    10.1560     7715.00000
    10.1692     7751.00000
    10.1823     7806.00000
    10.1954     7616.00000
    10.2086     7621.00000
    10.2217     7514.00000
    10.2348     7709.00000
    10.2479     7619.00000
    10.2611     7724.00000
    10.2742     7847.00000
    10.2873     7482.00000
    10.3005     7534.00000
    10.3136     7622.00000
    10.3267     7575.00000
    10.3399     7589.00000
    10.3530     7657.00000
    10.3661     7572.00000
    10.3792     7707.00000
    10.3924     7543.00000
    10.4055     7718.00000
    10.4186     7708.00000
    10.4318     7615.00000
    10.4449     7660.00000
    10.4580     7768.00000
    10.4712     7768.00000
    10.4843     7651.00000
    10.4974     7536.00000
    10.5105     7671.00000
    10.5237     7655.00000
    10.5368     7581.00000
    10.5499     7423.00000
    10.5631     7464.00000
    10.5762     7504.00000
    10.5893     7423.00000
    10.6025     7521.00000
    10.6156     7558.00000
    10.6287     7669.00000
    10.6418     7538.00000
    10.6550     7500.00000
    10.6681     7593.00000
    10.6812     7562.00000
    10.6944     7688.00000
    10.7075     7403.00000
    10.7206     7573.00000
    10.7338     7719.00000
    10.7469     7637.00000
    10.7600     7805.00000
    10.7732     7547.00000
    10.7863     7645.00000
    10.7994     7585.00000
    10.8125     7844.00000
    10.8257     7699.00000
    10.8388     7756.00000
    10.8519     7803.00000
    10.8651     7893.00000
    10.8782     8043.00000
    10.8913     7976.00000
    10.9045     7993.00000
    10.9176     7996.00000
    10.9307     8061.00000
    10.9438     8113.00000
    10.9570     8127.00000
    10.9701     8264.00000
    10.9832     8139.00000
    10.9964     8286.00000
    11.0095     8578.00000
    11.0226     8489.00000
    11.0358     8570.00000
    11.0489     8563.00000
    11.0620     8865.00000
    11.0751     9094.00000
    11.0883     9455.00000
    11.1014     9947.00000
    11.1145    10402.00000
    11.1277    11404.00000
    11.1408    12822.00000
    11.1539    14799.00000
    11.1671    17743.00000
    11.1802    22464.00000
    11.1933    28814.00000
    11.2065    39846.00000
    11.2196    55251.00000
    11.2327    70350.00000
    11.2458    80063.00000
    11.2590    78608.00000
    11.2721    67802.00000
    11.2852    52196.00000
    11.2984    37585.00000
    11.3115    25108.00000
    11.3246    16836.00000
    11.3378    12637.00000
    11.3509    10236.00000
    11.3640     9374.00000
    11.3771     8878.00000
    11.3903     8667.00000
    11.4034     8564.00000
    11.4165     8188.00000
    11.4297     8255.00000
    11.4428     8028.00000
    11.4559     8260.00000
    11.4691     8101.00000
    11.4822     7894.00000
    11.4953     7846.00000
    11.5084     7804.00000
    11.5216     7634.00000
    11.5347     7755.00000
    11.5478     7696.00000
    11.5610     7736.00000
    11.5741     7709.00000
    11.5872     7756.00000
    11.6004     7686.00000
    11.6135     7574.00000
    11.6266     7757.00000
    11.6398     7679.00000
    11.6529     7687.00000
    11.6660     7804.00000
    11.6791     7815.00000
    11.6923     7648.00000
    11.7054     7862.00000
    11.7185     7864.00000
    11.7317     7755.00000
    11.7448     7949.00000
    11.7579     8053.00000
    11.7711     7942.00000
    11.7842     7781.00000
    11.7973     7974.00000
    11.8104     7851.00000
    11.8236     8195.00000
    11.8367     8103.00000
    11.8498     8097.00000
    11.8630     8020.00000
    11.8761     7962.00000
    11.8892     8051.00000
    11.9024     7917.00000
    11.9155     8100.00000
    11.9286     8057.00000
    11.9417     8041.00000
    11.9549     8065.00000
    11.9680     7996.00000
    11.9811     7999.00000
    11.9943     7897.00000
    12.0074     7854.00000
    12.0205     7812.00000
    12.0337     7910.00000
    12.0468     8002.00000
    12.0599     7937.00000
    12.0731     8090.00000
    12.0862     8119.00000
    12.0993     7911.00000
    12.1124     8046.00000
    12.1256     7975.00000
    12.1387     8091.00000
    12.1518     8123.00000
    12.1650     7975.00000
    12.1781     8027.00000
    12.1912     8065.00000
    12.2044     8083.00000
    12.2175     8044.00000
    12.2306     7937.00000
    12.2437     8151.00000
    12.2569     8067.00000
    12.2700     8112.00000
    12.2831     7975.00000
    12.2963     8141.00000
    12.3094     8172.00000
    12.3225     8112.00000
    12.3357     8041.00000
    12.3488     7790.00000
    12.3619     8030.00000
    12.3750     8126.00000
    12.3882     7946.00000
    12.4013     7983.00000
    12.4144     8009.00000
    12.4276     8115.00000
    12.4407     8057.00000
    12.4538     8061.00000
    12.4670     8131.00000
    12.4801     8101.00000
    12.4932     8183.00000
    12.5063     7873.00000
    12.5195     8107.00000
    12.5326     8067.00000
    12.5457     8132.00000
    12.5589     7961.00000
    12.5720     8047.00000
    12.5851     7953.00000
    12.5983     7923.00000
    12.6114     7942.00000
    12.6245     7886.00000
    12.6377     7929.00000
    12.6508     7901.00000
    12.6639     7966.00000
    12.6770     7938.00000
    12.6902     7911.00000
    12.7033     7952.00000
    12.7164     7983.00000
    12.7296     7874.00000
    12.7427     7911.00000
    12.7558     8009.00000
    12.7690     8160.00000
    12.7821     7965.00000
    12.7952     8155.00000
    12.8083     7985.00000
    12.8215     7952.00000
    12.8346     7948.00000
    12.8477     8079.00000
    12.8609     7919.00000
    12.8740     7841.00000
    12.8871     7922.00000
    12.9003     7943.00000
    12.9134     7808.00000
    12.9265     7989.00000
    12.9396     8049.00000
    12.9528     7973.00000
    12.9659     7941.00000
    12.9790     7830.00000
    12.9922     7917.00000
    13.0053     7884.00000
    13.0184     7938.00000
    13.0316     7906.00000
    13.0447     7890.00000
    13.0578     7823.00000
    13.0710     7863.00000
    13.0841     7995.00000
    13.0972     8044.00000
    13.1103     7818.00000
    13.1235     7874.00000
    13.1366     7968.00000
    13.1497     7979.00000
    13.1629     7993.00000
    13.1760     7997.00000
    13.1891     8032.00000
    13.2023     7914.00000
    13.2154     7816.00000
    13.2285     7609.00000
    13.2416     7918.00000
    13.2548     8016.00000
    13.2679     7965.00000
    13.2810     8107.00000
    13.2942     7929.00000
    13.3073     8009.00000
    13.3204     7962.00000
    13.3336     7867.00000
    13.3467     7809.00000
    13.3598     7901.00000
    13.3729     8014.00000
    13.3861     7831.00000
    13.3992     7893.00000
    13.4123     7924.00000
    13.4255     7921.00000
    13.4386     7879.00000
    13.4517     7910.00000
    13.4649     7716.00000
    13.4780     7799.00000
    13.4911     7824.00000
    13.5043     7712.00000
    13.5174     8016.00000
    13.5305     7852.00000
    13.5436     7816.00000
    13.5568     7908.00000
    13.5699     7787.00000
    13.5830     7715.00000
    13.5962     7879.00000
    13.6093     7939.00000
    13.6224     7849.00000
    13.6356     7889.00000
    13.6487     8028.00000
    13.6618     8010.00000
    13.6749     8116.00000
    13.6881     7974.00000
    13.7012     7907.00000
    13.7143     7916.00000
    13.7275     7761.00000
    13.7406     8118.00000
    13.7537     8039.00000
    13.7669     8089.00000
    13.7800     8063.00000
    13.7931     7731.00000
    13.8062     7887.00000
    13.8194     7927.00000
    13.8325     7841.00000
    13.8456     7716.00000
    13.8588     7829.00000
    13.8719     7810.00000
    13.8850     7746.00000
    13.8982     7932.00000
    13.9113     7826.00000
    13.9244     7832.00000
    13.9376     7856.00000
    13.9507     7800.00000
    13.9638     8056.00000
    13.9769     7820.00000
    13.9901     7705.00000
    14.0032     7824.00000
    14.0163     7924.00000
    14.0295     7852.00000
    14.0426     7927.00000
    14.0557     7889.00000
    14.0689     7994.00000
    14.0820     7877.00000
    14.0951     7965.00000
    14.1082     7893.00000
    14.1214     7916.00000
    14.1345     7935.00000
    14.1476     7986.00000
    14.1608     7790.00000
    14.1739     7852.00000
    14.1870     7742.00000
    14.2002     7948.00000
    14.2133     7976.00000
    14.2264     7743.00000
    14.2395     7822.00000
    14.2527     7722.00000
    14.2658     7789.00000
    14.2789     8033.00000
    14.2921     8102.00000
    14.3052     7943.00000
    14.3183     7835.00000
    14.3315     7687.00000
    14.3446     7818.00000
    14.3577     7874.00000
    14.3708     7973.00000
    14.3840     7891.00000
    14.3971     8051.00000
    14.4102     8113.00000
    14.4234     8021.00000
    14.4365     8054.00000
    14.4496     8064.00000
    14.4628     8182.00000
    14.4759     8427.00000
    14.4890     9056.00000
    14.5022     9041.00000
    14.5153     9684.00000
    14.5284     9440.00000
    14.5415     9414.00000
    14.5547     9256.00000
    14.5678     9061.00000
    14.5809     8866.00000
    14.5941     8717.00000
    14.6072     8366.00000
    14.6203     8239.00000
    14.6335     7885.00000
    14.6466     7915.00000
    14.6597     7682.00000
    14.6728     7824.00000
    14.6860     7730.00000
    14.6991     7844.00000
    14.7122     7625.00000
    14.7254     7831.00000
    14.7385     7795.00000
    14.7516     7953.00000
    14.7648     7695.00000
    14.7779     7873.00000
    14.7910     7641.00000
    14.8041     7948.00000
    14.8173     7725.00000
    14.8304     7829.00000
    14.8435     7532.00000
    14.8567     7801.00000
    14.8698     7692.00000
    14.8829     7626.00000
    14.8961     7832.00000
    14.9092     7874.00000
    14.9223     7768.00000
    14.9355     7664.00000
    14.9486     7743.00000
    14.9617     7740.00000
    14.9748     7659.00000
    14.9880     7663.00000
    15.0011     7812.00000
    15.0142     7738.00000
    15.0274     7495.00000
    15.0405     7801.00000
    15.0536     7748.00000
    15.0668     7461.00000
    15.0799     7599.00000
    15.0930     7806.00000
    15.1061     7641.00000
    15.1193     7675.00000
    15.1324     7816.00000
    15.1455     7551.00000
    15.1587     7749.00000
    15.1718     7673.00000
    15.1849     7570.00000
    15.1981     7697.00000
    15.2112     7590.00000
    15.2243     7515.00000
    15.2374     7531.00000
    15.2506     7717.00000
    15.2637     7708.00000
    15.2768     7664.00000
    15.2900     7603.00000
    15.3031     7694.00000
    15.3162     7727.00000
    15.3294     7649.00000
    15.3425     7723.00000
    15.3556     7650.00000
    15.3688     7571.00000
    15.3819     7882.00000
    15.3950     7896.00000
    15.4081     7841.00000
    15.4213     7509.00000
    15.4344     7630.00000
    15.4475     7592.00000
    15.4607     7697.00000
    15.4738     7618.00000
    15.4869     7798.00000
    15.5001     7766.00000
    15.5132     7633.00000
    15.5263     7674.00000
    15.5394     7612.00000
    15.5526     7541.00000
    15.5657     7575.00000
    15.5788     7699.00000
    15.5920     7635.00000
    15.6051     7638.00000
    15.6182     7653.00000
    15.6314     7649.00000
    15.6445     7792.00000
    15.6576     7498.00000
    15.6707     7557.00000
    15.6839     7672.00000
    15.6970     7689.00000
    15.7101     7511.00000
    15.7233     7563.00000
    15.7364     7681.00000
    15.7495     7820.00000
    15.7627     7742.00000
    15.7758     7783.00000
    15.7889     7813.00000
    15.8021     7567.00000
    15.8152     7633.00000
    15.8283     7694.00000
    15.8414     7522.00000
    15.8546     7703.00000
    15.8677     7478.00000
    15.8808     7783.00000
    15.8940     7632.00000
    15.9071     7592.00000
    15.9202     7705.00000
    15.9334     7642.00000
    15.9465     7681.00000
    15.9596     7965.00000
    15.9727     7703.00000
    15.9859     7800.00000
    15.9990     7836.00000
    16.0121     7845.00000
    16.0253     7577.00000
    16.0384     7785.00000
    16.0515     7675.00000
    16.0647     7635.00000
    16.0778     7594.00000
    16.0909     7556.00000
    16.1040     7528.00000
    16.1172     7510.00000
    16.1303     7724.00000
    16.1434     7643.00000
    16.1566     7535.00000
    16.1697     7754.00000
    16.1828     7555.00000
    16.1960     7594.00000
    16.2091     7725.00000
    16.2222     7701.00000
    16.2353     7586.00000
    16.2485     7507.00000
    16.2616     7571.00000
    16.2747     7570.00000
    16.2879     7319.00000
    16.3010     7460.00000
    16.3141     7610.00000
    16.3273     7554.00000
    16.3404     7706.00000
    16.3535     7707.00000
    16.3667     7777.00000
    16.3798     7581.00000
    16.3929     7639.00000
    16.4060     7755.00000
    16.4192     7673.00000
    16.4323     7729.00000
    16.4454     7611.00000
    16.4586     7697.00000
    16.4717     7654.00000
    16.4848     7722.00000
    16.4980     7629.00000
    16.5111     7617.00000
    16.5242     7590.00000
    16.5373     7695.00000
    16.5505     7507.00000
    16.5636     7528.00000
    16.5767     7522.00000
    16.5899     7431.00000
    16.6030     7375.00000
    16.6161     7488.00000
    16.6293     7485.00000
    16.6424     7591.00000
    16.6555     7616.00000
    16.6686     7441.00000
    16.6818     7691.00000
    16.6949     7633.00000
    16.7080     7729.00000
    16.7212     7779.00000
    16.7343     7685.00000
    16.7474     7812.00000
    16.7606     7752.00000
    16.7737     7940.00000
    16.7868     7881.00000
    16.8000     7898.00000
    16.8131     7935.00000
    16.8262     7869.00000
    16.8393     8041.00000
    16.8525     7849.00000
    16.8656     7801.00000
    16.8787     7709.00000
    16.8919     7791.00000
    16.9050     7651.00000
    16.9181     7646.00000
    16.9313     7542.00000
    16.9444     7666.00000
    16.9575     7481.00000
    16.9706     7353.00000
    16.9838     7406.00000
    16.9969     7283.00000
    17.0100     7429.00000
    17.0232     7659.00000
    17.0363     7460.00000
    17.0494     7426.00000
    17.0626     7392.00000
    17.0757     7428.00000
    17.0888     7389.00000
    17.1019     7570.00000
    17.1151     7515.00000
    17.1282     7345.00000
    17.1413     7614.00000
    17.1545     7672.00000
    17.1676     7268.00000
    17.1807     7350.00000
    17.1939     7507.00000
    17.2070     7368.00000
    17.2201     7445.00000
    17.2333     7576.00000
    17.2464     7403.00000
    17.2595     7498.00000
    17.2726     7330.00000
    17.2858     7368.00000
    17.2989     7402.00000
    17.3120     7434.00000
    17.3252     7459.00000
    17.3383     7398.00000
    17.3514     7503.00000
    17.3646     7447.00000
    17.3777     7571.00000
    17.3908     7229.00000
    17.4039     7374.00000
    17.4171     7280.00000
    17.4302     7315.00000
    17.4433     7344.00000
    17.4565     7379.00000
    17.4696     7414.00000
    17.4827     7345.00000
    17.4959     7354.00000
    17.5090     7407.00000
    17.5221     7456.00000
    17.5352     7184.00000
    17.5484     7359.00000
    17.5615     7368.00000
    17.5746     7355.00000
    17.5878     7417.00000
    17.6009     7342.00000
    17.6140     7395.00000
    17.6272     7223.00000
    17.6403     7452.00000
    17.6534     7420.00000
    17.6666     7330.00000
    17.6797     7417.00000
    17.6928     7337.00000
    17.7059     7390.00000
    17.7191     7616.00000
    17.7322     7418.00000
    17.7453     7482.00000
    17.7585     7259.00000
    17.7716     7309.00000
    17.7847     7465.00000
    17.7979     7231.00000
    17.8110     7295.00000
    17.8241     7339.00000
    17.8372     7304.00000
    17.8504     7400.00000
    17.8635     7560.00000
    17.8766     7530.00000
    17.8898     7564.00000
    17.9029     7584.00000
    17.9160     7521.00000
    17.9292     7450.00000
    17.9423     7408.00000
    17.9554     7465.00000
    17.9685     7264.00000
    17.9817     7456.00000
    17.9948     7381.00000
    18.0079     7031.00000
    18.0211     7210.00000
    18.0342     7521.00000
    18.0473     7323.00000
    18.0605     7293.00000
    18.0736     7335.00000
    18.0867     7303.00000
    18.0998     7181.00000
    18.1130     7189.00000
    18.1261     7332.00000
    18.1392     7181.00000
    18.1524     7377.00000
    18.1655     7187.00000
    18.1786     7180.00000
    18.1918     7181.00000
    18.2049     7267.00000
    18.2180     7155.00000
    18.2312     7188.00000
    18.2443     7263.00000
    18.2574     7316.00000
    18.2705     7380.00000
    18.2837     7327.00000
    18.2968     7333.00000
    18.3099     7248.00000
    18.3231     7084.00000
    18.3362     7314.00000
    18.3493     7178.00000
    18.3625     7061.00000
    18.3756     7220.00000
    18.3887     7053.00000
    18.4018     7360.00000
    18.4150     7106.00000
    18.4281     7252.00000
    18.4412     7109.00000
    18.4544     7108.00000
    18.4675     7212.00000
    18.4806     7355.00000
    18.4938     7343.00000
    18.5069     7357.00000
    18.5200     7063.00000
    18.5331     7228.00000
    18.5463     7139.00000
    18.5594     7209.00000
    18.5725     7199.00000
    18.5857     7115.00000
    18.5988     7437.00000
    18.6119     7300.00000
    18.6251     7288.00000
    18.6382     7264.00000
    18.6513     7216.00000
    18.6645     7286.00000
    18.6776     7020.00000
    18.6907     7224.00000
    18.7038     7226.00000
    18.7170     7159.00000
    18.7301     7142.00000
    18.7432     7313.00000
    18.7564     7272.00000
    18.7695     7038.00000
    18.7826     7245.00000
    18.7958     7264.00000
    18.8089     7163.00000
    18.8220     7105.00000
    18.8351     7139.00000
    18.8483     7055.00000
    18.8614     7343.00000
    18.8745     7331.00000
    18.8877     7064.00000
    18.9008     7317.00000
    18.9139     7199.00000
    18.9271     7195.00000
    18.9402     7213.00000
    18.9533     7387.00000
    18.9664     7190.00000
    18.9796     7197.00000
    18.9927     7174.00000
    19.0058     7131.00000
    19.0190     7105.00000
    19.0321     7386.00000
    19.0452     7318.00000
    19.0584     7319.00000
    19.0715     7098.00000
    19.0846     7288.00000
    19.0978     7180.00000
    19.1109     7205.00000
    19.1240     7408.00000
    19.1371     7428.00000
    19.1503     7677.00000
    19.1634     7709.00000
    19.1765     7648.00000
    19.1897     7580.00000
    19.2028     7641.00000
    19.2159     7678.00000
    19.2291     7697.00000
    19.2422     7661.00000
    19.2553     7657.00000
    19.2684     7614.00000
    19.2816     7724.00000
    19.2947     7704.00000
    19.3078     7563.00000
    19.3210     7616.00000
    19.3341     7715.00000
    19.3472     7404.00000
    19.3604     7401.00000
    19.3735     7565.00000
    19.3866     7709.00000
    19.3997     7695.00000
    19.4129     7788.00000
    19.4260     7506.00000
    19.4391     7811.00000
    19.4523     7826.00000
    19.4654     7445.00000
    19.4785     7773.00000
    19.4917     7741.00000
    19.5048     7798.00000
    19.5179     7896.00000
    19.5311     7973.00000
    19.5442     7888.00000
    19.5573     8181.00000
    19.5704     8123.00000
    19.5836     8300.00000
    19.5967     8489.00000
    19.6098     8537.00000
    19.6230     8605.00000
    19.6361     8772.00000
    19.6492     8905.00000
    19.6624     9137.00000
    19.6755     9241.00000
    19.6886    10059.00000
    19.7017    10986.00000
    19.7149    12130.00000
    19.7280    14333.00000
    19.7411    17777.00000
    19.7543    23276.00000
    19.7674    31112.00000
    19.7805    43278.00000
    19.7937    58902.00000
    19.8068    75785.00000
    19.8199    92850.00000
    19.8330    98660.00000
    19.8462    92345.00000
    19.8593    80667.00000
    19.8724    68702.00000
    19.8856    56904.00000
    19.8987    42795.00000
    19.9118    30221.00000
    19.9250    21338.00000
    19.9381    15418.00000
    19.9512    12344.00000
    19.9643    10878.00000
    19.9775     9967.00000
    19.9906     9595.00000
    20.0037     9198.00000
    20.0169     9010.00000
    20.0300     8815.00000
    20.0431     8831.00000
    20.0563     8398.00000
    20.0694     8231.00000
    20.0825     8148.00000
    20.0957     8042.00000
    20.1088     7933.00000
    20.1219     7754.00000
    20.1350     7728.00000
    20.1482     8008.00000
    20.1613     7857.00000
    20.1744     7942.00000
    20.1876     7886.00000
    20.2007     7762.00000
    20.2138     7741.00000
    20.2270     7852.00000
    20.2401     7652.00000
    20.2532     7423.00000
    20.2663     7525.00000
    20.2795     7466.00000
    20.2926     7454.00000
    20.3057     7557.00000
    20.3189     7420.00000
    20.3320     7478.00000
    20.3451     7483.00000
    20.3583     7452.00000
    20.3714     7626.00000
    20.3845     7456.00000
    20.3976     7565.00000
    20.4108     7450.00000
    20.4239     7530.00000
    20.4370     7231.00000
    20.4502     7424.00000
    20.4633     7486.00000
    20.4764     7563.00000
    20.4896     7640.00000
    20.5027     7473.00000
    20.5158     7529.00000
    20.5290     7335.00000
    20.5421     7518.00000
    20.5552     7625.00000
    20.5683     7465.00000
    20.5815     7520.00000
    20.5946     7318.00000
    20.6077     7537.00000
    20.6209     7406.00000
    20.6340     7305.00000
    20.6471     7422.00000
    20.6603     7338.00000
    20.6734     7591.00000
    20.6865     7520.00000
    20.6996     7336.00000
    20.7128     7388.00000
    20.7259     7437.00000
    20.7390     7416.00000
    20.7522     7554.00000
    20.7653     7407.00000
    20.7784     7412.00000
    20.7916     7604.00000
    20.8047     7417.00000
    20.8178     7446.00000
    20.8309     7461.00000
    20.8441     7457.00000
    20.8572     7510.00000
    20.8703     7574.00000
    20.8835     7298.00000
    20.8966     7372.00000
    20.9097     7241.00000
    20.9229     7371.00000
    20.9360     7512.00000
    20.9491     7274.00000
    20.9623     7334.00000
    20.9754     7407.00000
    20.9885     7435.00000
    21.0016     7488.00000
    21.0148     7382.00000
    21.0279     7567.00000
    21.0410     7351.00000
    21.0542     7470.00000
    21.0673     7447.00000
    21.0804     7382.00000
    21.0936     7540.00000
    21.1067     7292.00000
    21.1198     7342.00000
    21.1329     7233.00000
    21.1461     7317.00000
    21.1592     7358.00000
    21.1723     7365.00000
    21.1855     7324.00000
    21.1986     7302.00000
    21.2117     7352.00000
    21.2249     7219.00000
    21.2380     7199.00000
    21.2511     7259.00000
    21.2642     7475.00000
    21.2774     7385.00000
    21.2905     7278.00000
    21.3036     7537.00000
    21.3168     7565.00000
    21.3299     7374.00000
    21.3430     7556.00000
    21.3562     7650.00000
    21.3693     7427.00000
    21.3824     7291.00000
    21.3956     7433.00000
    21.4087     7484.00000
    21.4218     7453.00000
    21.4349     7469.00000
    21.4481     7433.00000
    21.4612     7551.00000
    21.4743     7387.00000
    21.4875     7526.00000
    21.5006     7458.00000
    21.5137     7537.00000
    21.5269     7401.00000
    21.5400     7397.00000
    21.5531     7440.00000
    21.5662     7444.00000
    21.5794     7373.00000
    21.5925     7296.00000
    21.6056     7194.00000
    21.6188     7525.00000
    21.6319     7543.00000
    21.6450     7326.00000
    21.6582     7372.00000
    21.6713     7546.00000
    21.6844     7374.00000
    21.6975     7364.00000
    21.7107     7481.00000
    21.7238     7440.00000
    21.7369     7625.00000
    21.7501     7648.00000
    21.7632     7474.00000
    21.7763     7480.00000
    21.7895     7506.00000
    21.8026     7299.00000
    21.8157     7511.00000
    21.8288     7633.00000
    21.8420     7695.00000
    21.8551     7525.00000
    21.8682     7474.00000
    21.8814     7773.00000
    21.8945     7694.00000
    21.9076     7676.00000
    21.9208     7447.00000
    21.9339     7425.00000
    21.9470     7489.00000
    21.9602     7564.00000
    21.9733     7547.00000
    21.9864     7544.00000
    21.9995     7434.00000
    22.0127     7605.00000
    22.0258     7501.00000
    22.0389     7375.00000
    22.0521     7371.00000
    22.0652     7334.00000
    22.0783     7421.00000
    22.0915     7463.00000
    22.1046     7442.00000
    22.1177     7543.00000
    22.1308     7596.00000
    22.1440     7352.00000
    22.1571     7460.00000
    22.1702     7512.00000
    22.1834     7359.00000
    22.1965     7365.00000
    22.2096     7517.00000
    22.2228     7577.00000
    22.2359     7344.00000
    22.2490     7371.00000
    22.2621     7517.00000
    22.2753     7545.00000
    22.2884     7390.00000
    22.3015     7551.00000
    22.3147     7396.00000
    22.3278     7505.00000
    22.3409     7526.00000
    22.3541     7682.00000
    22.3672     7699.00000
    22.3803     7627.00000
    22.3935     7512.00000
    22.4066     7830.00000
    22.4197     7602.00000
    22.4328     7800.00000
    22.4460     8048.00000
    22.4591     8033.00000
    22.4722     8256.00000
    22.4854     8745.00000
    22.4985     9228.00000
    22.5116    10172.00000
    22.5248    11976.00000
    22.5379    14465.00000
    22.5510    19314.00000
    22.5641    25034.00000
    22.5773    30737.00000
    22.5904    33654.00000
    22.6035    32222.00000
    22.6167    29139.00000
    22.6298    26037.00000
    22.6429    23519.00000
    22.6561    20665.00000
    22.6692    17220.00000
    22.6823    13436.00000
    22.6954    10982.00000
    22.7086     9429.00000
    22.7217     8767.00000
    22.7348     8103.00000
    22.7480     7978.00000
    22.7611     7805.00000
    22.7742     7908.00000
    22.7874     7977.00000
    22.8005     7792.00000
    22.8136     7683.00000
    22.8268     7671.00000
    22.8399     7407.00000
    22.8530     7534.00000
    22.8661     7545.00000
    22.8793     7479.00000
    22.8924     7289.00000
    22.9055     7225.00000
    22.9187     7464.00000
    22.9318     7419.00000
    22.9449     7227.00000
    22.9581     7416.00000
    22.9712     7328.00000
    22.9843     7354.00000
    22.9974     7377.00000
    23.0106     7397.00000
    23.0237     7409.00000
    23.0368     7498.00000
    23.0500     7335.00000
    23.0631     7359.00000
    23.0762     7451.00000
    23.0894     7446.00000
    23.1025     7373.00000
    23.1156     7443.00000
    23.1287     7362.00000
    23.1419     7487.00000
    23.1550     7534.00000
    23.1681     7662.00000
    23.1813     7558.00000
    23.1944     7570.00000
    23.2075     7524.00000
    23.2207     7621.00000
    23.2338     7522.00000
    23.2469     7492.00000
    23.2601     7554.00000
    23.2732     7667.00000
    23.2863     7644.00000
    23.2994     7587.00000
    23.3126     7485.00000
    23.3257     7587.00000
    23.3388     7656.00000
    23.3520     7561.00000
    23.3651     7568.00000
    23.3782     7491.00000
    23.3914     7714.00000
    23.4045     7802.00000
    23.4176     7548.00000
    23.4307     7469.00000
    23.4439     7486.00000
    23.4570     7508.00000
    23.4701     7677.00000
    23.4833     7633.00000
    23.4964     7462.00000
    23.5095     7522.00000
    23.5227     7508.00000
    23.5358     7424.00000
    23.5489     7479.00000
    23.5620     7686.00000
    23.5752     7680.00000
    23.5883     7647.00000
    23.6014     7688.00000
    23.6146     7840.00000
    23.6277     7799.00000
    23.6408     7924.00000
    23.6540     7818.00000
    23.6671     7868.00000
    23.6802     8086.00000
    23.6933     8357.00000
    23.7065     8515.00000
    23.7196     9019.00000
    23.7327     9184.00000
    23.7459    10490.00000
    23.7590    12531.00000
    23.7721    16258.00000
    23.7853    21259.00000
    23.7984    26513.00000
    23.8115    30064.00000
    23.8247    30051.00000
    23.8378    27380.00000
    23.8509    23513.00000
    23.8640    22073.00000
    23.8772    20437.00000
    23.8903    18035.00000
    23.9034    14381.00000
    23.9166    11576.00000
    23.9297    10342.00000
    23.9428     9566.00000
    23.9560     9435.00000
    23.9691     9184.00000
    23.9822     9222.00000
    23.9953     9569.00000
    24.0085    10050.00000
    24.0216    10688.00000
    24.0347    12592.00000
    24.0479    15639.00000
    24.0610    21572.00000
    24.0741    29157.00000
    24.0873    36805.00000
    24.1004    40412.00000
    24.1135    37437.00000
    24.1266    32485.00000
    24.1398    29733.00000
    24.1529    27818.00000
    24.1660    24686.00000
    24.1792    20266.00000
    24.1923    15732.00000
    24.2054    12592.00000
    24.2186    10414.00000
    24.2317     9097.00000
    24.2448     8692.00000
    24.2580     8247.00000
    24.2711     8231.00000
    24.2842     8190.00000
    24.2973     8078.00000
    24.3105     7859.00000
    24.3236     8045.00000
    24.3367     7987.00000
    24.3499     8126.00000
    24.3630     7949.00000
    24.3761     8001.00000
    24.3893     7771.00000
    24.4024     7902.00000
    24.4155     7729.00000
    24.4286     7835.00000
    24.4418     7743.00000
    24.4549     7708.00000
    24.4680     7561.00000
    24.4812     7620.00000
    24.4943     7538.00000
    24.5074     7427.00000
    24.5206     7226.00000
    24.5337     7513.00000
    24.5468     7288.00000
    24.5599     7373.00000
    24.5731     7440.00000
    24.5862     7502.00000
    24.5993     7322.00000
    24.6125     7400.00000
    24.6256     7474.00000
    24.6387     7355.00000
    24.6519     7369.00000
    24.6650     7431.00000
    24.6781     7415.00000
    24.6913     7294.00000
    24.7044     7407.00000
    24.7175     7392.00000
    24.7306     7439.00000
    24.7438     7418.00000
    24.7569     7358.00000
    24.7700     7361.00000
    24.7832     7367.00000
    24.7963     7337.00000
    24.8094     7448.00000
    24.8226     7380.00000
    24.8357     7352.00000
    24.8488     7221.00000
    24.8619     7310.00000
    24.8751     7282.00000
    24.8882     7304.00000
    24.9013     7428.00000
    24.9145     7097.00000
    24.9276     7193.00000
    24.9407     7215.00000
    24.9539     7080.00000
    24.9670     7319.00000
    24.9801     7331.00000
    24.9932     7424.00000
    25.0064     7364.00000
    25.0195     7382.00000
    25.0326     7255.00000
    25.0458     7363.00000
    25.0589     7316.00000
    25.0720     7277.00000
    25.0852     7271.00000
    25.0983     7208.00000
    25.1114     7268.00000
    25.1246     7276.00000
    25.1377     7483.00000
    25.1508     7453.00000
    25.1639     7485.00000
    25.1771     7464.00000
    25.1902     7288.00000
    25.2033     7644.00000
    25.2165     7458.00000
    25.2296     7535.00000
    25.2427     7571.00000
    25.2559     7421.00000
    25.2690     7374.00000
    25.2821     7210.00000
    25.2952     7180.00000
    25.3084     7256.00000
    25.3215     7303.00000
    25.3346     7335.00000
    25.3478     7244.00000
    25.3609     7254.00000
    25.3740     7313.00000
    25.3872     7230.00000
    25.4003     7345.00000
    25.4134     7328.00000
    25.4265     7267.00000
    25.4397     7193.00000
    25.4528     7278.00000
    25.4659     7261.00000
    25.4791     7169.00000
    25.4922     7046.00000
    25.5053     7286.00000
    25.5185     7396.00000
    25.5316     7249.00000
    25.5447     7340.00000
    25.5579     7357.00000
    25.5710     7384.00000
    25.5841     7224.00000
    25.5972     7313.00000
    25.6104     7202.00000
    25.6235     7242.00000
    25.6366     7285.00000
    25.6498     7209.00000
    25.6629     7339.00000
    25.6760     7242.00000
    25.6892     7360.00000
    25.7023     7198.00000
    25.7154     7167.00000
    25.7285     7246.00000
    25.7417     7253.00000
    25.7548     7261.00000
    25.7679     7286.00000
    25.7811     7396.00000
    25.7942     7289.00000
    25.8073     7299.00000
    25.8205     7300.00000
    25.8336     7275.00000
    25.8467     7352.00000
    25.8598     7313.00000
    25.8730     7266.00000
    25.8861     7268.00000
    25.8992     7215.00000
    25.9124     7205.00000
    25.9255     7384.00000
    25.9386     7356.00000
    25.9518     7445.00000
    25.9649     7421.00000
    25.9780     7445.00000
    25.9911     7219.00000
    26.0043     7413.00000
    26.0174     7167.00000
    26.0305     7457.00000
    26.0437     7304.00000
    26.0568     7240.00000
    26.0699     7229.00000
    26.0831     7237.00000
    26.0962     7392.00000
    26.1093     7277.00000
    26.1225     7318.00000
    26.1356     7164.00000
    26.1487     7305.00000
    26.1618     7275.00000
    26.1750     7395.00000
    26.1881     7278.00000
    26.2012     7030.00000
    26.2144     7279.00000
    26.2275     7418.00000
    26.2406     7325.00000
    26.2538     7155.00000
    26.2669     7236.00000
    26.2800     7305.00000
    26.2931     7266.00000
    26.3063     7276.00000
    26.3194     7206.00000
    26.3325     7264.00000
    26.3457     7112.00000
    26.3588     7147.00000
    26.3719     7182.00000
    26.3851     7162.00000
    26.3982     7261.00000
    26.4113     7262.00000
    26.4244     7277.00000
    26.4376     7227.00000
    26.4507     7143.00000
    26.4638     7320.00000
    26.4770     7142.00000
    26.4901     6980.00000
    26.5032     7206.00000
    26.5164     7306.00000
    26.5295     7223.00000
    26.5426     7249.00000
    26.5558     7157.00000
    26.5689     7138.00000
    26.5820     6958.00000
    26.5951     7391.00000
    26.6083     7175.00000
    26.6214     7181.00000
    26.6345     7119.00000
    26.6477     7127.00000
    26.6608     7405.00000
    26.6739     7122.00000
    26.6871     7127.00000
    26.7002     7138.00000
    26.7133     7113.00000
    26.7264     7295.00000
    26.7396     7197.00000
    26.7527     7132.00000
    26.7658     7063.00000
    26.7790     7253.00000
    26.7921     7196.00000
    26.8052     7004.00000
    26.8184     7160.00000
    26.8315     7112.00000
    26.8446     7073.00000
    26.8577     7117.00000
    26.8709     6981.00000
    26.8840     7159.00000
    26.8971     7107.00000
    26.9103     7045.00000
    26.9234     7171.00000
    26.9365     7260.00000
    26.9497     7242.00000
    26.9628     7277.00000
    26.9759     7394.00000
    26.9891     7447.00000
    27.0022     7706.00000
    27.0153     7523.00000
    27.0284     7580.00000
    27.0416     7315.00000
    27.0547     7518.00000
    27.0678     7427.00000
    27.0810     7438.00000
    27.0941     7275.00000
    27.1072     7351.00000
    27.1204     7488.00000
    27.1335     7474.00000
    27.1466     7503.00000
    27.1597     7391.00000
    27.1729     7495.00000
    27.1860     7433.00000
    27.1991     7445.00000
    27.2123     7572.00000
    27.2254     7505.00000
    27.2385     7489.00000
    27.2517     7366.00000
    27.2648     7309.00000
    27.2779     7465.00000
    27.2910     7396.00000
    27.3042     7213.00000
    27.3173     7318.00000
    27.3304     7401.00000
    27.3436     7456.00000
    27.3567     7548.00000
    27.3698     7272.00000
    27.3830     7364.00000
    27.3961     7446.00000
    27.4092     7257.00000
    27.4224     7344.00000
    27.4355     7528.00000
    27.4486     7419.00000
    27.4617     7486.00000
    27.4749     7471.00000
    27.4880     7252.00000
    27.5011     7397.00000
    27.5143     7448.00000
    27.5274     7404.00000
    27.5405     7516.00000
    27.5537     7545.00000
    27.5668     7495.00000
    27.5799     7420.00000
    27.5930     7528.00000
    27.6062     7553.00000
    27.6193     7640.00000
    27.6324     7711.00000
    27.6456     7393.00000
    27.6587     7712.00000
    27.6718     8086.00000
    27.6850     8015.00000
    27.6981     8167.00000
    27.7112     8327.00000
    27.7243     8260.00000
    27.7375     8674.00000
    27.7506     8663.00000
    27.7637     9019.00000
    27.7769     9305.00000
    27.7900     9549.00000
    27.8031     9828.00000
    27.8163    10263.00000
    27.8294    10674.00000
    27.8425    11553.00000
    27.8556    12758.00000
    27.8688    14794.00000
    27.8819    17630.00000
    27.8950    22792.00000
    27.9082    31327.00000
    27.9213    43712.00000
    27.9344    59602.00000
    27.9476    75786.00000
    27.9607    86919.00000
    27.9738    89728.00000
    27.9870    83275.00000
    28.0001    73034.00000
    28.0132    65162.00000
    28.0263    59595.00000
    28.0395    54697.00000
    28.0526    47156.00000
    28.0657    37756.00000
    28.0789    28051.00000
    28.0920    20878.00000
    28.1051    16098.00000
    28.1183    13245.00000
    28.1314    11618.00000
    28.1445    10697.00000
    28.1576    10080.00000
    28.1708     9616.00000
    28.1839     9291.00000
    28.1970     9026.00000
    28.2102     8788.00000
    28.2233     8404.00000
    28.2364     8401.00000
    28.2496     8177.00000
    28.2627     8188.00000
    28.2758     7922.00000
    28.2889     7958.00000
    28.3021     7881.00000
    28.3152     7720.00000
    28.3283     7713.00000
    28.3415     7632.00000
    28.3546     7757.00000
    28.3677     7761.00000
    28.3809     7571.00000
    28.3940     7643.00000
    28.4071     7579.00000
    28.4203     7691.00000
    28.4334     7644.00000
    28.4465     7716.00000
    28.4596     8166.00000
    28.4728     8066.00000
    28.4859     8199.00000
    28.4990     8403.00000
    28.5122     8754.00000
    28.5253     8932.00000
    28.5384     8814.00000
    28.5516     8637.00000
    28.5647     8436.00000
    28.5778     8142.00000
    28.5909     8125.00000
    28.6041     8080.00000
    28.6172     8088.00000
    28.6303     7706.00000
    28.6435     7583.00000
    28.6566     7638.00000
    28.6697     7600.00000
    28.6829     7592.00000
    28.6960     7604.00000
    28.7091     7694.00000
    28.7222     7672.00000
    28.7354     7684.00000
    28.7485     7617.00000
    28.7616     7866.00000
    28.7748     7799.00000
    28.7879     7885.00000
    28.8010     7938.00000
    28.8142     7915.00000
    28.8273     8010.00000
    28.8404     8382.00000
    28.8536     8326.00000
    28.8667     8583.00000
    28.8798     9089.00000
    28.8929     9932.00000
    28.9061    11295.00000
    28.9192    13608.00000
    28.9323    18155.00000
    28.9455    26194.00000
    28.9586    34883.00000
    28.9717    40365.00000
    28.9849    38893.00000
    28.9980    33152.00000
    29.0111    27839.00000
    29.0242    26004.00000
    29.0374    26038.00000
    29.0505    25056.00000
    29.0636    22401.00000
    29.0768    17847.00000
    29.0899    14056.00000
    29.1030    11446.00000
    29.1162     9871.00000
    29.1293     9078.00000
    29.1424     8935.00000
    29.1555     9109.00000
    29.1687     9290.00000
    29.1818     9989.00000
    29.1949    11172.00000
    29.2081    12360.00000
    29.2212    13860.00000
    29.2343    15132.00000
    29.2475    16141.00000
    29.2606    16408.00000
    29.2737    15916.00000
    29.2869    15368.00000
    29.3000    14688.00000
    29.3131    14445.00000
    29.3262    14009.00000
    29.3394    13311.00000
    29.3525    12311.00000
    29.3656    11231.00000
    29.3788    10190.00000
    29.3919     9657.00000
    29.4050     9116.00000
    29.4182     8588.00000
    29.4313     8412.00000
    29.4444     8274.00000
    29.4575     8021.00000
    29.4707     7915.00000
    29.4838     7497.00000
    29.4969     7461.00000
    29.5101     7475.00000
    29.5232     7181.00000
    29.5363     7402.00000
    29.5495     7369.00000
    29.5626     7172.00000
    29.5757     7321.00000
    29.5888     7343.00000
    29.6020     7269.00000
    29.6151     7225.00000
    29.6282     7222.00000
    29.6414     7495.00000
    29.6545     7139.00000
    29.6676     7183.00000
    29.6808     6998.00000
    29.6939     7066.00000
    29.7070     7047.00000
    29.7201     7169.00000
    29.7333     7119.00000
    29.7464     7165.00000
    29.7595     7214.00000
    29.7727     7213.00000
    29.7858     7112.00000
    29.7989     7216.00000
    29.8121     7108.00000
    29.8252     7143.00000
    29.8383     7219.00000
    29.8515     7315.00000
    29.8646     7214.00000
    29.8777     7060.00000
    29.8908     7224.00000
    29.9040     7098.00000
    29.9171     7139.00000
    29.9302     7139.00000
    29.9434     6845.00000
    29.9565     6938.00000
    29.9696     6964.00000
    29.9828     6972.00000
    29.9959     7043.00000
    30.0090     7045.00000
    30.0221     7110.00000
    30.0353     7086.00000
    30.0484     6910.00000
    30.0615     7032.00000
    30.0747     7002.00000
    30.0878     6978.00000
    30.1009     7114.00000
    30.1141     7109.00000
    30.1272     7023.00000
    30.1403     7042.00000
    30.1535     7056.00000
    30.1666     7020.00000
    30.1797     6935.00000
    30.1928     7105.00000
    30.2060     7101.00000
    30.2191     6993.00000
    30.2322     6880.00000
    30.2454     6977.00000
    30.2585     7061.00000
    30.2716     6952.00000
    30.2848     7108.00000
    30.2979     6977.00000
    30.3110     7092.00000
    30.3241     7094.00000
    30.3373     7114.00000
    30.3504     7119.00000
    30.3635     7155.00000
    30.3767     6870.00000
    30.3898     6945.00000
    30.4029     6869.00000
    30.4161     6839.00000
    30.4292     6927.00000
    30.4423     7054.00000
    30.4554     7042.00000
    30.4686     7113.00000
    30.4817     7014.00000
    30.4948     7006.00000
    30.5080     7059.00000
    30.5211     6938.00000
    30.5342     6974.00000
    30.5474     6955.00000
    30.5605     6966.00000
    30.5736     6894.00000
    30.5868     7056.00000
    30.5999     7065.00000
    30.6130     6920.00000
    30.6261     6886.00000
    30.6393     6907.00000
    30.6524     7033.00000
    30.6655     6879.00000
    30.6787     6974.00000
    30.6918     6972.00000
    30.7049     7033.00000
    30.7181     6959.00000
    30.7312     6768.00000
    30.7443     7054.00000
    30.7574     6983.00000
    30.7706     7014.00000
    30.7837     6954.00000
    30.7968     6946.00000
    30.8100     6750.00000
    30.8231     7033.00000
    30.8362     6845.00000
    30.8494     6942.00000
    30.8625     6872.00000
    30.8756     6913.00000
    30.8887     6799.00000
    30.9019     6893.00000
    30.9150     7124.00000
    30.9281     6890.00000
    30.9413     6894.00000
    30.9544     6883.00000
    30.9675     6962.00000
    30.9807     7003.00000
    30.9938     6872.00000
    31.0069     6792.00000
    31.0200     6920.00000
    31.0332     6852.00000
    31.0463     6819.00000
    31.0594     6692.00000
    31.0726     6891.00000
    31.0857     6791.00000
    31.0988     6942.00000
    31.1120     6902.00000
    31.1251     6895.00000
    31.1382     7004.00000
    31.1514     7039.00000
    31.1645     6955.00000
    31.1776     6639.00000
    31.1907     6768.00000
    31.2039     6898.00000
    31.2170     6959.00000
    31.2301     6927.00000
    31.2433     6880.00000
    31.2564     6999.00000
    31.2695     6956.00000
    31.2827     6972.00000
    31.2958     6698.00000
    31.3089     6771.00000
    31.3220     6945.00000
    31.3352     6862.00000
    31.3483     6935.00000
    31.3614     6829.00000
    31.3746     6793.00000
    31.3877     6842.00000
    31.4008     6889.00000
    31.4140     6838.00000
    31.4271     6893.00000
    31.4402     6902.00000
    31.4533     6768.00000
    31.4665     6982.00000
    31.4796     6748.00000
    31.4927     6919.00000
    31.5059     6980.00000
    31.5190     6827.00000
    31.5321     6859.00000
    31.5453     6926.00000
    31.5584     6852.00000
    31.5715     6924.00000
    31.5847     6891.00000
    31.5978     6967.00000
    31.6109     7023.00000
    31.6240     7000.00000
    31.6372     6810.00000
    31.6503     6850.00000
    31.6634     6896.00000
    31.6766     6955.00000
    31.6897     6785.00000
    31.7028     6791.00000
    31.7160     6690.00000
    31.7291     6784.00000
    31.7422     6860.00000
    31.7553     6828.00000
    31.7685     6986.00000
    31.7816     6821.00000
    31.7947     6872.00000
    31.8079     6875.00000
    31.8210     6842.00000
    31.8341     6897.00000
    31.8473     7008.00000
    31.8604     6766.00000
    31.8735     6878.00000
    31.8866     6802.00000
    31.8998     7083.00000
    31.9129     7082.00000
    31.9260     6859.00000
    31.9392     6829.00000
    31.9523     6899.00000
    31.9654     6948.00000
    31.9786     6840.00000
    31.9917     6884.00000
    32.0048     6890.00000
    32.0180     6971.00000
    32.0311     6839.00000
    32.0442     6879.00000
    32.0573     6890.00000
    32.0705     6893.00000
    32.0836     6751.00000
    32.0967     6816.00000
    32.1099     6830.00000
    32.1230     6724.00000
    32.1361     6808.00000
    32.1493     6714.00000
    32.1624     6885.00000
    32.1755     6884.00000
    32.1886     6904.00000
    32.2018     6876.00000
    32.2149     7003.00000
    32.2280     7001.00000
    32.2412     6835.00000
    32.2543     6828.00000
    32.2674     6890.00000
    32.2806     7043.00000
    32.2937     6882.00000
    32.3068     6945.00000
    32.3199     7006.00000
    32.3331     6929.00000
    32.3462     6913.00000
    32.3593     7006.00000
    32.3725     6915.00000
    32.3856     6934.00000
    32.3987     6963.00000
    32.4119     6785.00000
    32.4250     6945.00000
    32.4381     7002.00000
    32.4512     6760.00000
    32.4644     6809.00000
    32.4775     6934.00000
    32.4906     6815.00000
    32.5038     6784.00000
    32.5169     6889.00000
    32.5300     6954.00000
    32.5432     6939.00000
    32.5563     6987.00000
    32.5694     6951.00000
    32.5826     6816.00000
    32.5957     6724.00000
    32.6088     6887.00000
    32.6219     7243.00000
    32.6351     6881.00000
    32.6482     7078.00000
    32.6613     6844.00000
    32.6745     6909.00000
    32.6876     7009.00000
    32.7007     6961.00000
    32.7139     7080.00000
    32.7270     7129.00000
    32.7401     7401.00000
    32.7532     7308.00000
    32.7664     7384.00000
    32.7795     7544.00000
    32.7926     7670.00000
    32.8058     7867.00000
    32.8189     8305.00000
    32.8320     9219.00000
    32.8452    10684.00000
    32.8583    12254.00000
    32.8714    14355.00000
    32.8845    15330.00000
    32.8977    15319.00000
    32.9108    14609.00000
    32.9239    12909.00000
    32.9371    12920.00000
    32.9502    13334.00000
    32.9633    14534.00000
    32.9765    16780.00000
    32.9896    19428.00000
    33.0027    21750.00000
    33.0159    21771.00000
    33.0290    19726.00000
    33.0421    16225.00000
    33.0552    13979.00000
    33.0684    13575.00000
    33.0815    13760.00000
    33.0946    14190.00000
    33.1078    13650.00000
    33.1209    12001.00000
    33.1340    10269.00000
    33.1472     8806.00000
    33.1603     8077.00000
    33.1734     7797.00000
    33.1865     7514.00000
    33.1997     7481.00000
    33.2128     7253.00000
    33.2259     7181.00000
    33.2391     7113.00000
    33.2522     6985.00000
    33.2653     6997.00000
    33.2785     6935.00000
    33.2916     6897.00000
    33.3047     6951.00000
    33.3178     6959.00000
    33.3310     6943.00000
    33.3441     7005.00000
    33.3572     6900.00000
    33.3704     7032.00000
    33.3835     7115.00000
    33.3966     7044.00000
    33.4098     6936.00000
    33.4229     7054.00000
    33.4360     7018.00000
    33.4492     7089.00000
    33.4623     7071.00000
    33.4754     6815.00000
    33.4885     7106.00000
    33.5017     7169.00000
    33.5148     7099.00000
    33.5279     7345.00000
    33.5411     7318.00000
    33.5542     7638.00000
    33.5673     7827.00000
    33.5805     8206.00000
    33.5936     9122.00000
    33.6067    10375.00000
    33.6198    11616.00000
    33.6330    13429.00000
    33.6461    14636.00000
    33.6592    15062.00000
    33.6724    14344.00000
    33.6855    13437.00000
    33.6986    11988.00000
    33.7118    11426.00000
    33.7249    11422.00000
    33.7380    11169.00000
    33.7511    10826.00000
    33.7643    10061.00000
    33.7774     9218.00000
    33.7905     8361.00000
    33.8037     7728.00000
    33.8168     7340.00000
    33.8299     7211.00000
    33.8431     7242.00000
    33.8562     7244.00000
    33.8693     7057.00000
    33.8825     7275.00000
    33.8956     7328.00000
    33.9087     7337.00000
    33.9218     7620.00000
    33.9350     7857.00000
    33.9481     7825.00000
    33.9612     7812.00000
    33.9744     7983.00000
    33.9875     7607.00000
    34.0006     7414.00000
    34.0138     7511.00000
    34.0269     7544.00000
    34.0400     7422.00000
    34.0531     7476.00000
    34.0663     7829.00000
    34.0794     7672.00000
    34.0925     8057.00000
    34.1057     8721.00000
    34.1188    10031.00000
    34.1319    11239.00000
    34.1451    13061.00000
    34.1582    13874.00000
    34.1713    13429.00000
    34.1844    12580.00000
    34.1976    11243.00000
    34.2107    10643.00000
    34.2238    10173.00000
    34.2370    10514.00000
    34.2501    10326.00000
    34.2632     9864.00000
    34.2764     9181.00000
    34.2895     8652.00000
    34.3026     7876.00000
    34.3158     7385.00000
    34.3289     7072.00000
    34.3420     7028.00000
    34.3551     6937.00000
    34.3683     6938.00000
    34.3814     6876.00000
    34.3945     6823.00000
    34.4077     6868.00000
    34.4208     6843.00000
    34.4339     6721.00000
    34.4471     6805.00000
    34.4602     6757.00000
    34.4733     6723.00000
    34.4864     6768.00000
    34.4996     6716.00000
    34.5127     6843.00000
    34.5258     6783.00000
    34.5390     6761.00000
    34.5521     6818.00000
    34.5652     6733.00000
    34.5784     6807.00000
    34.5915     6848.00000
    34.6046     6802.00000
    34.6177     6821.00000
    34.6309     6835.00000
    34.6440     6599.00000
    34.6571     6625.00000
    34.6703     6863.00000
    34.6834     6813.00000
    34.6965     6917.00000
    34.7097     6981.00000
    34.7228     6931.00000
    34.7359     6970.00000
    34.7491     7058.00000
    34.7622     7130.00000
    34.7753     7359.00000
    34.7884     7719.00000
    34.8016     8544.00000
    34.8147     9406.00000
    34.8278    10516.00000
    34.8410    11577.00000
    34.8541    11734.00000
    34.8672    11495.00000
    34.8804    11154.00000
    34.8935    10299.00000
    34.9066     9947.00000
    34.9197     9798.00000
    34.9329     9404.00000
    34.9460     9275.00000
    34.9591     9178.00000
    34.9723     8722.00000
    34.9854     8208.00000
    34.9985     7761.00000
    35.0117     7304.00000
    35.0248     7368.00000
    35.0379     7378.00000
    35.0510     7382.00000
    35.0642     7452.00000
    35.0773     7455.00000
    35.0904     7499.00000
    35.1036     7281.00000
    35.1167     7004.00000
    35.1298     7031.00000
    35.1430     7157.00000
    35.1561     6977.00000
    35.1692     7072.00000
    35.1824     7077.00000
    35.1955     6810.00000
    35.2086     6860.00000
    35.2217     6755.00000
    35.2349     6632.00000
    35.2480     6661.00000
    35.2611     6677.00000
    35.2743     6558.00000
    35.2874     6723.00000
    35.3005     6721.00000
    35.3137     6604.00000
    35.3268     6588.00000
    35.3399     6631.00000
    35.3530     6598.00000
    35.3662     6641.00000
    35.3793     6660.00000
    35.3924     6615.00000
    35.4056     6536.00000
    35.4187     6646.00000
    35.4318     6697.00000
    35.4450     6620.00000
    35.4581     6484.00000
    35.4712     6771.00000
    35.4843     6496.00000
    35.4975     6702.00000
    35.5106     6479.00000
    35.5237     6597.00000
    35.5369     6685.00000
    35.5500     6762.00000
    35.5631     6725.00000
    35.5763     6539.00000
    35.5894     6525.00000
    35.6025     6610.00000
    35.6156     6561.00000
    35.6288     6575.00000
    35.6419     6667.00000
    35.6550     6633.00000
    35.6682     6474.00000
    35.6813     6457.00000
    35.6944     6621.00000
    35.7076     6543.00000
    35.7207     6592.00000
    35.7338     6520.00000
    35.7470     6644.00000
    35.7601     6665.00000
    35.7732     6706.00000
    35.7863     6578.00000
    35.7995     6526.00000
    35.8126     6572.00000
    35.8257     6687.00000
    35.8389     6616.00000
    35.8520     6499.00000
    35.8651     6467.00000
    35.8783     6498.00000
    35.8914     6449.00000
    35.9045     6559.00000
    35.9176     6640.00000
    35.9308     6485.00000
    35.9439     6432.00000
    35.9570     6443.00000
    35.9702     6380.00000
    35.9833     6592.00000
    35.9964     6633.00000
    36.0096     6651.00000
    36.0227     6565.00000
    36.0358     6713.00000
    36.0489     6685.00000
    36.0621     6616.00000
    36.0752     6524.00000
    36.0883     6655.00000
    36.1015     6770.00000
    36.1146     6671.00000
    36.1277     6479.00000
    36.1409     6699.00000
    36.1540     6650.00000
    36.1671     6695.00000
    36.1802     6642.00000
    36.1934     6689.00000
    36.2065     6634.00000
    36.2196     6692.00000
    36.2328     6797.00000
    36.2459     6815.00000
    36.2590     6793.00000
    36.2722     6768.00000
    36.2853     6596.00000
    36.2984     6612.00000
    36.3116     6730.00000
    36.3247     6669.00000
    36.3378     6628.00000
    36.3509     6495.00000
    36.3641     6654.00000
    36.3772     6811.00000
    36.3903     6670.00000
    36.4035     6798.00000
    36.4166     7162.00000
    36.4297     7200.00000
    36.4429     7509.00000
    36.4560     8315.00000
    36.4691     9156.00000
    36.4822     9795.00000
    36.4954    10120.00000
    36.5085     9682.00000
    36.5216     8731.00000
    36.5348     8450.00000
    36.5479     7970.00000
    36.5610     7958.00000
    36.5742     8383.00000
    36.5873     8336.00000
    36.6004     8120.00000
    36.6135     7776.00000
    36.6267     7320.00000
    36.6398     7043.00000
    36.6529     6859.00000
    36.6661     6895.00000
    36.6792     6774.00000
    36.6923     6773.00000
    36.7055     6728.00000
    36.7186     6481.00000
    36.7317     6563.00000
    36.7449     6526.00000
    36.7580     6610.00000
    36.7711     6645.00000
    36.7842     6502.00000
    36.7974     6649.00000
    36.8105     6412.00000
    36.8236     6542.00000
    36.8368     6442.00000
    36.8499     6623.00000
    36.8630     6675.00000
    36.8762     6619.00000
    36.8893     6419.00000
    36.9024     6375.00000
    36.9155     6490.00000
    36.9287     6562.00000
    36.9418     6537.00000
    36.9549     6612.00000
    36.9681     6795.00000
    36.9812     6757.00000
    36.9943     6642.00000
    37.0075     6373.00000
    37.0206     6741.00000
    37.0337     6631.00000
    37.0468     6571.00000
    37.0600     6374.00000
    37.0731     6428.00000
    37.0862     6582.00000
    37.0994     6493.00000
    37.1125     6692.00000
    37.1256     6719.00000
    37.1388     6520.00000
    37.1519     6477.00000
    37.1650     6580.00000
    37.1782     6546.00000
    37.1913     6537.00000
    37.2044     6439.00000
    37.2175     6595.00000
    37.2307     6594.00000
    37.2438     6565.00000
    37.2569     6692.00000
    37.2701     6608.00000
    37.2832     6657.00000
    37.2963     6656.00000
    37.3095     6437.00000
    37.3226     6545.00000
    37.3357     6650.00000
    37.3488     6702.00000
    37.3620     6654.00000
    37.3751     6670.00000
    37.3882     6782.00000
    37.4014     6810.00000
    37.4145     6917.00000
    37.4276     6906.00000
    37.4408     7344.00000
    37.4539     7403.00000
    37.4670     7349.00000
    37.4801     7448.00000
    37.4933     7279.00000
    37.5064     7242.00000
    37.5195     7212.00000
    37.5327     7384.00000
    37.5458     7534.00000
    37.5589     7561.00000
    37.5721     7841.00000
    37.5852     8472.00000
    37.5983     8776.00000
    37.6115     9502.00000
    37.6246    10360.00000
    37.6377    10958.00000
    37.6508    11523.00000
    37.6640    11531.00000
    37.6771    11089.00000
    37.6902    10513.00000
    37.7034    10207.00000
    37.7165    10155.00000
    37.7296    10985.00000
    37.7428    11524.00000
    37.7559    11318.00000
    37.7690    10742.00000
    37.7821     9846.00000
    37.7953     8897.00000
    37.8084     8383.00000
    37.8215     8030.00000
    37.8347     8344.00000
    37.8478     8066.00000
    37.8609     7866.00000
    37.8741     7478.00000
    37.8872     7110.00000
    37.9003     6955.00000
    37.9134     6858.00000
    37.9266     6695.00000
    37.9397     6764.00000
    37.9528     6642.00000
    37.9660     6552.00000
    37.9791     6502.00000
    37.9922     6500.00000
    38.0054     6682.00000
    38.0185     6641.00000
    38.0316     6661.00000
    38.0448     6479.00000
    38.0579     6687.00000
    38.0710     6741.00000
    38.0841     6521.00000
    38.0973     6488.00000
    38.1104     6614.00000
    38.1235     6623.00000
    38.1367     6653.00000
    38.1498     6610.00000
    38.1629     6644.00000
    38.1761     6619.00000
    38.1892     6523.00000
    38.2023     6516.00000
    38.2154     6376.00000
    38.2286     6404.00000
    38.2417     6635.00000
    38.2548     6571.00000
    38.2680     6504.00000
    38.2811     6551.00000
    38.2942     6562.00000
    38.3074     6415.00000
    38.3205     6306.00000
    38.3336     6314.00000
    38.3467     6426.00000
    38.3599     6660.00000
    38.3730     6449.00000
    38.3861     6465.00000
    38.3993     6348.00000
    38.4124     6444.00000
    38.4255     6423.00000
    38.4387     6554.00000
    38.4518     6442.00000
    38.4649     6352.00000
    38.4781     6433.00000
    38.4912     6499.00000
    38.5043     6524.00000
    38.5174     6599.00000
    38.5306     6517.00000
    38.5437     6537.00000
    38.5568     6417.00000
    38.5700     6664.00000
    38.5831     6501.00000
    38.5962     6550.00000
    38.6094     6593.00000
    38.6225     6518.00000
    38.6356     6542.00000
    38.6487     6689.00000
    38.6619     6723.00000
    38.6750     6559.00000
    38.6881     6558.00000
    38.7013     6586.00000
    38.7144     6557.00000
    38.7275     6553.00000
    38.7407     6549.00000
    38.7538     6360.00000
    38.7669     6376.00000
    38.7800     6486.00000
    38.7932     6498.00000
    38.8063     6442.00000
    38.8194     6676.00000
    38.8326     6544.00000
    38.8457     6371.00000
    38.8588     6402.00000
    38.8720     6420.00000
    38.8851     6347.00000
    38.8982     6408.00000
    38.9114     6515.00000
    38.9245     6508.00000
    38.9376     6502.00000
    38.9507     6606.00000
    38.9639     6612.00000
    38.9770     6735.00000
    38.9901     6571.00000
    39.0033     6670.00000
    39.0164     6540.00000
    39.0295     6416.00000
    39.0427     6498.00000
    39.0558     6748.00000
    39.0689     6784.00000
    39.0820     6659.00000
    39.0952     6604.00000
    39.1083     6755.00000
    39.1214     6840.00000
    39.1346     6956.00000
    39.1477     7339.00000
    39.1608     8021.00000
    39.1740     8871.00000
    39.1871     9517.00000
    39.2002     9368.00000
    39.2133     8752.00000
    39.2265     8174.00000
    39.2396     7533.00000
    39.2527     7654.00000
    39.2659     7712.00000
    39.2790     8051.00000
    39.2921     8133.00000
    39.3053     7990.00000
    39.3184     7488.00000
    39.3315     7129.00000
    39.3446     6910.00000
    39.3578     6652.00000
    39.3709     6640.00000
    39.3840     6646.00000
    39.3972     6645.00000
    39.4103     6592.00000
    39.4234     6476.00000
    39.4366     6456.00000
    39.4497     6597.00000
    39.4628     6554.00000
    39.4760     6551.00000
    39.4891     6606.00000
    39.5022     6508.00000
    39.5153     6138.00000
    39.5285     6309.00000
    39.5416     6478.00000
    39.5547     6478.00000
    39.5679     6480.00000
    39.5810     6553.00000
    39.5941     6454.00000
    39.6073     6436.00000
    39.6204     6596.00000
    39.6335     6593.00000
    39.6466     6544.00000
    39.6598     6649.00000
    39.6729     6538.00000
    39.6860     6484.00000
    39.6992     6449.00000
    39.7123     6574.00000
    39.7254     6425.00000
    39.7386     6591.00000
    39.7517     6393.00000
    39.7648     6413.00000
    39.7779     6323.00000
    39.7911     6294.00000
    39.8042     6602.00000
    39.8173     6689.00000
    39.8305     6620.00000
    39.8436     6585.00000
    39.8567     6476.00000
    39.8699     6503.00000
    39.8830     6483.00000
    39.8961     6544.00000
    39.9092     6283.00000
    39.9224     6516.00000
    39.9355     6478.00000
    39.9486     6416.00000
    39.9618     6517.00000
    39.9749     6561.00000
    39.9880     6527.00000
    40.0012     6654.00000
    40.0143     6518.00000
    40.0274     6541.00000
    40.0406     6632.00000
    40.0537     6689.00000
    40.0668     6491.00000
    40.0799     6587.00000
    40.0931     6774.00000
    40.1062     6582.00000
    40.1193     6612.00000
    40.1325     6955.00000
    40.1456     7048.00000
    40.1587     7177.00000
    40.1719     7601.00000
    40.1850     7905.00000
    40.1981     7988.00000
    40.2112     8184.00000
    40.2244     8608.00000
    40.2375     9074.00000
    40.2506     9245.00000
    40.2638     9917.00000
    40.2769     9750.00000
    40.2900     9560.00000
    40.3032     9026.00000
    40.3163     8475.00000
    40.3294     8125.00000
    40.3425     8124.00000
    40.3557     8080.00000
    40.3688     7975.00000
    40.3819     8040.00000
    40.3951     7915.00000
    40.4082     7582.00000
    40.4213     7063.00000
    40.4345     6658.00000
    40.4476     6645.00000
    40.4607     6707.00000
    40.4739     6648.00000
    40.4870     6685.00000
    40.5001     6524.00000
    40.5132     6641.00000
    40.5264     6595.00000
    40.5395     6682.00000
    40.5526     6430.00000
    40.5658     6402.00000
    40.5789     6405.00000
    40.5920     6559.00000
    40.6052     6642.00000
    40.6183     6526.00000
    40.6314     6524.00000
    40.6445     6504.00000
    40.6577     6391.00000
    40.6708     6504.00000
    40.6839     6503.00000
    40.6971     6597.00000
    40.7102     6664.00000
    40.7233     6511.00000
    40.7365     6498.00000
    40.7496     6471.00000
    40.7627     6310.00000
    40.7758     6497.00000
    40.7890     6374.00000
    40.8021     6499.00000
    40.8152     6654.00000
    40.8284     6512.00000
    40.8415     6521.00000
    40.8546     6574.00000
    40.8678     6644.00000
    40.8809     6627.00000
    40.8940     6739.00000
    40.9072     6962.00000
    40.9203     6867.00000
    40.9334     6908.00000
    40.9465     6935.00000
    40.9597     7326.00000
    40.9728     7704.00000
    40.9859     8137.00000
    40.9991     8557.00000
    41.0122     8755.00000
    41.0253     9156.00000
    41.0385     9536.00000
    41.0516     9770.00000
    41.0647    10594.00000
    41.0778    11348.00000
    41.0910    12001.00000
    41.1041    12035.00000
    41.1172    11728.00000
    41.1304    11455.00000
    41.1435    10776.00000
    41.1566    10899.00000
    41.1698    11308.00000
    41.1829    11497.00000
    41.1960    11421.00000
    41.2091    11024.00000
    41.2223     9989.00000
    41.2354     9186.00000
    41.2485     8633.00000
    41.2617     8303.00000
    41.2748     8267.00000
    41.2879     8116.00000
    41.3011     8036.00000
    41.3142     7632.00000
    41.3273     7308.00000
    41.3405     7126.00000
    41.3536     6871.00000
    41.3667     6824.00000
    41.3798     6668.00000
    41.3930     6696.00000
    41.4061     6636.00000
    41.4192     6342.00000
    41.4324     6473.00000
    41.4455     6410.00000
    41.4586     6559.00000
    41.4718     6531.00000
    41.4849     6445.00000
    41.4980     6485.00000
    41.5111     6357.00000
    41.5243     6495.00000
    41.5374     6604.00000
    41.5505     6411.00000
    41.5637     6246.00000
    41.5768     6347.00000
    41.5899     6445.00000
    41.6031     6458.00000
    41.6162     6519.00000
    41.6293     6529.00000
    41.6424     6372.00000
    41.6556     6555.00000
    41.6687     6460.00000
    41.6818     6311.00000
    41.6950     6276.00000
    41.7081     6377.00000
    41.7212     6342.00000
    41.7344     6430.00000
    41.7475     6509.00000
    41.7606     6410.00000
    41.7738     6514.00000
    41.7869     6542.00000
    41.8000     6453.00000
    41.8131     6382.00000
    41.8263     6426.00000
    41.8394     6350.00000
    41.8525     6395.00000
    41.8657     6437.00000
    41.8788     6664.00000
    41.8919     6350.00000
    41.9051     6445.00000
    41.9182     6617.00000
    41.9313     6626.00000
    41.9444     6371.00000
    41.9576     6363.00000
    41.9707     6453.00000
    41.9838     6467.00000
    41.9970     6516.00000
    42.0101     6320.00000
    42.0232     6316.00000
    42.0364     6289.00000
    42.0495     6411.00000
    42.0626     6513.00000
    42.0757     6482.00000
    42.0889     6490.00000
    42.1020     6471.00000
    42.1151     6406.00000
    42.1283     6284.00000
    42.1414     6388.00000
    42.1545     6328.00000
    42.1677     6368.00000
    42.1808     6532.00000
    42.1939     6506.00000
    42.2071     6558.00000
    42.2202     6643.00000
    42.2333     6397.00000
    42.2464     6331.00000
    42.2596     6344.00000
    42.2727     6266.00000
    42.2858     6324.00000
    42.2990     6472.00000
    42.3121     6396.00000
    42.3252     6316.00000
    42.3384     6454.00000
    42.3515     6344.00000
    42.3646     6352.00000
    42.3777     6384.00000
    42.3909     6442.00000
    42.4040     6322.00000
    42.4171     6211.00000
    42.4303     6337.00000
    42.4434     6444.00000
    42.4565     6389.00000
    42.4697     6290.00000
    42.4828     6496.00000
    42.4959     6424.00000
    42.5090     6179.00000
    42.5222     6314.00000
    42.5353     6400.00000
    42.5484     6454.00000
    42.5616     6503.00000
    42.5747     6336.00000
    42.5878     6317.00000
    42.6010     6537.00000
    42.6141     6244.00000
    42.6272     6340.00000
    42.6404     6425.00000
    42.6535     6511.00000
    42.6666     6386.00000
    42.6797     6236.00000
    42.6929     6243.00000
    42.7060     6063.00000
    42.7191     6325.00000
    42.7323     6413.00000
    42.7454     6537.00000
    42.7585     6399.00000
    42.7717     6389.00000
    42.7848     6497.00000
    42.7979     6202.00000
    42.8110     6287.00000
    42.8242     6466.00000
    42.8373     6364.00000
    42.8504     6321.00000
    42.8636     6455.00000
    42.8767     6334.00000
    42.8898     6469.00000
    42.9030     6373.00000
    42.9161     6359.00000
    42.9292     6317.00000
    42.9423     6580.00000
    42.9555     6525.00000
    42.9686     6430.00000
    42.9817     6318.00000
    42.9949     6454.00000
    43.0080     6204.00000
    43.0211     6415.00000
    43.0343     6561.00000
    43.0474     6500.00000
    43.0605     6516.00000
    43.0736     6286.00000
    43.0868     6436.00000
    43.0999     6359.00000
    43.1130     6384.00000
    43.1262     6353.00000
    43.1393     6354.00000
    43.1524     6385.00000
    43.1656     6346.00000
    43.1787     6255.00000
    43.1918     6351.00000
    43.2050     6491.00000
    43.2181     6469.00000
    43.2312     6358.00000
    43.2443     6323.00000
    43.2575     6426.00000
    43.2706     6550.00000
    43.2837     6289.00000
    43.2969     6294.00000
    43.3100     6357.00000
    43.3231     6419.00000
    43.3363     6353.00000
    43.3494     6525.00000
    43.3625     6506.00000
    43.3756     6306.00000
    43.3888     6396.00000
    43.4019     6417.00000
    43.4150     6524.00000
    43.4282     6403.00000
    43.4413     6418.00000
    43.4544     6616.00000
    43.4676     6541.00000
    43.4807     6575.00000
    43.4938     6831.00000
    43.5069     6723.00000
    43.5201     7195.00000
    43.5332     7427.00000
    43.5463     7657.00000
    43.5595     7809.00000
    43.5726     7784.00000
    43.5857     7690.00000
    43.5989     7557.00000
    43.6120     7191.00000
    43.6251     7161.00000
    43.6383     7403.00000
    43.6514     7291.00000
    43.6645     7309.00000
    43.6776     7197.00000
    43.6908     7236.00000
    43.7039     7017.00000
    43.7170     6787.00000
    43.7302     6686.00000
    43.7433     6508.00000
    43.7564     6590.00000
    43.7696     6596.00000
    43.7827     6452.00000
    43.7958     6371.00000
    43.8089     6466.00000
    43.8221     6322.00000
    43.8352     6532.00000
    43.8483     6445.00000
    43.8615     6363.00000
    43.8746     6319.00000
    43.8877     6446.00000
    43.9009     6459.00000
    43.9140     6486.00000
    43.9271     6336.00000
    43.9402     6262.00000
    43.9534     6444.00000
    43.9665     6299.00000
    43.9796     6562.00000
    43.9928     6413.00000
    44.0059     6376.00000
    44.0190     6481.00000
    44.0322     6511.00000
    44.0453     6528.00000
    44.0584     6577.00000
    44.0715     6683.00000
    44.0847     6834.00000
    44.0978     6726.00000
    44.1109     6666.00000
    44.1241     6428.00000
    44.1372     6487.00000
    44.1503     6414.00000
    44.1635     6389.00000
    44.1766     6562.00000
    44.1897     6577.00000
    44.2029     6677.00000
    44.2160     6555.00000
    44.2291     6555.00000
    44.2422     6231.00000
    44.2554     6488.00000
    44.2685     6488.00000
    44.2816     6518.00000
    44.2948     6532.00000
    44.3079     6521.00000
    44.3210     6550.00000
    44.3342     6689.00000
    44.3473     6521.00000
    44.3604     6627.00000
    44.3735     6795.00000
    44.3867     6700.00000
    44.3998     6522.00000
    44.4129     6680.00000
    44.4261     6765.00000
    44.4392     6685.00000
    44.4523     6794.00000
    44.4655     7111.00000
    44.4786     7364.00000
    44.4917     7641.00000
    44.5048     7992.00000
    44.5180     8560.00000
    44.5311     9569.00000
    44.5442    10711.00000
    44.5574    11776.00000
    44.5705    12682.00000
    44.5836    13043.00000
    44.5968    12822.00000
    44.6099    12099.00000
    44.6230    11013.00000
    44.6362    10009.00000
    44.6493     9703.00000
    44.6624     9560.00000
    44.6755     9741.00000
    44.6887     9864.00000
    44.7018     9910.00000
    44.7149     9882.00000
    44.7281     9258.00000
    44.7412     8448.00000
    44.7543     7759.00000
    44.7675     7203.00000
    44.7806     7278.00000
    44.7937     7067.00000
    44.8068     6808.00000
    44.8200     6754.00000
    44.8331     6771.00000
    44.8462     6530.00000
    44.8594     6464.00000
    44.8725     6488.00000
    44.8856     6545.00000
    44.8988     6803.00000
    44.9119     6639.00000
    44.9250     6404.00000
    44.9381     6327.00000
    44.9513     6405.00000
    44.9644     6412.00000
    44.9775     6421.00000
    44.9907     6407.00000
    45.0038     6417.00000
    45.0169     6472.00000
    45.0301     6535.00000
    45.0432     6324.00000
    45.0563     6305.00000
    45.0695     6397.00000
    45.0826     6368.00000
    45.0957     6470.00000
    45.1088     6480.00000
    45.1220     6477.00000
    45.1351     6372.00000
    45.1482     6282.00000
    45.1614     6324.00000
    45.1745     6520.00000
    45.1876     6210.00000
    45.2008     6381.00000
    45.2139     6462.00000
    45.2270     6396.00000
    45.2401     6403.00000
    45.2533     6357.00000
    45.2664     6407.00000
    45.2795     6369.00000
    45.2927     6384.00000
    45.3058     6357.00000
    45.3189     6402.00000
    45.3321     6516.00000
    45.3452     6272.00000
    45.3583     6312.00000
    45.3714     6277.00000
    45.3846     6399.00000
    45.3977     6300.00000
    45.4108     6222.00000
    45.4240     6237.00000
    45.4371     6440.00000
    45.4502     6273.00000
    45.4634     6364.00000
    45.4765     6416.00000
    45.4896     6416.00000
    45.5028     6272.00000
    45.5159     6228.00000
    45.5290     6461.00000
    45.5421     6444.00000
    45.5553     6445.00000
    45.5684     6431.00000
    45.5815     6347.00000
    45.5947     6349.00000
    45.6078     6310.00000
    45.6209     6483.00000
    45.6341     6500.00000
    45.6472     6378.00000
    45.6603     6215.00000
    45.6734     6326.00000
    45.6866     6475.00000
    45.6997     6494.00000
    45.7128     6352.00000
    45.7260     6306.00000
    45.7391     6295.00000
    45.7522     6579.00000
    45.7654     6484.00000
    45.7785     6559.00000
    45.7916     6591.00000
    45.8047     6601.00000
    45.8179     6572.00000
    45.8310     6601.00000
    45.8441     6557.00000
    45.8573     6604.00000
    45.8704     6742.00000
    45.8835     6719.00000
    45.8967     6713.00000
    45.9098     6723.00000
    45.9229     6853.00000
    45.9361     6945.00000
    45.9492     6758.00000
    45.9623     6851.00000
    45.9754     7016.00000
    45.9886     7405.00000
    46.0017     7477.00000
    46.0148     7941.00000
    46.0280     8621.00000
    46.0411     9704.00000
    46.0542    11781.00000
    46.0674    14233.00000
    46.0805    17049.00000
    46.0936    18402.00000
    46.1067    18886.00000
    46.1199    18598.00000
    46.1330    17257.00000
    46.1461    15091.00000
    46.1593    13157.00000
    46.1724    11978.00000
    46.1855    11865.00000
    46.1987    12259.00000
    46.2118    12944.00000
    46.2249    13240.00000
    46.2380    12970.00000
    46.2512    12389.00000
    46.2643    11425.00000
    46.2774    10215.00000
    46.2906     9128.00000
    46.3037     8575.00000
    46.3168     7939.00000
    46.3300     7502.00000
    46.3431     7262.00000
    46.3562     7033.00000
    46.3694     7004.00000
    46.3825     7031.00000
    46.3956     7047.00000
    46.4087     6952.00000
    46.4219     7002.00000
    46.4350     7019.00000
    46.4481     6795.00000
    46.4613     6761.00000
    46.4744     6721.00000
    46.4875     6630.00000
    46.5007     6670.00000
    46.5138     6609.00000
    46.5269     6554.00000
    46.5400     6637.00000
    46.5532     6439.00000
    46.5663     6466.00000
    46.5794     6606.00000
    46.5926     6585.00000
    46.6057     6529.00000
    46.6188     6487.00000
    46.6320     6531.00000
    46.6451     6479.00000
    46.6582     6642.00000
    46.6713     6286.00000
    46.6845     6690.00000
    46.6976     6424.00000
    46.7107     6479.00000
    46.7239     6561.00000
    46.7370     6416.00000
    46.7501     6473.00000
    46.7633     6520.00000
    46.7764     6495.00000
    46.7895     6580.00000
    46.8027     6659.00000
    46.8158     6397.00000
    46.8289     6352.00000
    46.8420     6352.00000
    46.8552     6540.00000
    46.8683     6454.00000
    46.8814     6217.00000
    46.8946     6361.00000
    46.9077     6442.00000
    46.9208     6301.00000
    46.9340     6369.00000
    46.9471     6425.00000
    46.9602     6394.00000
    46.9733     6473.00000
    46.9865     6346.00000
    46.9996     6422.00000
    47.0127     6426.00000
    47.0259     6429.00000
    47.0390     6431.00000
    47.0521     6308.00000
    47.0653     6185.00000
    47.0784     6320.00000
    47.0915     6453.00000
    47.1046     6543.00000
    47.1178     6484.00000
    47.1309     6410.00000
    47.1440     6679.00000
    47.1572     6408.00000
    47.1703     6608.00000
    47.1834     6493.00000
    47.1966     6520.00000
    47.2097     6491.00000
    47.2228     6656.00000
    47.2359     6652.00000
    47.2491     6563.00000
    47.2622     6662.00000
    47.2753     6698.00000
    47.2885     6676.00000
    47.3016     6766.00000
    47.3147     6988.00000
    47.3279     7061.00000
    47.3410     7255.00000
    47.3541     7634.00000
    47.3673     7844.00000
    47.3804     8092.00000
    47.3935     8538.00000
    47.4066     8869.00000
    47.4198     8906.00000
    47.4329     8805.00000
    47.4460     8611.00000
    47.4592     8531.00000
    47.4723     8285.00000
    47.4854     8344.00000
    47.4986     8779.00000
    47.5117     9492.00000
    47.5248    10782.00000
    47.5379    12365.00000
    47.5511    13493.00000
    47.5642    14087.00000
    47.5773    12994.00000
    47.5905    11370.00000
    47.6036     9738.00000
    47.6167     8769.00000
    47.6299     8335.00000
    47.6430     8536.00000
    47.6561     9004.00000
    47.6692     9758.00000
    47.6824    10064.00000
    47.6955    10169.00000
    47.7086     9223.00000
    47.7218     8541.00000
    47.7349     7878.00000
    47.7480     7523.00000
    47.7612     7298.00000
    47.7743     7193.00000
    47.7874     6897.00000
    47.8005     6986.00000
    47.8137     7073.00000
    47.8268     7002.00000
    47.8399     6995.00000
    47.8531     6997.00000
    47.8662     6961.00000
    47.8793     7017.00000
    47.8925     7128.00000
    47.9056     6967.00000
    47.9187     7040.00000
    47.9319     6964.00000
    47.9450     7040.00000
    47.9581     7131.00000
    47.9712     7326.00000
    47.9844     7165.00000
    47.9975     7448.00000
    48.0106     7413.00000
    48.0238     7866.00000
    48.0369     8215.00000
    48.0500     8688.00000
    48.0632     9520.00000
    48.0763    10417.00000
    48.0894    11956.00000
    48.1025    13760.00000
    48.1157    15552.00000
    48.1288    17174.00000
    48.1419    18226.00000
    48.1551    18585.00000
    48.1682    18221.00000
    48.1813    16763.00000
    48.1945    14988.00000
    48.2076    13540.00000
    48.2207    12682.00000
    48.2338    12492.00000
    48.2470    12522.00000
    48.2601    12981.00000
    48.2732    12926.00000
    48.2864    12721.00000
    48.2995    12177.00000
    48.3126    11195.00000
    48.3258    10118.00000
    48.3389     8954.00000
    48.3520     8273.00000
    48.3652     7806.00000
    48.3783     7459.00000
    48.3914     7331.00000
    48.4045     7083.00000
    48.4177     6992.00000
    48.4308     7026.00000
    48.4439     6910.00000
    48.4571     6716.00000
    48.4702     6889.00000
    48.4833     6804.00000
    48.4965     6617.00000
    48.5096     6559.00000
    48.5227     6678.00000
    48.5358     6553.00000
    48.5490     6460.00000
    48.5621     6487.00000
    48.5752     6707.00000
    48.5884     6864.00000
    48.6015     6642.00000
    48.6146     6604.00000
    48.6278     6863.00000
    48.6409     6836.00000
    48.6540     6900.00000
    48.6671     6816.00000
    48.6803     7214.00000
    48.6934     7655.00000
    48.7065     7658.00000
    48.7197     7960.00000
    48.7328     8028.00000
    48.7459     7976.00000
    48.7591     7880.00000
    48.7722     7697.00000
    48.7853     7542.00000
    48.7985     7700.00000
    48.8116     7829.00000
    48.8247     7738.00000
    48.8378     7954.00000
    48.8510     7882.00000
    48.8641     7824.00000
    48.8772     7618.00000
    48.8904     7562.00000
    48.9035     7454.00000
    48.9166     7387.00000
    48.9298     7167.00000
    48.9429     7344.00000
    48.9560     7141.00000
    48.9691     7117.00000
    48.9823     7235.00000
    48.9954     7014.00000
    49.0085     7021.00000
    49.0217     7077.00000
    49.0348     7010.00000
    49.0479     7138.00000
    49.0611     7216.00000
    49.0742     7490.00000
    49.0873     7466.00000
    49.1004     7708.00000
    49.1136     7885.00000
    49.1267     8234.00000
    49.1398     9041.00000
    49.1530    10003.00000
    49.1661    11134.00000
    49.1792    12410.00000
    49.1924    13749.00000
    49.2055    14404.00000
    49.2186    14844.00000
    49.2318    14630.00000
    49.2449    14170.00000
    49.2580    12863.00000
    49.2711    11706.00000
    49.2843    11346.00000
    49.2974    11721.00000
    49.3105    12227.00000
    49.3237    13224.00000
    49.3368    13996.00000
    49.3499    14582.00000
    49.3631    13427.00000
    49.3762    12542.00000
    49.3893    11213.00000
    49.4024    10101.00000
    49.4156     9214.00000
    49.4287     8668.00000
    49.4418     8759.00000
    49.4550     8560.00000
    49.4681     9030.00000
    49.4812     8754.00000
    49.4944     8292.00000
    49.5075     8075.00000
    49.5206     7706.00000
    49.5337     7604.00000
    49.5469     7317.00000
    49.5600     7032.00000
    49.5731     6965.00000
    49.5863     6925.00000
    49.5994     6738.00000
    49.6125     6840.00000
    49.6257     6796.00000
    49.6388     6772.00000
    49.6519     7057.00000
    49.6651     6788.00000
    49.6782     6904.00000
    49.6913     6823.00000
    49.7044     6776.00000
    49.7176     6883.00000
    49.7307     6920.00000
    49.7438     6976.00000
    49.7570     7247.00000
    49.7701     7111.00000
    49.7832     7224.00000
    49.7964     7332.00000
    49.8095     7478.00000
    49.8226     7845.00000
    49.8357     8123.00000
    49.8489     8730.00000
    49.8620     9826.00000
    49.8751    11242.00000
    49.8883    13403.00000
    49.9014    15780.00000
    49.9145    17777.00000
    49.9277    19165.00000
    49.9408    19096.00000
    49.9539    17514.00000
    49.9670    15122.00000
    49.9802    12960.00000
    49.9933    11383.00000
    50.0064    10862.00000
    50.0196    11271.00000
    50.0327    11888.00000
    50.0458    12673.00000
    50.0590    13408.00000
    50.0721    13188.00000
    50.0852    12460.00000
    50.0984    11122.00000
    50.1115     9630.00000
    50.1246     8798.00000
    50.1377     8222.00000
    50.1509     7641.00000
    50.1640     7339.00000
    50.1771     7183.00000
    50.1903     7183.00000
    50.2034     7109.00000
    50.2165     6951.00000
    50.2297     6890.00000
    50.2428     6866.00000
    50.2559     6792.00000
    50.2690     6628.00000
    50.2822     6676.00000
    50.2953     6385.00000
    50.3084     6904.00000
    50.3216     6869.00000
    50.3347     6602.00000
    50.3478     6721.00000
    50.3610     6719.00000
    50.3741     6899.00000
    50.3872     6913.00000
    50.4003     6959.00000
    50.4135     7207.00000
    50.4266     7448.00000
    50.4397     7442.00000
    50.4529     7433.00000
    50.4660     7653.00000
    50.4791     7493.00000
    50.4923     7384.00000
    50.5054     7304.00000
    50.5185     7449.00000
    50.5317     7521.00000
    50.5448     7591.00000
    50.5579     7976.00000
    50.5710     8452.00000
    50.5842     8944.00000
    50.5973     9174.00000
    50.6104     9409.00000
    50.6236     9409.00000
    50.6367     9242.00000
    50.6498     9286.00000
    50.6630     9425.00000
    50.6761     9615.00000
    50.6892     9855.00000
    50.7023     9944.00000
    50.7155     9630.00000
    50.7286     9376.00000
    50.7417     8953.00000
    50.7549     8550.00000
    50.7680     8379.00000
    50.7811     8189.00000
    50.7943     7972.00000
    50.8074     8091.00000
    50.8205     8115.00000
    50.8336     8027.00000
    50.8468     7683.00000
    50.8599     7580.00000
    50.8730     7274.00000
    50.8862     7044.00000
    50.8993     6792.00000
    50.9124     6731.00000
    50.9256     6581.00000
    50.9387     6599.00000
    50.9518     6600.00000
    50.9649     6678.00000
    50.9781     6600.00000
    50.9912     6673.00000
    51.0043     6648.00000
    51.0175     6425.00000
    51.0306     6402.00000
    51.0437     6460.00000
    51.0569     6381.00000
    51.0700     6209.00000
    51.0831     6414.00000
    51.0963     6572.00000
    51.1094     6385.00000
    51.1225     6511.00000
    51.1356     6534.00000
    51.1488     6366.00000
    51.1619     6501.00000
    51.1750     6532.00000
    51.1882     6624.00000
    51.2013     6445.00000
    51.2144     6648.00000
    51.2276     6587.00000
    51.2407     6627.00000
    51.2538     6613.00000
    51.2669     6470.00000
    51.2801     6572.00000
    51.2932     6457.00000
    51.3063     6519.00000
    51.3195     6417.00000
    51.3326     6481.00000
    51.3457     6459.00000
    51.3589     6572.00000
    51.3720     6661.00000
    51.3851     6527.00000
    51.3982     6562.00000
    51.4114     6513.00000
    51.4245     6536.00000
    51.4376     6521.00000
    51.4508     6537.00000
    51.4639     6563.00000
    51.4770     6495.00000
    51.4902     6675.00000
    51.5033     6671.00000
    51.5164     6831.00000
    51.5296     7004.00000
    51.5427     6935.00000
    51.5558     6866.00000
    51.5689     6880.00000
    51.5821     7077.00000
    51.5952     7559.00000
    51.6083     7885.00000
    51.6215     8227.00000
    51.6346     8893.00000
    51.6477     9400.00000
    51.6609    10755.00000
    51.6740    12350.00000
    51.6871    14193.00000
    51.7002    15546.00000
    51.7134    15381.00000
    51.7265    14137.00000
    51.7396    12339.00000
    51.7528    10623.00000
    51.7659     9912.00000
    51.7790     9704.00000
    51.7922     9836.00000
    51.8053    10390.00000
    51.8184    11126.00000
    51.8315    11674.00000
    51.8447    11746.00000
    51.8578    11138.00000
    51.8709    10241.00000
    51.8841     9180.00000
    51.8972     8380.00000
    51.9103     7923.00000
    51.9235     7615.00000
    51.9366     7320.00000
    51.9497     7258.00000
    51.9628     7061.00000
    51.9760     7173.00000
    51.9891     7042.00000
    52.0022     6945.00000
    52.0154     6730.00000
    52.0285     6703.00000
    52.0416     6539.00000
    52.0548     6504.00000
    52.0679     6636.00000
    52.0810     6490.00000
    52.0942     6597.00000
    52.1073     6377.00000
    52.1204     6404.00000
    52.1335     6467.00000
    52.1467     6382.00000
    52.1598     6372.00000
    52.1729     6393.00000
    52.1861     6476.00000
    52.1992     6297.00000
    52.2123     6355.00000
    52.2255     6285.00000
    52.2386     6362.00000
    52.2517     6405.00000
    52.2648     6282.00000
    52.2780     6464.00000
    52.2911     6535.00000
    52.3042     6536.00000
    52.3174     6486.00000
    52.3305     6663.00000
    52.3436     6394.00000
    52.3568     6483.00000
    52.3699     6498.00000
    52.3830     6320.00000
    52.3961     6518.00000
    52.4093     6407.00000
    52.4224     6476.00000
    52.4355     6418.00000
    52.4487     6494.00000
    52.4618     6530.00000
    52.4749     6365.00000
    52.4881     6561.00000
    52.5012     6514.00000
    52.5143     6356.00000
    52.5275     6434.00000
    52.5406     6509.00000
    52.5537     6412.00000
    52.5668     6546.00000
    52.5800     6614.00000
    52.5931     6559.00000
    52.6062     6557.00000
    52.6194     6688.00000
    52.6325     7040.00000
    52.6456     7189.00000
    52.6588     7912.00000
    52.6719     8197.00000
    52.6850     8133.00000
    52.6981     7880.00000
    52.7113     7457.00000
    52.7244     7175.00000
    52.7375     7058.00000
    52.7507     6764.00000
    52.7638     6771.00000
    52.7769     6773.00000
    52.7901     6803.00000
    52.8032     7236.00000
    52.8163     7213.00000
    52.8294     7378.00000
    52.8426     7088.00000
    52.8557     6801.00000
    52.8688     6633.00000
    52.8820     6643.00000
    52.8951     6556.00000
    52.9082     6435.00000
    52.9214     6403.00000
    52.9345     6389.00000
    52.9476     6488.00000
    52.9608     6464.00000
    52.9739     6319.00000
    52.9870     6249.00000
    53.0001     6112.00000
    53.0133     6473.00000
    53.0264     6133.00000
    53.0395     6305.00000
    53.0527     6416.00000
    53.0658     6467.00000
    53.0789     6343.00000
    53.0921     6282.00000
    53.1052     6028.00000
    53.1183     6250.00000
    53.1314     6270.00000
    53.1446     6205.00000
    53.1577     6308.00000
    53.1708     6354.00000
    53.1840     6251.00000
    53.1971     6147.00000
    53.2102     6293.00000
    53.2234     6383.00000
    53.2365     6361.00000
    53.2496     6504.00000
    53.2627     6488.00000
    53.2759     6443.00000
    53.2890     6484.00000
    53.3021     6455.00000
    53.3153     6534.00000
    53.3284     6641.00000
    53.3415     6574.00000
    53.3547     6398.00000
    53.3678     6322.00000
    53.3809     6320.00000
    53.3941     6325.00000
    53.4072     6423.00000
    53.4203     6490.00000
    53.4334     6321.00000
    53.4466     6443.00000
    53.4597     6178.00000
    53.4728     6300.00000
    53.4860     6367.00000
    53.4991     6308.00000
    53.5122     6343.00000
    53.5254     6334.00000
    53.5385     6227.00000
    53.5516     6273.00000
    53.5647     6365.00000
    53.5779     6384.00000
    53.5910     6295.00000
    53.6041     6391.00000
    53.6173     6279.00000
    53.6304     6037.00000
    53.6435     6297.00000
    53.6567     6185.00000
    53.6698     6391.00000
    53.6829     6367.00000
    53.6960     6268.00000
    53.7092     6349.00000
    53.7223     6419.00000
    53.7354     6264.00000
    53.7486     6407.00000
    53.7617     6445.00000
    53.7748     6592.00000
    53.7880     6516.00000
    53.8011     6341.00000
    53.8142     6493.00000
    53.8274     6526.00000
    53.8405     6503.00000
    53.8536     6399.00000
    53.8667     6476.00000
    53.8799     6409.00000
    53.8930     6351.00000
    53.9061     6383.00000
    53.9193     6478.00000
    53.9324     6443.00000
    53.9455     6415.00000
    53.9587     6319.00000
    53.9718     6424.00000
    53.9849     6411.00000
    53.9980     6488.00000
    54.0112     6297.00000
    54.0243     6149.00000
    54.0374     6381.00000
    54.0506     6243.00000
    54.0637     6281.00000
    54.0768     6264.00000
    54.0900     6348.00000
    54.1031     6345.00000
    54.1162     6229.00000
    54.1293     6207.00000
    54.1425     6185.00000
    54.1556     6218.00000
    54.1687     6235.00000
    54.1819     6357.00000
    54.1950     6273.00000
    54.2081     6322.00000
    54.2213     6219.00000
    54.2344     6135.00000
    54.2475     6191.00000
    54.2607     6246.00000
    54.2738     6278.00000
    54.2869     6399.00000
    54.3000     6334.00000
    54.3132     6233.00000
    54.3263     6156.00000
    54.3394     6326.00000
    54.3526     6556.00000
    54.3657     6311.00000
    54.3788     6178.00000
    54.3920     6335.00000
    54.4051     6313.00000
    54.4182     6292.00000
    54.4313     6294.00000
    54.4445     6288.00000
    54.4576     6150.00000
    54.4707     5997.00000
    54.4839     6295.00000
    54.4970     6346.00000
    54.5101     6242.00000
    54.5233     6145.00000
    54.5364     6205.00000
    54.5495     6192.00000
    54.5626     6234.00000
    54.5758     6146.00000
    54.5889     6167.00000
    54.6020     6333.00000
    54.6152     6158.00000
    54.6283     6232.00000
    54.6414     6308.00000
    54.6546     6202.00000
    54.6677     6318.00000
    54.6808     6277.00000
    54.6940     6469.00000
    54.7071     6257.00000
    54.7202     6294.00000
    54.7333     6228.00000
    54.7465     6207.00000
    54.7596     6352.00000
    54.7727     6200.00000
    54.7859     6263.00000
    54.7990     6353.00000
    54.8121     6352.00000
    54.8253     6319.00000
    54.8384     6298.00000
    54.8515     6311.00000
    54.8646     6309.00000
    54.8778     6382.00000
    54.8909     6313.00000
    54.9040     6235.00000
    54.9172     6338.00000
    54.9303     6281.00000
    54.9434     6346.00000
    54.9566     6410.00000
    54.9697     6303.00000
    54.9828     6428.00000
    54.9959     6289.00000
    55.0091     6405.00000
    55.0222     6492.00000
    55.0353     6299.00000
    55.0485     6100.00000
    55.0616     6203.00000
    55.0747     6472.00000
    55.0879     6511.00000
    55.1010     6430.00000
    55.1141     6466.00000
    55.1272     6409.00000
    55.1404     6293.00000
    55.1535     6346.00000
    55.1666     6313.00000
    55.1798     6300.00000
    55.1929     6257.00000
    55.2060     6385.00000
    55.2192     6427.00000
    55.2323     6454.00000
    55.2454     6310.00000
    55.2586     6451.00000
    55.2717     6433.00000
    55.2848     6522.00000
    55.2979     6364.00000
    55.3111     6462.00000
    55.3242     6365.00000
    55.3373     6380.00000
    55.3505     6516.00000
    55.3636     6498.00000
    55.3767     6549.00000
    55.3899     6644.00000
    55.4030     6663.00000
    55.4161     6613.00000
    55.4292     6875.00000
    55.4424     6918.00000
    55.4555     7190.00000
    55.4686     7604.00000
    55.4818     8045.00000
    55.4949     8492.00000
    55.5080     8764.00000
    55.5212     8814.00000
    55.5343     8441.00000
    55.5474     7887.00000
    55.5605     7715.00000
    55.5737     7647.00000
    55.5868     7646.00000
    55.5999     7858.00000
    55.6131     8112.00000
    55.6262     8516.00000
    55.6393     8554.00000
    55.6525     9184.00000
    55.6656     9632.00000
    55.6787     9915.00000
    55.6918    10187.00000
    55.7050    10739.00000
    55.7181    11279.00000
    55.7312    11907.00000
    55.7444    12351.00000
    55.7575    12508.00000
    55.7706    12372.00000
    55.7838    11695.00000
    55.7969    10915.00000
    55.8100     9875.00000
    55.8232     9233.00000
    55.8363     8822.00000
    55.8494     8755.00000
    55.8625     8933.00000
    55.8757     9258.00000
    55.8888     9065.00000
    55.9019     9433.00000
    55.9151     9605.00000
    55.9282     9023.00000
    55.9413     8734.00000
    55.9545     8094.00000
    55.9676     7846.00000
    55.9807     7482.00000
    55.9938     7261.00000
    56.0070     7391.00000
    56.0201     6945.00000
    56.0332     7160.00000
    56.0464     7329.00000
    56.0595     7100.00000
    56.0726     7158.00000
    56.0858     7048.00000
    56.0989     6970.00000
    56.1120     6800.00000
    56.1251     6779.00000
    56.1383     6810.00000
    56.1514     6834.00000
    56.1645     6835.00000
    56.1777     6818.00000
    56.1908     6733.00000
    56.2039     6919.00000
    56.2171     6881.00000
    56.2302     6893.00000
    56.2433     6985.00000
    56.2565     7149.00000
    56.2696     7586.00000
    56.2827     7883.00000
    56.2958     8474.00000
    56.3090     8859.00000
    56.3221     9342.00000
    56.3352     9328.00000
    56.3484     9287.00000
    56.3615     8636.00000
    56.3746     8194.00000
    56.3878     7635.00000
    56.4009     7548.00000
    56.4140     7354.00000
    56.4271     7491.00000
    56.4403     7728.00000
    56.4534     8023.00000
    56.4665     8139.00000
    56.4797     8330.00000
    56.4928     8056.00000
    56.5059     8278.00000
    56.5191     7805.00000
    56.5322     7684.00000
    56.5453     7573.00000
    56.5584     7630.00000
    56.5716     7975.00000
    56.5847     8425.00000
    56.5978     9160.00000
    56.6110     9908.00000
    56.6241    10413.00000
    56.6372    10962.00000
    56.6504    10909.00000
    56.6635    10280.00000
    56.6766     9545.00000
    56.6898     8650.00000
    56.7029     8244.00000
    56.7160     7804.00000
    56.7291     7806.00000
    56.7423     7885.00000
    56.7554     7904.00000
    56.7685     8085.00000
    56.7817     8548.00000
    56.7948     8575.00000
    56.8079     8826.00000
    56.8211     8327.00000
    56.8342     8154.00000
    56.8473     7810.00000
    56.8604     7524.00000
    56.8736     7328.00000
    56.8867     7217.00000
    56.8998     7136.00000
    56.9130     7121.00000
    56.9261     7060.00000
    56.9392     7092.00000
    56.9524     7066.00000
    56.9655     6733.00000
    56.9786     6665.00000
    56.9917     6607.00000
    57.0049     6744.00000
    57.0180     6651.00000
    57.0311     6725.00000
    57.0443     6760.00000
    57.0574     6697.00000
    57.0705     6608.00000
    57.0837     6737.00000
    57.0968     6550.00000
    57.1099     6581.00000
    57.1231     6480.00000
    57.1362     6551.00000
    57.1493     6561.00000
    57.1624     6535.00000
    57.1756     6454.00000
    57.1887     6375.00000
    57.2018     6426.00000
    57.2150     6346.00000
    57.2281     6467.00000
    57.2412     6331.00000
    57.2544     6413.00000
    57.2675     6373.00000
    57.2806     6311.00000
    57.2937     6467.00000
    57.3069     6348.00000
    57.3200     6377.00000
    57.3331     6472.00000
    57.3463     6523.00000
    57.3594     6354.00000
    57.3725     6426.00000
    57.3857     6533.00000
    57.3988     6291.00000
    57.4119     6396.00000
    57.4250     6306.00000
    57.4382     6372.00000
    57.4513     6387.00000
    57.4644     6401.00000
    57.4776     6477.00000
    57.4907     6366.00000
    57.5038     6607.00000
    57.5170     6442.00000
    57.5301     6379.00000
    57.5432     6478.00000
    57.5564     6533.00000
    57.5695     6508.00000
    57.5826     6485.00000
    57.5957     6422.00000
    57.6089     6387.00000
    57.6220     6557.00000
    57.6351     6671.00000
    57.6483     6765.00000
    57.6614     6844.00000
    57.6745     7091.00000
    57.6877     6933.00000
    57.7008     7356.00000
    57.7139     7562.00000
    57.7270     7824.00000
    57.7402     8307.00000
    57.7533     8543.00000
    57.7664     8787.00000
    57.7796     9123.00000
    57.7927     9008.00000
    57.8058     9234.00000
    57.8190     9337.00000
    57.8321     9272.00000
    57.8452     9015.00000
    57.8583     8913.00000
    57.8715     9054.00000
    57.8846     9218.00000
    57.8977     9833.00000
    57.9109    10290.00000
    57.9240    10709.00000
    57.9371    10861.00000
    57.9503    11045.00000
    57.9634    10696.00000
    57.9765     9991.00000
    57.9897     9284.00000
    58.0028     8908.00000
    58.0159     8456.00000
    58.0290     8051.00000
    58.0422     7871.00000
    58.0553     7860.00000
    58.0684     8157.00000
    58.0816     8368.00000
    58.0947     8080.00000
    58.1078     8211.00000
    58.1210     8081.00000
    58.1341     7640.00000
    58.1472     7384.00000
    58.1603     7231.00000
    58.1735     7030.00000
    58.1866     6799.00000
    58.1997     6757.00000
    58.2129     6572.00000
    58.2260     6568.00000
    58.2391     6532.00000
    58.2523     6444.00000
    58.2654     6435.00000
    58.2785     6503.00000
    58.2916     6429.00000
    58.3048     6627.00000
    58.3179     6611.00000
    58.3310     6352.00000
    58.3442     6237.00000
    58.3573     6516.00000
    58.3704     6481.00000
    58.3836     6325.00000
    58.3967     6379.00000
    58.4098     6478.00000
    58.4230     6778.00000
    58.4361     6535.00000
    58.4492     6384.00000
    58.4623     6346.00000
    58.4755     6599.00000
    58.4886     6606.00000
    58.5017     6725.00000
    58.5149     6751.00000
    58.5280     6959.00000
    58.5411     7236.00000
    58.5543     7330.00000
    58.5674     7617.00000
    58.5805     7766.00000
    58.5936     7680.00000
    58.6068     7767.00000
    58.6199     7729.00000
    58.6330     7816.00000
    58.6462     7668.00000
    58.6593     7594.00000
    58.6724     7494.00000
    58.6856     7326.00000
    58.6987     7421.00000
    58.7118     7397.00000
    58.7249     7884.00000
    58.7381     8269.00000
    58.7512     8467.00000
    58.7643     8778.00000
    58.7775     9341.00000
    58.7906     9665.00000
    58.8037     9737.00000
    58.8169     9709.00000
    58.8300     9691.00000
    58.8431     9565.00000
    58.8562     9511.00000
    58.8694     9603.00000
    58.8825     9936.00000
    58.8956    10122.00000
    58.9088    10468.00000
    58.9219    10745.00000
    58.9350    10716.00000
    58.9482    10305.00000
    58.9613    10229.00000
    58.9744     9984.00000
    58.9876     9972.00000
    59.0007    10053.00000
    59.0138    10496.00000
    59.0269    10560.00000
    59.0401    10375.00000
    59.0532    10129.00000
    59.0663     9788.00000
    59.0795     9468.00000
    59.0926     9248.00000
    59.1057     8905.00000
    59.1189     8586.00000
    59.1320     8737.00000
    59.1451     8961.00000
    59.1582     9404.00000
    59.1714    10006.00000
    59.1845    10477.00000
    59.1976    10782.00000
    59.2108    10490.00000
    59.2239    10242.00000
    59.2370     9795.00000
    59.2502     8932.00000
    59.2633     8444.00000
    59.2764     7866.00000
    59.2895     7652.00000
    59.3027     7588.00000
    59.3158     7519.00000
    59.3289     7714.00000
    59.3421     7804.00000
    59.3552     7938.00000
    59.3683     8106.00000
    59.3815     7997.00000
    59.3946     7856.00000
    59.4077     7675.00000
    59.4208     7222.00000
    59.4340     7059.00000
    59.4471     6644.00000
    59.4602     6505.00000
    59.4734     6457.00000
    59.4865     6507.00000
    59.4996     6449.00000
    59.5128     6514.00000
    59.5259     6445.00000
    59.5390     6342.00000
    59.5522     6366.00000
    59.5653     6297.00000
    59.5784     6465.00000
    59.5915     6326.00000
    59.6047     6353.00000
    59.6178     6388.00000
    59.6309     6502.00000
    59.6441     6292.00000
    59.6572     6422.00000
    59.6703     6389.00000
    59.6835     6375.00000
    59.6966     6612.00000
    59.7097     6355.00000
    59.7228     6532.00000
    59.7360     6463.00000
    59.7491     6397.00000
    59.7622     6466.00000
    59.7754     6609.00000
    59.7885     6608.00000
    59.8016     6718.00000
    59.8148     6611.00000
    59.8279     6830.00000
    59.8410     6558.00000
    59.8541     6715.00000
    59.8673     6746.00000
    59.8804     6735.00000
    59.8935     6739.00000
    59.9067     6649.00000
    59.9198     7101.00000
    59.9329     7198.00000
    59.9461     7539.00000
    59.9592     8056.00000
    59.9723     8787.00000
    59.9855     9657.00000
    59.9986    10889.00000
    60.0117    11760.00000
    60.0248    12385.00000
    60.0380    12156.00000
    60.0511    11224.00000
    60.0642    10214.00000
    60.0774     9204.00000
    60.0905     8431.00000
    60.1036     8059.00000
    60.1168     7788.00000
    60.1299     7903.00000
    60.1430     7898.00000
    60.1561     8306.00000
    60.1693     8870.00000
    60.1824     9258.00000
    60.1955     9389.00000
    60.2087     9342.00000
    60.2218     8619.00000
    60.2349     8117.00000
    60.2481     7488.00000
    60.2612     7079.00000
    60.2743     6809.00000
    60.2874     6772.00000
    60.3006     6569.00000
    60.3137     6435.00000
    60.3268     6490.00000
    60.3400     6262.00000
    60.3531     6432.00000
    60.3662     6390.00000
    60.3794     6627.00000
    60.3925     6292.00000
    60.4056     6465.00000
    60.4188     6530.00000
    60.4319     6500.00000
    60.4450     6545.00000
    60.4581     6601.00000
    60.4713     6726.00000
    60.4844     6627.00000
    60.4975     6753.00000
    60.5107     7180.00000
    60.5238     7694.00000
    60.5369     7987.00000
    60.5501     8620.00000
    60.5632     8885.00000
    60.5763     9140.00000
    60.5894     8886.00000
    60.6026     8565.00000
    60.6157     7764.00000
    60.6288     7247.00000
    60.6420     7447.00000
    60.6551     7227.00000
    60.6682     7271.00000
    60.6814     7308.00000
    60.6945     7324.00000
    60.7076     7673.00000
    60.7207     7666.00000
    60.7339     7997.00000
    60.7470     7899.00000
    60.7601     7497.00000
    60.7733     7448.00000
    60.7864     7208.00000
    60.7995     6903.00000
    60.8127     6808.00000
    60.8258     6806.00000
    60.8389     6813.00000
    60.8521     6633.00000
    60.8652     6745.00000
    60.8783     6588.00000
    60.8914     6526.00000
    60.9046     6484.00000
    60.9177     6441.00000
    60.9308     6460.00000
    60.9440     6544.00000
    60.9571     6410.00000
    60.9702     6564.00000
    60.9834     6627.00000
    60.9965     6574.00000
    61.0096     6603.00000
    61.0227     6777.00000
    61.0359     6612.00000
    61.0490     6615.00000
    61.0621     6697.00000
    61.0753     6596.00000
    61.0884     6738.00000
    61.1015     7015.00000
    61.1147     7044.00000
    61.1278     7365.00000
    61.1409     7691.00000
    61.1540     8272.00000
    61.1672     8602.00000
    61.1803     9542.00000
    61.1934    10296.00000
    61.2066    11261.00000
    61.2197    11904.00000
    61.2328    12660.00000
    61.2460    13236.00000
    61.2591    13486.00000
    61.2722    13278.00000
    61.2854    12957.00000
    61.2985    12361.00000
    61.3116    11641.00000
    61.3247    10621.00000
    61.3379     9900.00000
    61.3510     9645.00000
    61.3641     9426.00000
    61.3773     9410.00000
    61.3904     9477.00000
    61.4035     9893.00000
    61.4167    10000.00000
    61.4298     9901.00000
    61.4429     9813.00000
    61.4560     9655.00000
    61.4692     9238.00000
    61.4823     8741.00000
    61.4954     8117.00000
    61.5086     7726.00000
    61.5217     7338.00000
    61.5348     6959.00000
    61.5480     6816.00000
    61.5611     6572.00000
    61.5742     6541.00000
    61.5873     6623.00000
    61.6005     6828.00000
    61.6136     7009.00000
    61.6267     6907.00000
    61.6399     7270.00000
    61.6530     7441.00000
    61.6661     7809.00000
    61.6793     7805.00000
    61.6924     7384.00000
    61.7055     7257.00000
    61.7187     6948.00000
    61.7318     6700.00000
    61.7449     6494.00000
    61.7580     6647.00000
    61.7712     6589.00000
    61.7843     6477.00000
    61.7974     6699.00000
    61.8106     6782.00000
    61.8237     6956.00000
    61.8368     6874.00000
    61.8500     6901.00000
    61.8631     6934.00000
    61.8762     6775.00000
    61.8893     6502.00000
    61.9025     6251.00000
    61.9156     6340.00000
    61.9287     6394.00000
    61.9419     6320.00000
    61.9550     6256.00000
    61.9681     6138.00000
    61.9813     6360.00000
    61.9944     6319.00000
    62.0075     6302.00000
    62.0206     6140.00000
    62.0338     6085.00000
    62.0469     6380.00000
    62.0600     6319.00000
    62.0732     6136.00000
    62.0863     6303.00000
    62.0994     6169.00000
    62.1126     6097.00000
    62.1257     6095.00000
    62.1388     6214.00000
    62.1520     6095.00000
    62.1651     6067.00000
    62.1782     6185.00000
    62.1913     6198.00000
    62.2045     6257.00000
    62.2176     6046.00000
    62.2307     6058.00000
    62.2439     6191.00000
    62.2570     6107.00000
    62.2701     6198.00000
    62.2833     6235.00000
    62.2964     6119.00000
    62.3095     6162.00000
    62.3226     6198.00000
    62.3358     6059.00000
    62.3489     6253.00000
    62.3620     6226.00000
    62.3752     6075.00000
    62.3883     6055.00000
    62.4014     6150.00000
    62.4146     6019.00000
    62.4277     6075.00000
    62.4408     6244.00000
    62.4539     6080.00000
    62.4671     6124.00000
    62.4802     5876.00000
    62.4933     6268.00000
    62.5065     6135.00000
    62.5196     6162.00000
    62.5327     6375.00000
    62.5459     6282.00000
    62.5590     6117.00000
    62.5721     6185.00000
    62.5852     6203.00000
    62.5984     6195.00000
    62.6115     6026.00000
    62.6246     6151.00000
    62.6378     6135.00000
    62.6509     6008.00000
    62.6640     6065.00000
    62.6772     6017.00000
    62.6903     6159.00000
    62.7034     6072.00000
    62.7166     6058.00000
    62.7297     6157.00000
    62.7428     6335.00000
    62.7559     6149.00000
    62.7691     6116.00000
    62.7822     6220.00000
    62.7953     6224.00000
    62.8085     6229.00000
    62.8216     6271.00000
    62.8347     6232.00000
    62.8479     6110.00000
    62.8610     6102.00000
    62.8741     6295.00000
    62.8872     6050.00000
    62.9004     6170.00000
    62.9135     6128.00000
    62.9266     6206.00000
    62.9398     6007.00000
    62.9529     6220.00000
    62.9660     6165.00000
    62.9792     6101.00000
    62.9923     6006.00000
    63.0054     6181.00000
    63.0185     6121.00000
    63.0317     6152.00000
    63.0448     6329.00000
    63.0579     6295.00000
    63.0711     6247.00000
    63.0842     6206.00000
    63.0973     6221.00000
    63.1105     6199.00000
    63.1236     6334.00000
    63.1367     6340.00000
    63.1499     6327.00000
    63.1630     6338.00000
    63.1761     6406.00000
    63.1892     6534.00000
    63.2024     6932.00000
    63.2155     7066.00000
    63.2286     7251.00000
    63.2418     7284.00000
    63.2549     7533.00000
    63.2680     7410.00000
    63.2812     7560.00000
    63.2943     7400.00000
    63.3074     7076.00000
    63.3205     6913.00000
    63.3337     6685.00000
    63.3468     6692.00000
    63.3599     6846.00000
    63.3731     7063.00000
    63.3862     6742.00000
    63.3993     7046.00000
    63.4125     7217.00000
    63.4256     6978.00000
    63.4387     7233.00000
    63.4518     7529.00000
    63.4650     7701.00000
    63.4781     7972.00000
    63.4912     8090.00000
    63.5044     8156.00000
    63.5175     8066.00000
    63.5306     7802.00000
    63.5438     7183.00000
    63.5569     6921.00000
    63.5700     6875.00000
    63.5831     6796.00000
    63.5963     6748.00000
    63.6094     6589.00000
    63.6225     6622.00000
    63.6357     6972.00000
    63.6488     7042.00000
    63.6619     7141.00000
    63.6751     7222.00000
    63.6882     7203.00000
    63.7013     7089.00000
    63.7145     6803.00000
    63.7276     6710.00000
    63.7407     6846.00000
    63.7538     6356.00000
    63.7670     6369.00000
    63.7801     6151.00000
    63.7932     6277.00000
    63.8064     6449.00000
    63.8195     6343.00000
    63.8326     6284.00000
    63.8458     6258.00000
    63.8589     6346.00000
    63.8720     6424.00000
    63.8851     6366.00000
    63.8983     6146.00000
    63.9114     6097.00000
    63.9245     6224.00000
    63.9377     6028.00000
    63.9508     6058.00000
    63.9639     6110.00000
    63.9771     6060.00000
    63.9902     6093.00000
    64.0033     6086.00000
    64.0164     5948.00000
    64.0296     6060.00000
    64.0427     6073.00000
    64.0558     6127.00000
    64.0690     6087.00000
    64.0821     6160.00000
    64.0952     6281.00000
    64.1084     6221.00000
    64.1215     6382.00000
    64.1346     6094.00000
    64.1478     6106.00000
    64.1609     6117.00000
    64.1740     6055.00000
    64.1871     6256.00000
    64.2003     6343.00000
    64.2134     6356.00000
    64.2265     6221.00000
    64.2397     6428.00000
    64.2528     6610.00000
    64.2659     6605.00000
    64.2791     6891.00000
    64.2922     6885.00000
    64.3053     7128.00000
    64.3184     7123.00000
    64.3316     7082.00000
    64.3447     7321.00000
    64.3578     7228.00000
    64.3710     7161.00000
    64.3841     6815.00000
    64.3972     6480.00000
    64.4104     6480.00000
    64.4235     6545.00000
    64.4366     6463.00000
    64.4498     6703.00000
    64.4629     6556.00000
    64.4760     6802.00000
    64.4891     6588.00000
    64.5023     6555.00000
    64.5154     6794.00000
    64.5285     6648.00000
    64.5417     6467.00000
    64.5548     6526.00000
    64.5679     6552.00000
    64.5811     6475.00000
    64.5942     6316.00000
    64.6073     6199.00000
    64.6204     6193.00000
    64.6336     6183.00000
    64.6467     6207.00000
    64.6598     6199.00000
    64.6730     5955.00000
    64.6861     6157.00000
    64.6992     6177.00000
    64.7124     6176.00000
    64.7255     6243.00000
    64.7386     6130.00000
    64.7517     6266.00000
    64.7649     6126.00000
    64.7780     6102.00000
    64.7911     6084.00000
    64.8043     5894.00000
    64.8174     6088.00000
    64.8305     6249.00000
    64.8437     6097.00000
    64.8568     6139.00000
    64.8699     5899.00000
    64.8830     5950.00000
    64.8962     6103.00000
    64.9093     6305.00000
    64.9224     6183.00000
    64.9356     6050.00000
    64.9487     6003.00000
    64.9618     5973.00000
    64.9750     6086.00000
    64.9881     6130.00000
    65.0012     6028.00000
    65.0144     6031.00000
    65.0275     6047.00000
    65.0406     6210.00000
    65.0537     6272.00000
    65.0669     6087.00000
    65.0800     6135.00000
    65.0931     6162.00000
    65.1063     6063.00000
    65.1194     6091.00000
    65.1325     6192.00000
    65.1457     6042.00000
    65.1588     6274.00000
    65.1719     6053.00000
    65.1850     6184.00000
    65.1982     6089.00000
    65.2113     6197.00000
    65.2244     6121.00000
    65.2376     5973.00000
    65.2507     6178.00000
    65.2638     6266.00000
    65.2770     5974.00000
    65.2901     6172.00000
    65.3032     6080.00000
    65.3163     6243.00000
    65.3295     6196.00000
    65.3426     6118.00000
    65.3557     6075.00000
    65.3689     6182.00000
    65.3820     6042.00000
    65.3951     6049.00000
    65.4083     6013.00000
    65.4214     6038.00000
    65.4345     6085.00000
    65.4476     5984.00000
    65.4608     6098.00000
    65.4739     6065.00000
    65.4870     5954.00000
    65.5002     6024.00000
    65.5133     5959.00000
    65.5264     6040.00000
    65.5396     6058.00000
    65.5527     5936.00000
    65.5658     5949.00000
    65.5790     5919.00000
    65.5921     5990.00000
    65.6052     6026.00000
    65.6183     5924.00000
    65.6315     5903.00000
    65.6446     6024.00000
    65.6577     6074.00000
    65.6709     5854.00000
    65.6840     5984.00000
    65.6971     6105.00000
    65.7103     5962.00000
    65.7234     5937.00000
    65.7365     6010.00000
    65.7496     5977.00000
    65.7628     5957.00000
    65.7759     6034.00000
    65.7890     5952.00000
    65.8022     6083.00000
    65.8153     5871.00000
    65.8284     5968.00000
    65.8416     6152.00000
    65.8547     6000.00000
    65.8678     5878.00000
    65.8810     5944.00000
    65.8941     5894.00000
    65.9072     5982.00000
    65.9203     5967.00000
    65.9335     5878.00000
    65.9466     5812.00000
    65.9597     5889.00000
    65.9729     5927.00000
    65.9860     6060.00000
    65.9991     5948.00000
    66.0123     5793.00000
    66.0254     5843.00000
    66.0385     6002.00000
    66.0516     5933.00000
    66.0648     5979.00000
    66.0779     5865.00000
    66.0910     5949.00000
    66.1042     6020.00000
    66.1173     6048.00000
    66.1304     5917.00000
    66.1436     5992.00000
    66.1567     5997.00000
    66.1698     6131.00000
    66.1829     6081.00000
    66.1961     5959.00000
    66.2092     6068.00000
    66.2223     6061.00000
    66.2355     6212.00000
    66.2486     6090.00000
    66.2617     6118.00000
    66.2749     5991.00000
    66.2880     5989.00000
    66.3011     5909.00000
    66.3142     5857.00000
    66.3274     5974.00000
    66.3405     5983.00000
    66.3536     5909.00000
    66.3668     6093.00000
    66.3799     5975.00000
    66.3930     5944.00000
    66.4062     6228.00000
    66.4193     5970.00000
    66.4324     6178.00000
    66.4455     6172.00000
    66.4587     6142.00000
    66.4718     6060.00000
    66.4849     6127.00000
    66.4981     6175.00000
    66.5112     6176.00000
    66.5243     6057.00000
    66.5375     6109.00000
    66.5506     6022.00000
    66.5637     5865.00000
    66.5769     6011.00000
    66.5900     6055.00000
    66.6031     6142.00000
    66.6162     5934.00000
    66.6294     5993.00000
    66.6425     6000.00000
    66.6556     6091.00000
    66.6688     6101.00000
    66.6819     6098.00000
    66.6950     6247.00000
    66.7082     6092.00000
    66.7213     6113.00000
    66.7344     6113.00000
    66.7476     5989.00000
    66.7607     5918.00000
    66.7738     5923.00000
    66.7869     5953.00000
    66.8001     6092.00000
    66.8132     5914.00000
    66.8263     5983.00000
    66.8395     6125.00000
    66.8526     6069.00000
    66.8657     6127.00000
    66.8789     6020.00000
    66.8920     5842.00000
    66.9051     6048.00000
    66.9182     5961.00000
    66.9314     5849.00000
    66.9445     5973.00000
    66.9576     5937.00000
    66.9708     6093.00000
    66.9839     6014.00000
    66.9970     5943.00000
    67.0102     6023.00000
    67.0233     6030.00000
    67.0364     5913.00000
    67.0495     5997.00000
    67.0627     5996.00000
    67.0758     6071.00000
    67.0889     5953.00000
    67.1021     5938.00000
    67.1152     5979.00000
    67.1283     5878.00000
    67.1415     5818.00000
    67.1546     5960.00000
    67.1677     5849.00000
    67.1808     6101.00000
    67.1940     5915.00000
    67.2071     5951.00000
    67.2202     5939.00000
    67.2334     6006.00000
    67.2465     6073.00000
    67.2596     6086.00000
    67.2728     5870.00000
    67.2859     6099.00000
    67.2990     6052.00000
    67.3121     5884.00000
    67.3253     6069.00000
    67.3384     6101.00000
    67.3515     6061.00000
    67.3647     6196.00000
    67.3778     6141.00000
    67.3909     6097.00000
    67.4041     6144.00000
    67.4172     6175.00000
    67.4303     6255.00000
    67.4435     6010.00000
    67.4566     6029.00000
    67.4697     6063.00000
    67.4828     5952.00000
    67.4960     6038.00000
    67.5091     6179.00000
    67.5222     5990.00000
    67.5354     5941.00000
    67.5485     5975.00000
    67.5616     6196.00000
    67.5748     5926.00000
    67.5879     5981.00000
    67.6010     6061.00000
    67.6142     6041.00000
    67.6273     6064.00000
    67.6404     6130.00000
    67.6535     6074.00000
    67.6667     6057.00000
    67.6798     6075.00000
    67.6929     6078.00000
    67.7061     6146.00000
    67.7192     6087.00000
    67.7323     6186.00000
    67.7455     5911.00000
    67.7586     5888.00000
    67.7717     6021.00000
    67.7848     5939.00000
    67.7980     5979.00000
    67.8111     6052.00000
    67.8242     5965.00000
    67.8374     5927.00000
    67.8505     6038.00000
    67.8636     6005.00000
    67.8768     5985.00000
    67.8899     5939.00000
    67.9030     5882.00000
    67.9161     5990.00000
    67.9293     5924.00000
    67.9424     6077.00000
    67.9555     6011.00000
    67.9687     5914.00000
    67.9818     6103.00000
    67.9949     5823.00000
    68.0081     5841.00000
    68.0212     5846.00000
    68.0343     5926.00000
    68.0474     6135.00000
    68.0606     5944.00000
    68.0737     5929.00000
    68.0868     6046.00000
    68.1000     6124.00000
    68.1131     5939.00000
    68.1262     5866.00000
    68.1394     6017.00000
    68.1525     5990.00000
    68.1656     5978.00000
    68.1787     6133.00000
    68.1919     6099.00000
    68.2050     5965.00000
    68.2181     6058.00000
    68.2313     6055.00000
    68.2444     6011.00000
    68.2575     5929.00000
    68.2707     5901.00000
    68.2838     6062.00000
    68.2969     6012.00000
    68.3101     6020.00000
    68.3232     6143.00000
    68.3363     5935.00000
    68.3494     6184.00000
    68.3626     5900.00000
    68.3757     5780.00000
    68.3888     5863.00000
    68.4020     6048.00000
    68.4151     6059.00000
    68.4282     5937.00000
    68.4414     6028.00000
    68.4545     5958.00000
    68.4676     5965.00000
    68.4807     6093.00000
    68.4939     6006.00000
    68.5070     5929.00000
    68.5201     6104.00000
    68.5333     5949.00000
    68.5464     6037.00000
    68.5595     5903.00000
    68.5727     6005.00000
    68.5858     6172.00000
    68.5989     6080.00000
    68.6120     6143.00000
    68.6252     6099.00000
    68.6383     6047.00000
    68.6514     6206.00000
    68.6646     6065.00000
    68.6777     6123.00000
    68.6908     6262.00000
    68.7040     6168.00000
    68.7171     6182.00000
    68.7302     6215.00000
    68.7434     6222.00000
    68.7565     6374.00000
    68.7696     6253.00000
    68.7827     6406.00000
    68.7959     6392.00000
    68.8090     6395.00000
    68.8221     6384.00000
    68.8353     6678.00000
    68.8484     6844.00000
    68.8615     6803.00000
    68.8747     6795.00000
    68.8878     7035.00000
    68.9009     7124.00000
    68.9140     7118.00000
    68.9272     7233.00000
    68.9403     7163.00000
    68.9534     7380.00000
    68.9666     7192.00000
    68.9797     7319.00000
    68.9928     7056.00000
    69.0060     6918.00000
    69.0191     6812.00000
    69.0322     6574.00000
    69.0453     6731.00000
    69.0585     6783.00000
    69.0716     6677.00000
    69.0847     6655.00000
    69.0979     6703.00000
    69.1110     6664.00000
    69.1241     6967.00000
    69.1373     6801.00000
    69.1504     6863.00000
    69.1635     7040.00000
    69.1767     7251.00000
    69.1898     7436.00000
    69.2029     7627.00000
    69.2160     7935.00000
    69.2292     8211.00000
    69.2423     8286.00000
    69.2554     8241.00000
    69.2686     8026.00000
    69.2817     7869.00000
    69.2948     7620.00000
    69.3080     7305.00000
    69.3211     7036.00000
    69.3342     7133.00000
    69.3473     7250.00000
    69.3605     7316.00000
    69.3736     7550.00000
    69.3867     7849.00000
    69.3999     8126.00000
    69.4130     8388.00000
    69.4261     8559.00000
    69.4393     8414.00000
    69.4524     8454.00000
    69.4655     8233.00000
    69.4786     8116.00000
    69.4918     7909.00000
    69.5049     7728.00000
    69.5180     7381.00000
    69.5312     7549.00000
    69.5443     7377.00000
    69.5574     7176.00000
    69.5706     7045.00000
    69.5837     7119.00000
    69.5968     7129.00000
    69.6099     6914.00000
    69.6231     6992.00000
    69.6362     6832.00000
    69.6493     6882.00000
    69.6625     6800.00000
    69.6756     6917.00000
    69.6887     6627.00000
    69.7019     6739.00000
    69.7150     6752.00000
    69.7281     6794.00000
    69.7413     6704.00000
    69.7544     6597.00000
    69.7675     6677.00000
    69.7806     6763.00000
    69.7938     6686.00000
    69.8069     6948.00000
    69.8200     7152.00000
    69.8332     7738.00000
    69.8463     7669.00000
    69.8594     7810.00000
    69.8726     7837.00000
    69.8857     7235.00000
    69.8988     6968.00000
    69.9119     6748.00000
    69.9251     6565.00000
    69.9382     6435.00000
    69.9513     6458.00000
    69.9645     6366.00000
    69.9776     6472.00000
    69.9907     6494.00000
    70.0039     6372.00000
    70.0170     6482.00000
    70.0301     6722.00000
    70.0433     6914.00000
    70.0564     7067.00000
    70.0695     6907.00000
    70.0826     6853.00000
    70.0958     6586.00000
    70.1089     6507.00000
    70.1220     6407.00000
    70.1352     6325.00000
    70.1483     6255.00000
    70.1614     6205.00000
    70.1746     6284.00000
    70.1877     6146.00000
    70.2008     6178.00000
    70.2139     6287.00000
    70.2271     6148.00000
    70.2402     5956.00000
    70.2533     6156.00000
    70.2665     6334.00000
    70.2796     6144.00000
    70.2927     6486.00000
    70.3059     6211.00000
    70.3190     6163.00000
    70.3321     6219.00000
    70.3452     6227.00000
    70.3584     6155.00000
    70.3715     6041.00000
    70.3846     6088.00000
    70.3978     6163.00000
    70.4109     6169.00000
    70.4240     6353.00000
    70.4372     6053.00000
    70.4503     6219.00000
    70.4634     6274.00000
    70.4765     6244.00000
    70.4897     6345.00000
    70.5028     6483.00000
    70.5159     6451.00000
    70.5291     6414.00000
    70.5422     6438.00000
    70.5553     6576.00000
    70.5685     6700.00000
    70.5816     6448.00000
    70.5947     6623.00000
    70.6078     6593.00000
    70.6210     6444.00000
    70.6341     6510.00000
    70.6472     6555.00000
    70.6604     6405.00000
    70.6735     6609.00000
    70.6866     6547.00000
    70.6998     6728.00000
    70.7129     6816.00000
    70.7260     6638.00000
    70.7392     6644.00000
    70.7523     6687.00000
    70.7654     6590.00000
    70.7785     6685.00000
    70.7917     6609.00000
    70.8048     6632.00000
    70.8179     6459.00000
    70.8311     6254.00000
    70.8442     6376.00000
    70.8573     6467.00000
    70.8705     6407.00000
    70.8836     6633.00000
    70.8967     6513.00000
    70.9099     6434.00000
    70.9230     6552.00000
    70.9361     6379.00000
    70.9492     6317.00000
    70.9624     6182.00000
    70.9755     6157.00000
    70.9886     6155.00000
    71.0018     5991.00000
    71.0149     6185.00000
    71.0280     5864.00000
    71.0412     6003.00000
    71.0543     6010.00000
    71.0674     5976.00000
    71.0805     6143.00000
    71.0937     6006.00000
    71.1068     6085.00000
    71.1199     6113.00000
    71.1331     6089.00000
    71.1462     6093.00000
    71.1593     5837.00000
    71.1725     5962.00000
    71.1856     6199.00000
    71.1987     6128.00000
    71.2118     6076.00000
    71.2250     6124.00000
    71.2381     6115.00000
    71.2512     5981.00000
    71.2644     6040.00000
    71.2775     5966.00000
    71.2906     5958.00000
    71.3038     5877.00000
    71.3169     5965.00000
    71.3300     5991.00000
    71.3431     5829.00000
    71.3563     5970.00000
    71.3694     5912.00000
    71.3825     5916.00000
    71.3957     6131.00000
    71.4088     6120.00000
    71.4219     6200.00000
    71.4351     5991.00000
    71.4482     6076.00000
    71.4613     6026.00000
    71.4744     6200.00000
    71.4876     6128.00000
    71.5007     6286.00000
    71.5138     6097.00000
    71.5270     6184.00000
    71.5401     6115.00000
    71.5532     6064.00000
    71.5664     6092.00000
    71.5795     6194.00000
    71.5926     6176.00000
    71.6058     6239.00000
    71.6189     6407.00000
    71.6320     6291.00000
    71.6451     6229.00000
    71.6583     6382.00000
    71.6714     6479.00000
    71.6845     6425.00000
    71.6977     6366.00000
    71.7108     6538.00000
    71.7239     6427.00000
    71.7371     6427.00000
    71.7502     6296.00000
    71.7633     6391.00000
    71.7764     6459.00000
    71.7896     6577.00000
    71.8027     6376.00000
    71.8158     6569.00000
    71.8290     6691.00000
    71.8421     6833.00000
    71.8552     7028.00000
    71.8684     7526.00000
    71.8815     7735.00000
    71.8946     8024.00000
    71.9078     8204.00000
    71.9209     8442.00000
    71.9340     8336.00000
    71.9471     8338.00000
    71.9603     8009.00000
    71.9734     7924.00000
    71.9865     7791.00000
    71.9997     7510.00000
    72.0128     7213.00000
    72.0259     6895.00000
    72.0391     6852.00000
    72.0522     6720.00000
    72.0653     6907.00000
    72.0784     6862.00000
    72.0916     6958.00000
    72.1047     7177.00000
    72.1178     7186.00000
    72.1310     7214.00000
    72.1441     7295.00000
    72.1572     7112.00000
    72.1704     6978.00000
    72.1835     6972.00000
    72.1966     6902.00000
    72.2097     6627.00000
    72.2229     6541.00000
    72.2360     6367.00000
    72.2491     6451.00000
    72.2623     6216.00000
    72.2754     6129.00000
    72.2885     6284.00000
    72.3017     6012.00000
    72.3148     6175.00000
    72.3279     5962.00000
    72.3410     6098.00000
    72.3542     6112.00000
    72.3673     5976.00000
    72.3804     6094.00000
    72.3936     6116.00000
    72.4067     5966.00000
    72.4198     5890.00000
    72.4330     5964.00000
    72.4461     5971.00000
    72.4592     5995.00000
    72.4724     6010.00000
    72.4855     5887.00000
    72.4986     6203.00000
    72.5117     6235.00000
    72.5249     6240.00000
    72.5380     6291.00000
    72.5511     6492.00000
    72.5643     6486.00000
    72.5774     6658.00000
    72.5905     6611.00000
    72.6037     6636.00000
    72.6168     6449.00000
    72.6299     6245.00000
    72.6430     6260.00000
    72.6562     6183.00000
    72.6693     6129.00000
    72.6824     6044.00000
    72.6956     6032.00000
    72.7087     6112.00000
    72.7218     6189.00000
    72.7350     6244.00000
    72.7481     6261.00000
    72.7612     6190.00000
    72.7743     6241.00000
    72.7875     6363.00000
    72.8006     6323.00000
    72.8137     6461.00000
    72.8269     6405.00000
    72.8400     6265.00000
    72.8531     6131.00000
    72.8663     6221.00000
    72.8794     5973.00000
    72.8925     6037.00000
    72.9057     6201.00000
    72.9188     6115.00000
    72.9319     6041.00000
    72.9450     6147.00000
    72.9582     6315.00000
    72.9713     6202.00000
    72.9844     6197.00000
    72.9976     6435.00000
    73.0107     6371.00000
    73.0238     6078.00000
    73.0370     6103.00000
    73.0501     6090.00000
    73.0632     6212.00000
    73.0763     6094.00000
    73.0895     6367.00000
    73.1026     6111.00000
    73.1157     6223.00000
    73.1289     6180.00000
    73.1420     6195.00000
    73.1551     6299.00000
    73.1683     6479.00000
    73.1814     6469.00000
    73.1945     6534.00000
    73.2076     6737.00000
    73.2208     6900.00000
    73.2339     7049.00000
    73.2470     7237.00000
    73.2602     7159.00000
    73.2733     6968.00000
    73.2864     7050.00000
    73.2996     7304.00000
    73.3127     7170.00000
    73.3258     7267.00000
    73.3390     7123.00000
    73.3521     6912.00000
    73.3652     6660.00000
    73.3783     6493.00000
    73.3915     6583.00000
    73.4046     6481.00000
    73.4177     6485.00000
    73.4309     6410.00000
    73.4440     6680.00000
    73.4571     6573.00000
    73.4703     6526.00000
    73.4834     6570.00000
    73.4965     6511.00000
    73.5096     6606.00000
    73.5228     6474.00000
    73.5359     6447.00000
    73.5490     6597.00000
    73.5622     6529.00000
    73.5753     6378.00000
    73.5884     6384.00000
    73.6016     6202.00000
    73.6147     6143.00000
    73.6278     6112.00000
    73.6409     6144.00000
    73.6541     6025.00000
    73.6672     5963.00000
    73.6803     6079.00000
    73.6935     6010.00000
    73.7066     6046.00000
    73.7197     6192.00000
    73.7329     5983.00000
    73.7460     5997.00000
    73.7591     6233.00000
    73.7722     6108.00000
    73.7854     6195.00000
    73.7985     6217.00000
    73.8116     6105.00000
    73.8248     6216.00000
    73.8379     6343.00000
    73.8510     6176.00000
    73.8642     6150.00000
    73.8773     6130.00000
    73.8904     6163.00000
    73.9035     6308.00000
    73.9167     6323.00000
    73.9298     6138.00000
    73.9429     6163.00000
    73.9561     6278.00000
    73.9692     6111.00000
    73.9823     6239.00000
    73.9955     6155.00000
    74.0086     6341.00000
    74.0217     6562.00000
    74.0349     6500.00000
    74.0480     6663.00000
    74.0611     6624.00000
    74.0742     6858.00000
    74.0874     6832.00000
    74.1005     6754.00000
    74.1136     6777.00000
    74.1268     7085.00000
    74.1399     7096.00000
    74.1530     7191.00000
    74.1662     6997.00000
    74.1793     7051.00000
    74.1924     7097.00000
    74.2056     7172.00000
    74.2187     7275.00000
    74.2318     7213.00000
    74.2449     7426.00000
    74.2581     7235.00000
    74.2712     7134.00000
    74.2843     7238.00000
    74.2975     7027.00000
    74.3106     7072.00000
    74.3237     6901.00000
    74.3369     6883.00000
    74.3500     6883.00000
    74.3631     6953.00000
    74.3762     6880.00000
    74.3894     6924.00000
    74.4025     6780.00000
    74.4156     6895.00000
    74.4288     6811.00000
    74.4419     6724.00000
    74.4550     6576.00000
    74.4682     6749.00000
    74.4813     6537.00000
    74.4944     6459.00000
    74.5075     6416.00000
    74.5207     6567.00000
    74.5338     6442.00000
    74.5469     6357.00000
    74.5601     6357.00000
    74.5732     6449.00000
    74.5863     6463.00000
    74.5995     6479.00000
    74.6126     6234.00000
    74.6257     6330.00000
    74.6388     6255.00000
    74.6520     6066.00000
    74.6651     6060.00000
    74.6782     6031.00000
    74.6914     5955.00000
    74.7045     6087.00000
    74.7176     6070.00000
    74.7308     6156.00000
    74.7439     6121.00000
    74.7570     6141.00000
    74.7701     5950.00000
    74.7833     6144.00000
    74.7964     6101.00000
    74.8095     5939.00000
    74.8227     6129.00000
    74.8358     5979.00000
    74.8489     5937.00000
    74.8621     6145.00000
    74.8752     6240.00000
    74.8883     6038.00000
    74.9015     6071.00000
    74.9146     6141.00000
    74.9277     6020.00000
    74.9408     5875.00000
    74.9540     6021.00000
    74.9671     5962.00000
    74.9802     5948.00000
    74.9934     5926.00000
    75.0065     5957.00000
    75.0196     5842.00000
    75.0328     5979.00000
    75.0459     5917.00000
    75.0590     5879.00000
    75.0722     6047.00000
    75.0853     5995.00000
    75.0984     5949.00000
    75.1115     6070.00000
    75.1247     5990.00000
    75.1378     5989.00000
    75.1509     5951.00000
    75.1641     5827.00000
    75.1772     5851.00000
    75.1903     6112.00000
    75.2035     5946.00000
    75.2166     5891.00000
    75.2297     5920.00000
    75.2428     6075.00000
    75.2560     5855.00000
    75.2691     5862.00000
    75.2822     5783.00000
    75.2954     5886.00000
    75.3085     6070.00000
    75.3216     6015.00000
    75.3348     5798.00000
    75.3479     5845.00000
    75.3610     5839.00000
    75.3741     5754.00000
    75.3873     5896.00000
    75.4004     6019.00000
    75.4135     5961.00000
    75.4267     5818.00000
    75.4398     5858.00000
    75.4529     6010.00000
    75.4661     5948.00000
    75.4792     5887.00000
    75.4923     5934.00000
    75.5054     5878.00000
    75.5186     5906.00000
    75.5317     5806.00000
    75.5448     5821.00000
    75.5580     5919.00000
    75.5711     5796.00000
    75.5842     5975.00000
    75.5974     5852.00000
    75.6105     5955.00000
    75.6236     5845.00000
    75.6367     5948.00000
    75.6499     5999.00000
    75.6630     5856.00000
    75.6761     5969.00000
    75.6893     6050.00000
    75.7024     6081.00000
    75.7155     6155.00000
    75.7287     6217.00000
    75.7418     6255.00000
    75.7549     6330.00000
    75.7681     6335.00000
    75.7812     6383.00000
    75.7943     6247.00000
    75.8074     6169.00000
    75.8206     6215.00000
    75.8337     6173.00000
    75.8468     6241.00000
    75.8600     6109.00000
    75.8731     5891.00000
    75.8862     5898.00000
    75.8994     6117.00000
    75.9125     6076.00000
    75.9256     5899.00000
    75.9387     6041.00000
    75.9519     6079.00000
    75.9650     6240.00000
    75.9781     6164.00000
    75.9913     6340.00000
    76.0044     6216.00000
    76.0175     6123.00000
    76.0307     6015.00000
    76.0438     5901.00000
    76.0569     6134.00000
    76.0701     5995.00000
    76.0832     5985.00000
    76.0963     6109.00000
    76.1094     5947.00000
    76.1226     5961.00000
    76.1357     6094.00000
    76.1488     5855.00000
    76.1620     5991.00000
    76.1751     6032.00000
    76.1882     5891.00000
    76.2014     5961.00000
    76.2145     5955.00000
    76.2276     6065.00000
    76.2407     5950.00000
    76.2539     6166.00000
    76.2670     5997.00000
    76.2801     5936.00000
    76.2933     5957.00000
    76.3064     5870.00000
    76.3195     5900.00000
    76.3327     5819.00000
    76.3458     6101.00000
    76.3589     6082.00000
    76.3720     6019.00000
    76.3852     5927.00000
    76.3983     6143.00000
    76.4114     6292.00000
    76.4246     6310.00000
    76.4377     6132.00000
    76.4508     6318.00000
    76.4640     6310.00000
    76.4771     6182.00000
    76.4902     6305.00000
    76.5033     6217.00000
    76.5165     6197.00000
    76.5296     6254.00000
    76.5427     6377.00000
    76.5559     6376.00000
    76.5690     6253.00000
    76.5821     6230.00000
    76.5953     6195.00000
    76.6084     6308.00000
    76.6215     6377.00000
    76.6347     6454.00000
    76.6478     6594.00000
    76.6609     6837.00000
    76.6740     6798.00000
    76.6872     7040.00000
    76.7003     6994.00000
    76.7134     7185.00000
    76.7266     7132.00000
    76.7397     7280.00000
    76.7528     7218.00000
    76.7660     7161.00000
    76.7791     7056.00000
    76.7922     6893.00000
    76.8053     6670.00000
    76.8185     6657.00000
    76.8316     6759.00000
    76.8447     6922.00000
    76.8579     7117.00000
    76.8710     7317.00000
    76.8841     7441.00000
    76.8973     7781.00000
    76.9104     7610.00000
    76.9235     7315.00000
    76.9366     7130.00000
    76.9498     6955.00000
    76.9629     7070.00000
    76.9760     6869.00000
    76.9892     6842.00000
    77.0023     6543.00000
    77.0154     6562.00000
    77.0286     6348.00000
    77.0417     6326.00000
    77.0548     6441.00000
    77.0679     6419.00000
    77.0811     6358.00000
    77.0942     6561.00000
    77.1073     6677.00000
    77.1205     6682.00000
    77.1336     6692.00000
    77.1467     6538.00000
    77.1599     6539.00000
    77.1730     6382.00000
    77.1861     6197.00000
    77.1993     6313.00000
    77.2124     6186.00000
    77.2255     6236.00000
    77.2386     6224.00000
    77.2518     6323.00000
    77.2649     6393.00000
    77.2780     6346.00000
    77.2912     6189.00000
    77.3043     6164.00000
    77.3174     6314.00000
    77.3306     6110.00000
    77.3437     6118.00000
    77.3568     6168.00000
    77.3699     6045.00000
    77.3831     6115.00000
    77.3962     6328.00000
    77.4093     6106.00000
    77.4225     6168.00000
    77.4356     6269.00000
    77.4487     6267.00000
    77.4619     6434.00000
    77.4750     6689.00000
    77.4881     6892.00000
    77.5013     7073.00000
    77.5144     7276.00000
    77.5275     7340.00000
    77.5406     7211.00000
    77.5538     6965.00000
    77.5669     6713.00000
    77.5800     6516.00000
    77.5932     6335.00000
    77.6063     6449.00000
    77.6194     6074.00000
    77.6326     6129.00000
    77.6457     6181.00000
    77.6588     6139.00000
    77.6719     6116.00000
    77.6851     6136.00000
    77.6982     6300.00000
    77.7113     6325.00000
    77.7245     6451.00000
    77.7376     6506.00000
    77.7507     6553.00000
    77.7639     6503.00000
    77.7770     6481.00000
    77.7901     6108.00000
    77.8032     6235.00000
    77.8164     6123.00000
    77.8295     6235.00000
    77.8426     6188.00000
    77.8558     6017.00000
    77.8689     5862.00000
    77.8820     5928.00000
    77.8952     5736.00000
    77.9083     5837.00000
    77.9214     5874.00000
    77.9345     5908.00000
    77.9477     5978.00000
    77.9608     5805.00000
    77.9739     5982.00000
    77.9871     6019.00000
    78.0002     6013.00000
    78.0133     5834.00000
    78.0265     5748.00000
    78.0396     5879.00000
    78.0527     5840.00000
    78.0658     5795.00000
    78.0790     5838.00000
    78.0921     5924.00000
    78.1052     6058.00000
    78.1184     5905.00000
    78.1315     5719.00000
    78.1446     5997.00000
    78.1578     5864.00000
    78.1709     5911.00000
    78.1840     5867.00000
    78.1972     5787.00000
    78.2103     5950.00000
    78.2234     5964.00000
    78.2365     5723.00000
    78.2497     6049.00000
    78.2628     5955.00000
    78.2759     5826.00000
    78.2891     5940.00000
    78.3022     5924.00000
    78.3153     5883.00000
    78.3285     5884.00000
    78.3416     5806.00000
    78.3547     5871.00000
    78.3679     5933.00000
    78.3810     5954.00000
    78.3941     5950.00000
    78.4072     5933.00000
    78.4204     5791.00000
    78.4335     5904.00000
    78.4466     5772.00000
    78.4598     5878.00000
    78.4729     6013.00000
    78.4860     5862.00000
    78.4992     5990.00000
    78.5123     5884.00000
    78.5254     5882.00000
    78.5385     5924.00000
    78.5517     5932.00000
    78.5648     6034.00000
    78.5779     5939.00000
    78.5911     6053.00000
    78.6042     6016.00000
    78.6173     6002.00000
    78.6305     5929.00000
    78.6436     6041.00000
    78.6567     5867.00000
    78.6698     6136.00000
    78.6830     6179.00000
    78.6961     6083.00000
    78.7092     5983.00000
    78.7224     5888.00000
    78.7355     5961.00000
    78.7486     6014.00000
    78.7618     5927.00000
    78.7749     6258.00000
    78.7880     6175.00000
    78.8011     6226.00000
    78.8143     6150.00000
    78.8274     6166.00000
    78.8405     6424.00000
    78.8537     6378.00000
    78.8668     6315.00000
    78.8799     6404.00000
    78.8931     6627.00000
    78.9062     6843.00000
    78.9193     6695.00000
    78.9324     6688.00000
    78.9456     6671.00000
    78.9587     6855.00000
    78.9718     6953.00000
    78.9850     7032.00000
    78.9981     6964.00000
    79.0112     6902.00000
    79.0244     6728.00000
    79.0375     6853.00000
    79.0506     6769.00000
    79.0638     6641.00000
    79.0769     6444.00000
    79.0900     6316.00000
    79.1031     6594.00000
    79.1163     6518.00000
    79.1294     6564.00000
    79.1425     6572.00000
    79.1557     6494.00000
    79.1688     6765.00000
    79.1819     6518.00000
    79.1951     6576.00000
    79.2082     6539.00000
    79.2213     6751.00000
    79.2345     6733.00000
    79.2476     6685.00000
    79.2607     6550.00000
    79.2738     6612.00000
    79.2870     6547.00000
    79.3001     6532.00000
    79.3132     6524.00000
    79.3264     6257.00000
    79.3395     6212.00000
    79.3526     6167.00000
    79.3658     6123.00000
    79.3789     6133.00000
    79.3920     6304.00000
    79.4051     6196.00000
    79.4183     6115.00000
    79.4314     6023.00000
    79.4445     6153.00000
    79.4577     6097.00000
    79.4708     6286.00000
    79.4839     6404.00000
    79.4971     6268.00000
    79.5102     6454.00000
    79.5233     6352.00000
    79.5364     6318.00000
    79.5496     6268.00000
    79.5627     6510.00000
    79.5758     6374.00000
    79.5890     6312.00000
    79.6021     6508.00000
    79.6152     6542.00000
    79.6284     6842.00000
    79.6415     6695.00000
    79.6546     6696.00000
    79.6677     6992.00000
    79.6809     6854.00000
    79.6940     7158.00000
    79.7071     6826.00000
    79.7203     6650.00000
    79.7334     6785.00000
    79.7465     6545.00000
    79.7597     6547.00000
    79.7728     6525.00000
    79.7859     6400.00000
    79.7990     6402.00000
    79.8122     6354.00000
    79.8253     6696.00000
    79.8384     6662.00000
    79.8516     6647.00000
    79.8647     6879.00000
    79.8778     6804.00000
    79.8910     6679.00000
    79.9041     6806.00000
    79.9172     6693.00000
    79.9304     6734.00000
    79.9435     6530.00000
    79.9566     6703.00000
    79.9697     6617.00000
    79.9829     6483.00000
    79.9960     6146.00000
    80.0091     6125.00000
    80.0223     6168.00000
    80.0354     6211.00000
    80.0485     6034.00000
    80.0617     6322.00000
    80.0748     6277.00000
    80.0879     6328.00000
    80.1010     6047.00000
    80.1142     6448.00000
    80.1273     6425.00000
    80.1404     5975.00000
    80.1536     6226.00000
    80.1667     6129.00000
    80.1798     6055.00000
    80.1930     6031.00000
    80.2061     6119.00000
    80.2192     5854.00000
    80.2323     6034.00000
    80.2455     6065.00000
    80.2586     6043.00000
    80.2717     5885.00000
    80.2849     5887.00000
    80.2980     6016.00000
    80.3111     5866.00000
    80.3243     6019.00000
    80.3374     5962.00000
    80.3505     5921.00000
    80.3637     5920.00000
    80.3768     5942.00000
    80.3899     6017.00000
    80.4030     6039.00000
    80.4162     5974.00000
    80.4293     6082.00000
    80.4424     6098.00000
    80.4556     6106.00000
    80.4687     5931.00000
    80.4818     5974.00000
    80.4950     6275.00000
    80.5081     6269.00000
    80.5212     6450.00000
    80.5343     6632.00000
    80.5475     6526.00000
    80.5606     6794.00000
    80.5737     6964.00000
    80.5869     6854.00000
    80.6000     6845.00000
    80.6131     6877.00000
    80.6263     6958.00000
    80.6394     6895.00000
    80.6525     6901.00000
    80.6656     6651.00000
    80.6788     6754.00000
    80.6919     6861.00000
    80.7050     6770.00000
    80.7182     6682.00000
    80.7313     6662.00000
    80.7444     6709.00000
    80.7576     6738.00000
    80.7707     6707.00000
    80.7838     6864.00000
    80.7970     6879.00000
    80.8101     6812.00000
    80.8232     6786.00000
    80.8363     6750.00000
    80.8495     6668.00000
    80.8626     6617.00000
    80.8757     6531.00000
    80.8889     6361.00000
    80.9020     6467.00000
    80.9151     6378.00000
    80.9283     6249.00000
    80.9414     6397.00000
    80.9545     6244.00000
    80.9676     6209.00000
    80.9808     6248.00000
    80.9939     6192.00000
    81.0070     6273.00000
    81.0202     6310.00000
    81.0333     6392.00000
    81.0464     6292.00000
    81.0596     6294.00000
    81.0727     6345.00000
    81.0858     6323.00000
    81.0989     6321.00000
    81.1121     6329.00000
    81.1252     6349.00000
    81.1383     6512.00000
    81.1515     6449.00000
    81.1646     6404.00000
    81.1777     6287.00000
    81.1909     6241.00000
    81.2040     6469.00000
    81.2171     6380.00000
    81.2302     6338.00000
    81.2434     6284.00000
    81.2565     6327.00000
    81.2696     6220.00000
    81.2828     6321.00000
    81.2959     6459.00000
    81.3090     6505.00000
    81.3222     6703.00000
    81.3353     6668.00000
    81.3484     6708.00000
    81.3616     6548.00000
    81.3747     6673.00000
    81.3878     6655.00000
    81.4009     6889.00000
    81.4141     6807.00000
    81.4272     6705.00000
    81.4403     6684.00000
    81.4535     6700.00000
    81.4666     6628.00000
    81.4797     6609.00000
    81.4929     6519.00000
    81.5060     6553.00000
    81.5191     6386.00000
    81.5322     6364.00000
    81.5454     6231.00000
    81.5585     6241.00000
    81.5716     6241.00000
    81.5848     6269.00000
    81.5979     6372.00000
    81.6110     6337.00000
    81.6242     6491.00000
    81.6373     6416.00000
    81.6504     6094.00000
    81.6636     6216.00000
    81.6767     6325.00000
    81.6898     6074.00000
    81.7029     6151.00000
    81.7161     6122.00000
    81.7292     6156.00000
    81.7423     6357.00000
    81.7555     6152.00000
    81.7686     6061.00000
    81.7817     6048.00000
    81.7949     6039.00000
    81.8080     6019.00000
    81.8211     5881.00000
    81.8342     6020.00000
    81.8474     6072.00000
    81.8605     6039.00000
    81.8736     5957.00000
    81.8868     5979.00000
    81.8999     5995.00000
    81.9130     5973.00000
    81.9262     5994.00000
    81.9393     6102.00000
    81.9524     5931.00000
    81.9655     6069.00000
    81.9787     5980.00000
    81.9918     5878.00000
    82.0049     6030.00000
    82.0181     6130.00000
    82.0312     5827.00000
    82.0443     5776.00000
    82.0575     6052.00000
    82.0706     5970.00000
    82.0837     5997.00000
    82.0968     5976.00000
    82.1100     5924.00000
    82.1231     5882.00000
    82.1362     5913.00000
    82.1494     6052.00000
    82.1625     6018.00000
    82.1756     6169.00000
    82.1888     6256.00000
    82.2019     6189.00000
    82.2150     6211.00000
    82.2281     6116.00000
    82.2413     6237.00000
    82.2544     6270.00000
    82.2675     6260.00000
    82.2807     6398.00000
    82.2938     6225.00000
    82.3069     6257.00000
    82.3201     6093.00000
    82.3332     6158.00000
    82.3463     6057.00000
    82.3595     5986.00000
    82.3726     6201.00000
    82.3857     6242.00000
    82.3988     6104.00000
    82.4120     6238.00000
    82.4251     6177.00000
    82.4382     6319.00000
    82.4514     6374.00000
    82.4645     6293.00000
    82.4776     6346.00000
    82.4908     6404.00000
    82.5039     6373.00000
    82.5170     6380.00000
    82.5302     6310.00000
    82.5433     6374.00000
    82.5564     6319.00000
    82.5695     6298.00000
    82.5827     6329.00000
    82.5958     6235.00000
    82.6089     6138.00000
    82.6221     6195.00000
    82.6352     6054.00000
    82.6483     6130.00000
    82.6615     6274.00000
    82.6746     6059.00000
    82.6877     6036.00000
    82.7008     6164.00000
    82.7140     6180.00000
    82.7271     5931.00000
    82.7402     6030.00000
    82.7534     5970.00000
    82.7665     5990.00000
    82.7796     5855.00000
    82.7928     6046.00000
    82.8059     6132.00000
    82.8190     6025.00000
    82.8321     6142.00000
    82.8453     6121.00000
    82.8584     6082.00000
    82.8715     6164.00000
    82.8847     6277.00000
    82.8978     6106.00000
    82.9109     6349.00000
    82.9241     6260.00000
    82.9372     6346.00000
    82.9503     6489.00000
    82.9634     6380.00000
    82.9766     6389.00000
    82.9897     6492.00000
    83.0028     6521.00000
    83.0160     6400.00000
    83.0291     6275.00000
    83.0422     6234.00000
    83.0554     6306.00000
    83.0685     6260.00000
    83.0816     5939.00000
    83.0947     6175.00000
    83.1079     6097.00000
    83.1210     6165.00000
    83.1341     6227.00000
    83.1473     6233.00000
    83.1604     6216.00000
    83.1735     5999.00000
    83.1867     6192.00000
    83.1998     5967.00000
    83.2129     6106.00000
    83.2261     6170.00000
    83.2392     6207.00000
    83.2523     6276.00000
    83.2654     6231.00000
    83.2786     6377.00000
    83.2917     6092.00000
    83.3048     6115.00000
    83.3180     5828.00000
    83.3311     6109.00000
    83.3442     6145.00000
    83.3574     5925.00000
    83.3705     5966.00000
    83.3836     5953.00000
    83.3967     5924.00000
    83.4099     5740.00000
    83.4230     5831.00000
    83.4361     5920.00000
    83.4493     5767.00000
    83.4624     5828.00000
    83.4755     5774.00000
    83.4887     5809.00000
    83.5018     5886.00000
    83.5149     5837.00000
    83.5281     5896.00000
    83.5412     5643.00000
    83.5543     5952.00000
    83.5674     5980.00000
    83.5806     5909.00000
    83.5937     5748.00000
    83.6068     5776.00000
    83.6200     5803.00000
    83.6331     5765.00000
    83.6462     5775.00000
    83.6594     5720.00000
    83.6725     5767.00000
    83.6856     5798.00000
    83.6987     6062.00000
    83.7119     5901.00000
    83.7250     6001.00000
    83.7381     5959.00000
    83.7513     5833.00000
    83.7644     5764.00000
    83.7775     5656.00000
    83.7907     5764.00000
    83.8038     5752.00000
    83.8169     5807.00000
    83.8300     5643.00000
    83.8432     5698.00000
    83.8563     5686.00000
    83.8694     5977.00000
    83.8826     5822.00000
    83.8957     5723.00000
    83.9088     5648.00000
    83.9220     5776.00000
    83.9351     5775.00000
    83.9482     5865.00000
    83.9613     5850.00000
    83.9745     5930.00000
    83.9876     5926.00000
    84.0007     5871.00000
    84.0139     5804.00000
    84.0270     5896.00000
    84.0401     5967.00000
    84.0533     5949.00000
    84.0664     6046.00000
    84.0795     5906.00000
    84.0927     5947.00000
    84.1058     5874.00000
    84.1189     5940.00000
    84.1320     5849.00000
    84.1452     5672.00000
    84.1583     5833.00000
    84.1714     6059.00000
    84.1846     5925.00000
    84.1977     6011.00000
    84.2108     5988.00000
    84.2240     5970.00000
    84.2371     6079.00000
    84.2502     5960.00000
    84.2633     5998.00000
    84.2765     5952.00000
    84.2896     5962.00000
    84.3027     5909.00000
    84.3159     5761.00000
    84.3290     5954.00000
    84.3421     5990.00000
    84.3553     6102.00000
    84.3684     5898.00000
    84.3815     5993.00000
    84.3946     5775.00000
    84.4078     5980.00000
    84.4209     6085.00000
    84.4340     6082.00000
    84.4472     6130.00000
    84.4603     6074.00000
    84.4734     6172.00000
    84.4866     6278.00000
    84.4997     6060.00000
    84.5128     6065.00000
    84.5260     6261.00000
    84.5391     6363.00000
    84.5522     6227.00000
    84.5653     6225.00000
    84.5785     6252.00000
    84.5916     6234.00000
    84.6047     6200.00000
    84.6179     6259.00000
    84.6310     6347.00000
    84.6441     6405.00000
    84.6573     6281.00000
    84.6704     6362.00000
    84.6835     6275.00000
    84.6966     6263.00000
    84.7098     6118.00000
    84.7229     6118.00000
    84.7360     6063.00000
    84.7492     6203.00000
    84.7623     6148.00000
    84.7754     5976.00000
    84.7886     5912.00000
    84.8017     6131.00000
    84.8148     6003.00000
    84.8279     6172.00000
    84.8411     5960.00000
    84.8542     6049.00000
    84.8673     6002.00000
    84.8805     6225.00000
    84.8936     6136.00000
    84.9067     6091.00000
    84.9199     5824.00000
    84.9330     5980.00000
    84.9461     6183.00000
    84.9593     6066.00000
    84.9724     6111.00000
    84.9855     5897.00000
    84.9986     5977.00000
    85.0118     5788.00000
    85.0249     5793.00000
    85.0380     5727.00000
    85.0512     5875.00000
    85.0643     5963.00000
    85.0774     5869.00000
    85.0906     5857.00000
    85.1037     5930.00000
    85.1168     5842.00000
    85.1299     5880.00000
    85.1431     5846.00000
    85.1562     5942.00000
    85.1693     5930.00000
    85.1825     5817.00000
    85.1956     5754.00000
    85.2087     5836.00000
    85.2219     5668.00000
    85.2350     5855.00000
    85.2481     5943.00000
    85.2612     5763.00000
    85.2744     6000.00000
    85.2875     5938.00000
    85.3006     6042.00000
    85.3138     5933.00000
    85.3269     5994.00000
    85.3400     6159.00000
    85.3532     5954.00000
    85.3663     5915.00000
    85.3794     6035.00000
    85.3925     5766.00000
    85.4057     5779.00000
    85.4188     5843.00000
    85.4319     5857.00000
    85.4451     5878.00000
    85.4582     5976.00000
    85.4713     5799.00000
    85.4845     5879.00000
    85.4976     5843.00000
    85.5107     6073.00000
    85.5238     5856.00000
    85.5370     5888.00000
    85.5501     5881.00000
    85.5632     5963.00000
    85.5764     5838.00000
    85.5895     5939.00000
    85.6026     5891.00000
    85.6158     5900.00000
    85.6289     5789.00000
    85.6420     6070.00000
    85.6552     6033.00000
    85.6683     6038.00000
    85.6814     5969.00000
    85.6945     6052.00000
    85.7077     6162.00000
    85.7208     6219.00000
    85.7339     6236.00000
    85.7471     6205.00000
    85.7602     6252.00000
    85.7733     6223.00000
    85.7865     5915.00000
    85.7996     6087.00000
    85.8127     5946.00000
    85.8259     6005.00000
    85.8390     5783.00000
    85.8521     5939.00000
    85.8652     5957.00000
    85.8784     5857.00000
    85.8915     6160.00000
    85.9046     5894.00000
    85.9178     6032.00000
    85.9309     6021.00000
    85.9440     6002.00000
    85.9572     5758.00000
    85.9703     6248.00000
    85.9834     6030.00000
    85.9965     6045.00000
    86.0097     6067.00000
    86.0228     6048.00000
    86.0359     6022.00000
    86.0491     5760.00000
    86.0622     5881.00000
    86.0753     5945.00000
    86.0885     5752.00000
    86.1016     5928.00000
    86.1147     5881.00000
    86.1278     5915.00000
    86.1410     5841.00000
    86.1541     5706.00000
    86.1672     5639.00000
    86.1804     5907.00000
    86.1935     5948.00000
    86.2066     5934.00000
    86.2198     5814.00000
    86.2329     5902.00000
    86.2460     6163.00000
    86.2591     6038.00000
    86.2723     6024.00000
    86.2854     6040.00000
    86.2985     6067.00000
    86.3117     5907.00000
    86.3248     6006.00000
    86.3379     5919.00000
    86.3511     5990.00000
    86.3642     5984.00000
    86.3773     5994.00000
    86.3904     6103.00000
    86.4036     6017.00000
    86.4167     6083.00000
    86.4298     6093.00000
    86.4430     5891.00000
    86.4561     6134.00000
    86.4692     6106.00000
    86.4824     6220.00000
    86.4955     6159.00000
    86.5086     6127.00000
    86.5218     6036.00000
    86.5349     6051.00000
    86.5480     6264.00000
    86.5611     6004.00000
    86.5743     6021.00000
    86.5874     6070.00000
    86.6005     6221.00000
    86.6137     6106.00000
    86.6268     6113.00000
    86.6399     6123.00000
    86.6531     6230.00000
    86.6662     5972.00000
    86.6793     5979.00000
    86.6925     6167.00000
    86.7056     6306.00000
    86.7187     6359.00000
    86.7318     6594.00000
    86.7450     6873.00000
    86.7581     6755.00000
    86.7712     6905.00000
    86.7844     7216.00000
    86.7975     7427.00000
    86.8106     7267.00000
    86.8238     7157.00000
    86.8369     6873.00000
    86.8500     6872.00000
    86.8631     6586.00000
    86.8763     6639.00000
    86.8894     6460.00000
    86.9025     6435.00000
    86.9157     6502.00000
    86.9288     6384.00000
    86.9419     6482.00000
    86.9551     6505.00000
    86.9682     6506.00000
    86.9813     6551.00000
    86.9944     6608.00000
    87.0076     6923.00000
    87.0207     6673.00000
    87.0338     6840.00000
    87.0470     6899.00000
    87.0601     6925.00000
    87.0732     6945.00000
    87.0864     6903.00000
    87.0995     6672.00000
    87.1126     6692.00000
    87.1257     6509.00000
    87.1389     6511.00000
    87.1520     6145.00000
    87.1651     6338.00000
    87.1783     6304.00000
    87.1914     6356.00000
    87.2045     6351.00000
    87.2177     6153.00000
    87.2308     6303.00000
    87.2439     6126.00000
    87.2570     6204.00000
    87.2702     6347.00000
    87.2833     6122.00000
    87.2964     6122.00000
    87.3096     6241.00000
    87.3227     6226.00000
    87.3358     6044.00000
    87.3490     6190.00000
    87.3621     6217.00000
    87.3752     6026.00000
    87.3884     6016.00000
    87.4015     6237.00000
    87.4146     6063.00000
    87.4277     5900.00000
    87.4409     5903.00000
    87.4540     5867.00000
    87.4671     6004.00000
    87.4803     5991.00000
    87.4934     6023.00000
    87.5065     5979.00000
    87.5197     5908.00000
    87.5328     5973.00000
    87.5459     6092.00000
    87.5590     5881.00000
    87.5722     5894.00000
    87.5853     6034.00000
    87.5984     5975.00000
    87.6116     5939.00000
    87.6247     6008.00000
    87.6378     5951.00000
    87.6510     5932.00000
    87.6641     6023.00000
    87.6772     5860.00000
    87.6904     6039.00000
    87.7035     6057.00000
    87.7166     5969.00000
    87.7297     6007.00000
    87.7429     6145.00000
    87.7560     6074.00000
    87.7691     6017.00000
    87.7823     6054.00000
    87.7954     6055.00000
    87.8085     6192.00000
    87.8217     6238.00000
    87.8348     6171.00000
    87.8479     6192.00000
    87.8610     5954.00000
    87.8742     6060.00000
    87.8873     6379.00000
    87.9004     6104.00000
    87.9136     6074.00000
    87.9267     6297.00000
    87.9398     6266.00000
    87.9530     6454.00000
    87.9661     6260.00000
    87.9792     6413.00000
    87.9923     6575.00000
    88.0055     6406.00000
    88.0186     6390.00000
    88.0317     6642.00000
    88.0449     6382.00000
    88.0580     6574.00000
    88.0711     6591.00000
    88.0843     6303.00000
    88.0974     6020.00000
    88.1105     6168.00000
    88.1236     6241.00000
    88.1368     6199.00000
    88.1499     6104.00000
    88.1630     6167.00000
    88.1762     6099.00000
    88.1893     6161.00000
    88.2024     6018.00000
    88.2156     5945.00000
    88.2287     6061.00000
    88.2418     6047.00000
    88.2550     5958.00000
    88.2681     6088.00000
    88.2812     6163.00000
    88.2943     5919.00000
    88.3075     6004.00000
    88.3206     6120.00000
    88.3337     6104.00000
    88.3469     6188.00000
    88.3600     6005.00000
    88.3731     6000.00000
    88.3863     6002.00000
    88.3994     5859.00000
    88.4125     5949.00000
    88.4256     5971.00000
    88.4388     5812.00000
    88.4519     5928.00000
    88.4650     5773.00000
    88.4782     5900.00000
    88.4913     5931.00000
    88.5044     5879.00000
    88.5176     6045.00000
    88.5307     6022.00000
    88.5438     5959.00000
    88.5569     6222.00000
    88.5701     6172.00000
    88.5832     6150.00000
    88.5963     6225.00000
    88.6095     6243.00000
    88.6226     6445.00000
    88.6357     6508.00000
    88.6489     6578.00000
    88.6620     6366.00000
    88.6751     6293.00000
    88.6882     6276.00000
    88.7014     6330.00000
    88.7145     6269.00000
    88.7276     6089.00000
    88.7408     6129.00000
    88.7539     6194.00000
    88.7670     6169.00000
    88.7802     6412.00000
    88.7933     6135.00000
    88.8064     6292.00000
    88.8196     6433.00000
    88.8327     6356.00000
    88.8458     6399.00000
    88.8589     6378.00000
    88.8721     6456.00000
    88.8852     6422.00000
    88.8983     6297.00000
    88.9115     6412.00000
    88.9246     6208.00000
    88.9377     6333.00000
    88.9509     6300.00000
    88.9640     6072.00000
    88.9771     6231.00000
    88.9902     6050.00000
    89.0034     6211.00000
    89.0165     6114.00000
    89.0296     6141.00000
    89.0428     5997.00000
    89.0559     6073.00000
    89.0690     6359.00000
    89.0822     6127.00000
    89.0953     6258.00000
    89.1084     6435.00000
    89.1216     6549.00000
    89.1347     6482.00000
    89.1478     6342.00000
    89.1609     6541.00000
    89.1741     6349.00000
    89.1872     6347.00000
    89.2003     6184.00000
    89.2135     6266.00000
    89.2266     6185.00000
    89.2397     6114.00000
    89.2529     6261.00000
    89.2660     6189.00000
    89.2791     6260.00000
    89.2922     6283.00000
    89.3054     6314.00000
    89.3185     6380.00000
    89.3316     6298.00000
    89.3448     6448.00000
    89.3579     6454.00000
    89.3710     6641.00000
    89.3842     6678.00000
    89.3973     6846.00000
    89.4104     6798.00000
    89.4235     6794.00000
    89.4367     6852.00000
    89.4498     6819.00000
    89.4629     6752.00000
    89.4761     6581.00000
    89.4892     6692.00000
    89.5023     6465.00000
    89.5155     6496.00000
    89.5286     6320.00000
    89.5417     6194.00000
    89.5548     6224.00000
    89.5680     6191.00000
    89.5811     6129.00000
    89.5942     6237.00000
    89.6074     6248.00000
    89.6205     6168.00000
    89.6336     6227.00000
    89.6468     6163.00000
    89.6599     6260.00000
    89.6730     6246.00000
    89.6861     6170.00000
    89.6993     6389.00000
    89.7124     6469.00000
    89.7255     6441.00000
    89.7387     6751.00000
    89.7518     6795.00000
    89.7649     6709.00000
    89.7781     6882.00000
    89.7912     6775.00000
    89.8043     6700.00000
    89.8175     6734.00000
    89.8306     6447.00000
    89.8437     6202.00000
    89.8568     6193.00000
    89.8700     6117.00000
    89.8831     6085.00000
    89.8962     5962.00000
    89.9094     5966.00000
    89.9225     5925.00000
    89.9356     6084.00000
    89.9488     6132.00000
    89.9619     5842.00000
    89.9750     5894.00000
    89.9882     5941.00000
    90.0013     5961.00000
    90.0144     5856.00000
    90.0275     5798.00000
    90.0407     6048.00000
    90.0538     5960.00000
    90.0669     6270.00000
    90.0801     6286.00000
    90.0932     6207.00000
    90.1063     5766.00000
    90.1195     6021.00000
    90.1326     5776.00000
    90.1457     5826.00000
    90.1588     5665.00000
    90.1720     5685.00000
    90.1851     5915.00000
    90.1982     5896.00000
    90.2114     5662.00000
    90.2245     5696.00000
    90.2376     5786.00000
    90.2508     5887.00000
    90.2639     5801.00000
    90.2770     5686.00000
    90.2901     5800.00000
    90.3033     5848.00000
    90.3164     5874.00000
    90.3295     5789.00000
    90.3427     5920.00000
    90.3558     5831.00000
    90.3689     5702.00000
    90.3821     5876.00000
    90.3952     5616.00000
    90.4083     5795.00000
    90.4214     5708.00000
    90.4346     5677.00000
    90.4477     5833.00000
    90.4608     5983.00000
    90.4740     5861.00000
    90.4871     5828.00000
    90.5002     5876.00000
    90.5134     5902.00000
    90.5265     5816.00000
    90.5396     5880.00000
    90.5527     5909.00000
    90.5659     5880.00000
    90.5790     5915.00000
    90.5921     6062.00000
    90.6053     5831.00000
    90.6184     5955.00000
    90.6315     6011.00000
    90.6447     5963.00000
    90.6578     5898.00000
    90.6709     5945.00000
    90.6841     5749.00000
    90.6972     5794.00000
    90.7103     5783.00000
    90.7234     5982.00000
    90.7366     5740.00000
    90.7497     5868.00000
    90.7628     5880.00000
    90.7760     5825.00000
    90.7891     5791.00000
    90.8022     5921.00000
    90.8154     5943.00000
    90.8285     5870.00000
    90.8416     5771.00000
    90.8548     5839.00000
    90.8679     5968.00000
    90.8810     5774.00000
    90.8941     5767.00000
    90.9073     5826.00000
    90.9204     5727.00000
    90.9335     5784.00000
    90.9467     5761.00000
    90.9598     5970.00000
    90.9729     5870.00000
    90.9861     5837.00000
    90.9992     5819.00000
    91.0123     5939.00000
    91.0254     5862.00000
    91.0386     6045.00000
    91.0517     5938.00000
    91.0648     5947.00000
    91.0780     5982.00000
    91.0911     6189.00000
    91.1042     6032.00000
    91.1174     6007.00000
    91.1305     6219.00000
    91.1436     6054.00000
    91.1567     6162.00000
    91.1699     6150.00000
    91.1830     6157.00000
    91.1961     6220.00000
    91.2093     6076.00000
    91.2224     6064.00000
    91.2355     6080.00000
    91.2487     6104.00000
    91.2618     6049.00000
    91.2749     6177.00000
    91.2880     6010.00000
    91.3012     5964.00000
    91.3143     5917.00000
    91.3274     6033.00000
    91.3406     5960.00000
    91.3537     5886.00000
    91.3668     5985.00000
    91.3800     6091.00000
    91.3931     5975.00000
    91.4062     5967.00000
    91.4193     6106.00000
    91.4325     6083.00000
    91.4456     6190.00000
    91.4587     6194.00000
    91.4719     6174.00000
    91.4850     6174.00000
    91.4981     6173.00000
    91.5113     6382.00000
    91.5244     6185.00000
    91.5375     6305.00000
    91.5507     6124.00000
    91.5638     6137.00000
    91.5769     6292.00000
    91.5900     6194.00000
    91.6032     6266.00000
    91.6163     6415.00000
    91.6294     6295.00000
    91.6426     6392.00000
    91.6557     6164.00000
    91.6688     6132.00000
    91.6820     6183.00000
    91.6951     5981.00000
    91.7082     6086.00000
    91.7213     5946.00000
    91.7345     6071.00000
    91.7476     6018.00000
    91.7607     6105.00000
    91.7739     6002.00000
    91.7870     6180.00000
    91.8001     6204.00000
    91.8133     6249.00000
    91.8264     6151.00000
    91.8395     6227.00000
    91.8526     6573.00000
    91.8658     6500.00000
    91.8789     6442.00000
    91.8920     6512.00000
    91.9052     6401.00000
    91.9183     6571.00000
    91.9314     6612.00000
    91.9446     6593.00000
    91.9577     6562.00000
    91.9708     6441.00000
    91.9840     6437.00000
    91.9971     6451.00000
    92.0102     6394.00000
    92.0233     6329.00000
    92.0365     6417.00000
    92.0496     6117.00000
    92.0627     6329.00000
    92.0759     6068.00000
    92.0890     6368.00000
    92.1021     6653.00000
    92.1153     6528.00000
    92.1284     6442.00000
    92.1415     6420.00000
    92.1546     6588.00000
    92.1678     6574.00000
    92.1809     6736.00000
    92.1940     6815.00000
    92.2072     6648.00000
    92.2203     6677.00000
    92.2334     6687.00000
    92.2466     6331.00000
    92.2597     6444.00000
    92.2728     6609.00000
    92.2859     6213.00000
    92.2991     6252.00000
    92.3122     6323.00000
    92.3253     6081.00000
    92.3385     6138.00000
    92.3516     6008.00000
    92.3647     5875.00000
    92.3779     6131.00000
    92.3910     6003.00000
    92.4041     6088.00000
    92.4173     5915.00000
    92.4304     6174.00000
    92.4435     6113.00000
    92.4566     5951.00000
    92.4698     6190.00000
    92.4829     6223.00000
    92.4960     6062.00000
    92.5092     6177.00000
    92.5223     6248.00000
    92.5354     6047.00000
    92.5486     6033.00000
    92.5617     6053.00000
    92.5748     5908.00000
    92.5879     6031.00000
    92.6011     5839.00000
    92.6142     5958.00000
    92.6273     5783.00000
    92.6405     5943.00000
    92.6536     5850.00000
    92.6667     5798.00000
    92.6799     5879.00000
    92.6930     5910.00000
    92.7061     5816.00000
    92.7192     5890.00000
    92.7324     5765.00000
    92.7455     5804.00000
    92.7586     5938.00000
    92.7718     5751.00000
    92.7849     5942.00000
    92.7980     5824.00000
    92.8112     5892.00000
    92.8243     5931.00000
    92.8374     6077.00000
    92.8505     5920.00000
    92.8637     5760.00000
    92.8768     5806.00000
    92.8899     5955.00000
    92.9031     5853.00000
    92.9162     5821.00000
    92.9293     5994.00000
    92.9425     6182.00000
    92.9556     6034.00000
    92.9687     6067.00000
    92.9819     5843.00000
    92.9950     5768.00000
    93.0081     5802.00000
    93.0212     5868.00000
    93.0344     5862.00000
    93.0475     5839.00000
    93.0606     5831.00000
    93.0738     5817.00000
    93.0869     5873.00000
    93.1000     5909.00000
    93.1132     5880.00000
    93.1263     5878.00000
    93.1394     5804.00000
    93.1525     5868.00000
    93.1657     5824.00000
    93.1788     5894.00000
    93.1919     5980.00000
    93.2051     6083.00000
    93.2182     5806.00000
    93.2313     6036.00000
    93.2445     5914.00000
    93.2576     5982.00000
    93.2707     5892.00000
    93.2839     5824.00000
    93.2970     5936.00000
    93.3101     5781.00000
    93.3232     5766.00000
    93.3364     5810.00000
    93.3495     6026.00000
    93.3626     5871.00000
    93.3758     5814.00000
    93.3889     5908.00000
    93.4020     5691.00000
    93.4152     5849.00000
    93.4283     5841.00000
    93.4414     5842.00000
    93.4545     5828.00000
    93.4677     5901.00000
    93.4808     6001.00000
    93.4939     5794.00000
    93.5071     5921.00000
    93.5202     5869.00000
    93.5333     6004.00000
    93.5465     5762.00000
    93.5596     5926.00000
    93.5727     6184.00000
    93.5858     6151.00000
    93.5990     6022.00000
    93.6121     6128.00000
    93.6252     6239.00000
    93.6384     6189.00000
    93.6515     6102.00000
    93.6646     6092.00000
    93.6778     6347.00000
    93.6909     6177.00000
    93.7040     6190.00000
    93.7171     6270.00000
    93.7303     6225.00000
    93.7434     6296.00000
    93.7565     6319.00000
    93.7697     6530.00000
    93.7828     6316.00000
    93.7959     6305.00000
    93.8091     6360.00000
    93.8222     5890.00000
    93.8353     6014.00000
    93.8484     5883.00000
    93.8616     6108.00000
    93.8747     5967.00000
    93.8878     6088.00000
    93.9010     6028.00000
    93.9141     5890.00000
    93.9272     5928.00000
    93.9404     5984.00000
    93.9535     5902.00000
    93.9666     6004.00000
    93.9798     5881.00000
    93.9929     5931.00000
    94.0060     6093.00000
    94.0191     6177.00000
    94.0323     6140.00000
    94.0454     6119.00000
    94.0585     5947.00000
    94.0717     5947.00000
    94.0848     6022.00000
    94.0979     6077.00000
    94.1111     5919.00000
    94.1242     5890.00000
    94.1373     5753.00000
    94.1505     6020.00000
    94.1636     5904.00000
    94.1767     5966.00000
    94.1898     5828.00000
    94.2030     5899.00000
    94.2161     5770.00000
    94.2292     5777.00000
    94.2424     5788.00000
    94.2555     5735.00000
    94.2686     5869.00000
    94.2818     5906.00000
    94.2949     5862.00000
    94.3080     6000.00000
    94.3211     5789.00000
    94.3343     5747.00000
    94.3474     5948.00000
    94.3605     5965.00000
    94.3737     6027.00000
    94.3868     5985.00000
    94.3999     6094.00000
    94.4131     6030.00000
    94.4262     6046.00000
    94.4393     6134.00000
    94.4524     6315.00000
    94.4656     6304.00000
    94.4787     6271.00000
    94.4918     6349.00000
    94.5050     6293.00000
    94.5181     6248.00000
    94.5312     6325.00000
    94.5444     6279.00000
    94.5575     6317.00000
    94.5706     6182.00000
    94.5837     6378.00000
    94.5969     6315.00000
    94.6100     6328.00000
    94.6231     6401.00000
    94.6363     6317.00000
    94.6494     6275.00000
    94.6625     6168.00000
    94.6757     6175.00000
    94.6888     6132.00000
    94.7019     6151.00000
    94.7150     6149.00000
    94.7282     6060.00000
    94.7413     6215.00000
    94.7544     6275.00000
    94.7676     6302.00000
    94.7807     6308.00000
    94.7938     6178.00000
    94.8070     6252.00000
    94.8201     6105.00000
    94.8332     6169.00000
    94.8464     6276.00000
    94.8595     6341.00000
    94.8726     6184.00000
    94.8857     6091.00000
    94.8989     6158.00000
    94.9120     6135.00000
    94.9251     6407.00000
    94.9383     6329.00000
    94.9514     6384.00000
    94.9645     6217.00000
    94.9777     6144.00000
    94.9908     6183.00000
    95.0039     6221.00000
    95.0170     6168.00000
    95.0302     6169.00000
    95.0433     6049.00000
    95.0564     6124.00000
    95.0696     6058.00000
    95.0827     5883.00000
    95.0958     5820.00000
    95.1090     6023.00000
    95.1221     5937.00000
    95.1352     6021.00000
    95.1484     5841.00000
    95.1615     5976.00000
    95.1746     6149.00000
    95.1877     5738.00000
    95.2009     5768.00000
    95.2140     6019.00000
    95.2271     5969.00000
    95.2403     6009.00000
    95.2534     6040.00000
    95.2665     6068.00000
    95.2797     6019.00000
    95.2928     6256.00000
    95.3059     6268.00000
    95.3190     6280.00000
    95.3322     6220.00000
    95.3453     6272.00000
    95.3584     6473.00000
    95.3716     6375.00000
    95.3847     6373.00000
    95.3978     6457.00000
    95.4110     6281.00000
    95.4241     6198.00000
    95.4372     6199.00000
    95.4503     6113.00000
    95.4635     6055.00000
    95.4766     6061.00000
    95.4897     6168.00000
    95.5029     5859.00000
    95.5160     5908.00000
    95.5291     5934.00000
    95.5423     5909.00000
    95.5554     5985.00000
    95.5685     5929.00000
    95.5816     5947.00000
    95.5948     6101.00000
    95.6079     6169.00000
    95.6210     6189.00000
    95.6342     6120.00000
    95.6473     6216.00000
    95.6604     6321.00000
    95.6736     6317.00000
    95.6867     6505.00000
    95.6998     6543.00000
    95.7130     6443.00000
    95.7261     6369.00000
    95.7392     6474.00000
    95.7523     6548.00000
    95.7655     6424.00000
    95.7786     6393.00000
    95.7917     6167.00000
    95.8049     6144.00000
    95.8180     6000.00000
    95.8311     6062.00000
    95.8443     6020.00000
    95.8574     5928.00000
    95.8705     5897.00000
    95.8836     5938.00000
    95.8968     5799.00000
    95.9099     5956.00000
    95.9230     5914.00000
    95.9362     5972.00000
    95.9493     5921.00000
    95.9624     5987.00000
    95.9756     5991.00000
    95.9887     5983.00000
    96.0018     5939.00000
    96.0149     5988.00000
    96.0281     6018.00000
    96.0412     5940.00000
    96.0543     6017.00000
    96.0675     6030.00000
    96.0806     5972.00000
    96.0937     5949.00000
    96.1069     5893.00000
    96.1200     5925.00000
    96.1331     5838.00000
    96.1463     5968.00000
    96.1594     6042.00000
    96.1725     5917.00000
    96.1856     5770.00000
    96.1988     5760.00000
    96.2119     5568.00000
    96.2250     5735.00000
    96.2382     5928.00000
    96.2513     5741.00000
    96.2644     5789.00000
    96.2776     5701.00000
    96.2907     5617.00000
    96.3038     5742.00000
    96.3169     5778.00000
    96.3301     5819.00000
    96.3432     5710.00000
    96.3563     5690.00000
    96.3695     5842.00000
    96.3826     5840.00000
    96.3957     5784.00000
    96.4089     5746.00000
    96.4220     5760.00000
    96.4351     5687.00000
    96.4482     5544.00000
    96.4614     5591.00000
    96.4745     5742.00000
    96.4876     5748.00000
    96.5008     5819.00000
    96.5139     5736.00000
    96.5270     5832.00000
    96.5402     5825.00000
    96.5533     5646.00000
    96.5664     5755.00000
    96.5796     5800.00000
    96.5927     5766.00000
    96.6058     5666.00000
    96.6189     5605.00000
    96.6321     5835.00000
    96.6452     5769.00000
    96.6583     5938.00000
    96.6715     5814.00000
    96.6846     5847.00000
    96.6977     5734.00000
    96.7109     5727.00000
    96.7240     5941.00000
    96.7371     5775.00000
    96.7502     5737.00000
    96.7634     5789.00000
    96.7765     5783.00000
    96.7896     5949.00000
    96.8028     5865.00000
    96.8159     5806.00000
    96.8290     5900.00000
    96.8422     5863.00000
    96.8553     5756.00000
    96.8684     5955.00000
    96.8815     5930.00000
    96.8947     5980.00000
    96.9078     5927.00000
    96.9209     5953.00000
    96.9341     6072.00000
    96.9472     6126.00000
    96.9603     6046.00000
    96.9735     6017.00000
    96.9866     6021.00000
    96.9997     6108.00000
    97.0128     6150.00000
    97.0260     6132.00000
    97.0391     6224.00000
    97.0522     6135.00000
    97.0654     6080.00000
    97.0785     6004.00000
    97.0916     6173.00000
    97.1048     5906.00000
    97.1179     6035.00000
    97.1310     5943.00000
    97.1442     6150.00000
    97.1573     5974.00000
    97.1704     5941.00000
    97.1835     5937.00000
    97.1967     6030.00000
    97.2098     6021.00000
    97.2229     6083.00000
    97.2361     6079.00000
    97.2492     5972.00000
    97.2623     6057.00000
    97.2755     5928.00000
    97.2886     6032.00000
    97.3017     6147.00000
    97.3148     5937.00000
    97.3280     6008.00000
    97.3411     5998.00000
    97.3542     6075.00000
    97.3674     6204.00000
    97.3805     6041.00000
    97.3936     5856.00000
    97.4068     6071.00000
    97.4199     6039.00000
    97.4330     6108.00000
    97.4462     6021.00000
    97.4593     5992.00000
    97.4724     6016.00000
    97.4855     5976.00000
    97.4987     5960.00000
    97.5118     6097.00000
    97.5249     6037.00000
    97.5381     5900.00000
    97.5512     6102.00000
    97.5643     6124.00000
    97.5775     6164.00000
    97.5906     6249.00000
    97.6037     6170.00000
    97.6168     5924.00000
    97.6300     5961.00000
    97.6431     6006.00000
    97.6562     5879.00000
    97.6694     5854.00000
    97.6825     5944.00000
    97.6956     5827.00000
    97.7088     5846.00000
    97.7219     5968.00000
    97.7350     5883.00000
    97.7481     5933.00000
    97.7613     5798.00000
    97.7744     5798.00000
    97.7875     5700.00000
    97.8007     5816.00000
    97.8138     5878.00000
    97.8269     5892.00000
    97.8401     5846.00000
    97.8532     5836.00000
    97.8663     5928.00000
    97.8794     5779.00000
    97.8926     5742.00000
    97.9057     5951.00000
    97.9188     5860.00000
    97.9320     5874.00000
    97.9451     5799.00000
    97.9582     5727.00000
    97.9714     5812.00000
    97.9845     5875.00000
    97.9976     5867.00000
    98.0107     5671.00000
    98.0239     5553.00000
    98.0370     5835.00000
    98.0501     5843.00000
    98.0633     5691.00000
    98.0764     5749.00000
    98.0895     5833.00000
    98.1027     5895.00000
    98.1158     5851.00000
    98.1289     5812.00000
    98.1421     5778.00000
    98.1552     5976.00000
    98.1683     5830.00000
    98.1814     5919.00000
    98.1946     5869.00000
    98.2077     5785.00000
    98.2208     5840.00000
    98.2340     5746.00000
    98.2471     5950.00000
    98.2602     5991.00000
    98.2734     5990.00000
    98.2865     6059.00000
    98.2996     5953.00000
    98.3128     6009.00000
    98.3259     5996.00000
    98.3390     5958.00000
    98.3521     6024.00000
    98.3653     5952.00000
    98.3784     5976.00000
    98.3915     5948.00000
    98.4047     6010.00000
    98.4178     5845.00000
    98.4309     5884.00000
    98.4441     5974.00000
    98.4572     6280.00000
    98.4703     6065.00000
    98.4834     6010.00000
    98.4966     6144.00000
    98.5097     6068.00000
    98.5228     5967.00000
    98.5360     5972.00000
    98.5491     6128.00000
    98.5622     6046.00000
    98.5754     6068.00000
    98.5885     6104.00000
    98.6016     6250.00000
    98.6147     6120.00000
    98.6279     6268.00000
    98.6410     6229.00000
    98.6541     6273.00000
    98.6673     6215.00000
    98.6804     6272.00000
    98.6935     6340.00000
    98.7067     6030.00000
    98.7198     6173.00000
    98.7329     5956.00000
    98.7460     6222.00000
    98.7592     5949.00000
    98.7723     6046.00000
    98.7854     5925.00000
    98.7986     5861.00000
    98.8117     5911.00000
    98.8248     5950.00000
    98.8380     6060.00000
    98.8511     5998.00000
    98.8642     5885.00000
    98.8773     5964.00000
    98.8905     6031.00000
    98.9036     5769.00000
    98.9167     6023.00000
    98.9299     5767.00000
    98.9430     6010.00000
    98.9561     6009.00000
    98.9693     5714.00000
    98.9824     5848.00000
    98.9955     5770.00000
    99.0087     6031.00000
    99.0218     5830.00000
    99.0349     5999.00000
    99.0480     5866.00000
    99.0612     5733.00000
    99.0743     5834.00000
    99.0874     5927.00000
    99.1006     5866.00000
    99.1137     5829.00000
    99.1268     5843.00000
    99.1400     5699.00000
    99.1531     5849.00000
    99.1662     5613.00000
    99.1793     5863.00000
    99.1925     5684.00000
    99.2056     5704.00000
    99.2187     5881.00000
    99.2319     5688.00000
    99.2450     5898.00000
    99.2581     5668.00000
    99.2713     5724.00000
    99.2844     5815.00000
    99.2975     5740.00000
    99.3107     5813.00000
    99.3238     5661.00000
    99.3369     5742.00000
    99.3500     5723.00000
    99.3632     5747.00000
    99.3763     5736.00000
    99.3894     5821.00000
    99.4026     5623.00000
    99.4157     5679.00000
    99.4288     5815.00000
    99.4420     5725.00000
    99.4551     5782.00000
    99.4682     5610.00000
    99.4813     5689.00000
    99.4945     5576.00000
    99.5076     5688.00000
    99.5207     5615.00000
    99.5339     5673.00000
    99.5470     5602.00000
    99.5601     5618.00000
    99.5733     5647.00000
    99.5864     5747.00000
    99.5995     5522.00000
    99.6126     5769.00000
    99.6258     5664.00000
    99.6389     5759.00000
    99.6520     5753.00000
    99.6652     5568.00000
    99.6783     5636.00000
    99.6914     5766.00000
    99.7046     5766.00000
    99.7177     5896.00000
    99.7308     5608.00000
    99.7439     5659.00000
    99.7571     5675.00000
    99.7702     5709.00000
    99.7833     5808.00000
    99.7965     5657.00000
    99.8096     5787.00000
    99.8227     5691.00000
    99.8359     5737.00000
    99.8490     5702.00000
    99.8621     5831.00000
    99.8753     5717.00000
    99.8884     5810.00000
    99.9015     5646.00000
    99.9146     5799.00000
    99.9278     5806.00000
    99.9409     5767.00000
    99.9540     5753.00000
    99.9672     5853.00000
    99.9803     5641.00000
    99.9934     5784.00000
