! Initial file:   D:\ZAKARY_OUAIL\MA_THESE\Deuxième_année_de_thèse\DRX\Affinement_DRX\Fullprof\Thermodiff3-nuit_NaNbO2F2\250°C\NaNbO2F2-Lent_250°C.xrdml
! Initial format:  58
! WAVE (A):      1.54060     1.54060     1.00000
! REM : data have been multiplied by     1.0000
! X_data : 2 Theta (deg.)                                                                                                                                                                                                                                                  
! Y_data : Intensity (arb. units)                                                                                                                                                                                                                                          
!     X         Y
!--------------------------------------------------------------------------------
    10.0116     7409.00000
    10.0247     7627.00000
    10.0379     7484.00000
    10.0510     7401.00000
    10.0641     7422.00000
    10.0772     7572.00000
    10.0904     7473.00000
    10.1035     7555.00000
    10.1166     7739.00000
    10.1298     7680.00000
    10.1429     7877.00000
    10.1560     7801.00000
    10.1692     7768.00000
    10.1823     7742.00000
    10.1954     7632.00000
    10.2086     7854.00000
    10.2217     7655.00000
    10.2348     7777.00000
    10.2479     7690.00000
    10.2611     7597.00000
    10.2742     7459.00000
    10.2873     7793.00000
    10.3005     7582.00000
    10.3136     7706.00000
    10.3267     7565.00000
    10.3399     7681.00000
    10.3530     7524.00000
    10.3661     7477.00000
    10.3792     7650.00000
    10.3924     7600.00000
    10.4055     7663.00000
    10.4186     7474.00000
    10.4318     7748.00000
    10.4449     7617.00000
    10.4580     7552.00000
    10.4712     7651.00000
    10.4843     7602.00000
    10.4974     7656.00000
    10.5105     7537.00000
    10.5237     7596.00000
    10.5368     7684.00000
    10.5499     7693.00000
    10.5631     7560.00000
    10.5762     7585.00000
    10.5893     7496.00000
    10.6025     7382.00000
    10.6156     7515.00000
    10.6287     7563.00000
    10.6418     7595.00000
    10.6550     7557.00000
    10.6681     7590.00000
    10.6812     7530.00000
    10.6944     7638.00000
    10.7075     7637.00000
    10.7206     7613.00000
    10.7338     7662.00000
    10.7469     7566.00000
    10.7600     7463.00000
    10.7732     7632.00000
    10.7863     7715.00000
    10.7994     7759.00000
    10.8125     7693.00000
    10.8257     7698.00000
    10.8388     7668.00000
    10.8519     7786.00000
    10.8651     7915.00000
    10.8782     8001.00000
    10.8913     7933.00000
    10.9045     7997.00000
    10.9176     8215.00000
    10.9307     8112.00000
    10.9438     7949.00000
    10.9570     8157.00000
    10.9701     8080.00000
    10.9832     8339.00000
    10.9964     8276.00000
    11.0095     8449.00000
    11.0226     8356.00000
    11.0358     8425.00000
    11.0489     8585.00000
    11.0620     8978.00000
    11.0751     8981.00000
    11.0883     9535.00000
    11.1014     9932.00000
    11.1145    10534.00000
    11.1277    11273.00000
    11.1408    12606.00000
    11.1539    15004.00000
    11.1671    17975.00000
    11.1802    22741.00000
    11.1933    29030.00000
    11.2065    40695.00000
    11.2196    56892.00000
    11.2327    72255.00000
    11.2458    81629.00000
    11.2590    78496.00000
    11.2721    67124.00000
    11.2852    51166.00000
    11.2984    36079.00000
    11.3115    24069.00000
    11.3246    16405.00000
    11.3378    12508.00000
    11.3509    10112.00000
    11.3640     9389.00000
    11.3771     8873.00000
    11.3903     8665.00000
    11.4034     8584.00000
    11.4165     8334.00000
    11.4297     8468.00000
    11.4428     8203.00000
    11.4559     8103.00000
    11.4691     8048.00000
    11.4822     7907.00000
    11.4953     7787.00000
    11.5084     7717.00000
    11.5216     7623.00000
    11.5347     7916.00000
    11.5478     7603.00000
    11.5610     7654.00000
    11.5741     7549.00000
    11.5872     7583.00000
    11.6004     7637.00000
    11.6135     7749.00000
    11.6266     7738.00000
    11.6398     7627.00000
    11.6529     7653.00000
    11.6660     7534.00000
    11.6791     7556.00000
    11.6923     7784.00000
    11.7054     7687.00000
    11.7185     7684.00000
    11.7317     7880.00000
    11.7448     7790.00000
    11.7579     7927.00000
    11.7711     7724.00000
    11.7842     7817.00000
    11.7973     8056.00000
    11.8104     7931.00000
    11.8236     7954.00000
    11.8367     7937.00000
    11.8498     7890.00000
    11.8630     7918.00000
    11.8761     7887.00000
    11.8892     7918.00000
    11.9024     8021.00000
    11.9155     7902.00000
    11.9286     7966.00000
    11.9417     7940.00000
    11.9549     7930.00000
    11.9680     7947.00000
    11.9811     7911.00000
    11.9943     8038.00000
    12.0074     7926.00000
    12.0205     8078.00000
    12.0337     8012.00000
    12.0468     8059.00000
    12.0599     8092.00000
    12.0731     8009.00000
    12.0862     7790.00000
    12.0993     8062.00000
    12.1124     7962.00000
    12.1256     8011.00000
    12.1387     8096.00000
    12.1518     7954.00000
    12.1650     8084.00000
    12.1781     7998.00000
    12.1912     8040.00000
    12.2044     7944.00000
    12.2175     8176.00000
    12.2306     8064.00000
    12.2437     7917.00000
    12.2569     7941.00000
    12.2700     8069.00000
    12.2831     7996.00000
    12.2963     8046.00000
    12.3094     7996.00000
    12.3225     7915.00000
    12.3357     8102.00000
    12.3488     8040.00000
    12.3619     8083.00000
    12.3750     8238.00000
    12.3882     8051.00000
    12.4013     7755.00000
    12.4144     8113.00000
    12.4276     8192.00000
    12.4407     7964.00000
    12.4538     7995.00000
    12.4670     7934.00000
    12.4801     7942.00000
    12.4932     8204.00000
    12.5063     8033.00000
    12.5195     7931.00000
    12.5326     7923.00000
    12.5457     7977.00000
    12.5589     8164.00000
    12.5720     7972.00000
    12.5851     7944.00000
    12.5983     7883.00000
    12.6114     8055.00000
    12.6245     7859.00000
    12.6377     7904.00000
    12.6508     8033.00000
    12.6639     7886.00000
    12.6770     7917.00000
    12.6902     8071.00000
    12.7033     8139.00000
    12.7164     8037.00000
    12.7296     7772.00000
    12.7427     8207.00000
    12.7558     8102.00000
    12.7690     7841.00000
    12.7821     7968.00000
    12.7952     8126.00000
    12.8083     8015.00000
    12.8215     8025.00000
    12.8346     7825.00000
    12.8477     7949.00000
    12.8609     7843.00000
    12.8740     8022.00000
    12.8871     8056.00000
    12.9003     8016.00000
    12.9134     7851.00000
    12.9265     7977.00000
    12.9396     7967.00000
    12.9528     7926.00000
    12.9659     7941.00000
    12.9790     7915.00000
    12.9922     7865.00000
    13.0053     7916.00000
    13.0184     7852.00000
    13.0316     7865.00000
    13.0447     7851.00000
    13.0578     7895.00000
    13.0710     7974.00000
    13.0841     7970.00000
    13.0972     7838.00000
    13.1103     7906.00000
    13.1235     7842.00000
    13.1366     8066.00000
    13.1497     7980.00000
    13.1629     7847.00000
    13.1760     7834.00000
    13.1891     7957.00000
    13.2023     7808.00000
    13.2154     8019.00000
    13.2285     8035.00000
    13.2416     7761.00000
    13.2548     7937.00000
    13.2679     7894.00000
    13.2810     7631.00000
    13.2942     7755.00000
    13.3073     7939.00000
    13.3204     7754.00000
    13.3336     7695.00000
    13.3467     7678.00000
    13.3598     7794.00000
    13.3729     7953.00000
    13.3861     7965.00000
    13.3992     7758.00000
    13.4123     7918.00000
    13.4255     7830.00000
    13.4386     7821.00000
    13.4517     7768.00000
    13.4649     7961.00000
    13.4780     7746.00000
    13.4911     7833.00000
    13.5043     8030.00000
    13.5174     7892.00000
    13.5305     7737.00000
    13.5436     7783.00000
    13.5568     7819.00000
    13.5699     7783.00000
    13.5830     7671.00000
    13.5962     7544.00000
    13.6093     7724.00000
    13.6224     7741.00000
    13.6356     7913.00000
    13.6487     7878.00000
    13.6618     7885.00000
    13.6749     7984.00000
    13.6881     7991.00000
    13.7012     8097.00000
    13.7143     8053.00000
    13.7275     8009.00000
    13.7406     7899.00000
    13.7537     8035.00000
    13.7669     7935.00000
    13.7800     7948.00000
    13.7931     7854.00000
    13.8062     7844.00000
    13.8194     7794.00000
    13.8325     7804.00000
    13.8456     7760.00000
    13.8588     7880.00000
    13.8719     7946.00000
    13.8850     7967.00000
    13.8982     7905.00000
    13.9113     7856.00000
    13.9244     7819.00000
    13.9376     7878.00000
    13.9507     7781.00000
    13.9638     7966.00000
    13.9769     7929.00000
    13.9901     7761.00000
    14.0032     7829.00000
    14.0163     7598.00000
    14.0295     7785.00000
    14.0426     7914.00000
    14.0557     7665.00000
    14.0689     7791.00000
    14.0820     7869.00000
    14.0951     7790.00000
    14.1082     7883.00000
    14.1214     7914.00000
    14.1345     7787.00000
    14.1476     7769.00000
    14.1608     8010.00000
    14.1739     7943.00000
    14.1870     7896.00000
    14.2002     7823.00000
    14.2133     7904.00000
    14.2264     7819.00000
    14.2395     7775.00000
    14.2527     7832.00000
    14.2658     7848.00000
    14.2789     7888.00000
    14.2921     7916.00000
    14.3052     7942.00000
    14.3183     7909.00000
    14.3315     7839.00000
    14.3446     7726.00000
    14.3577     7852.00000
    14.3708     7999.00000
    14.3840     7916.00000
    14.3971     7942.00000
    14.4102     8138.00000
    14.4234     7965.00000
    14.4365     8010.00000
    14.4496     8061.00000
    14.4628     8205.00000
    14.4759     8504.00000
    14.4890     8798.00000
    14.5022     9202.00000
    14.5153     9482.00000
    14.5284     9498.00000
    14.5415     9592.00000
    14.5547     9376.00000
    14.5678     9121.00000
    14.5809     8859.00000
    14.5941     8447.00000
    14.6072     8241.00000
    14.6203     8014.00000
    14.6335     7945.00000
    14.6466     7987.00000
    14.6597     7699.00000
    14.6728     7744.00000
    14.6860     7796.00000
    14.6991     7813.00000
    14.7122     7863.00000
    14.7254     7681.00000
    14.7385     7837.00000
    14.7516     7839.00000
    14.7648     7770.00000
    14.7779     7626.00000
    14.7910     7535.00000
    14.8041     7737.00000
    14.8173     7697.00000
    14.8304     7836.00000
    14.8435     7728.00000
    14.8567     7605.00000
    14.8698     7631.00000
    14.8829     7759.00000
    14.8961     7764.00000
    14.9092     7601.00000
    14.9223     7764.00000
    14.9355     7679.00000
    14.9486     7699.00000
    14.9617     7770.00000
    14.9748     7669.00000
    14.9880     7686.00000
    15.0011     7764.00000
    15.0142     7663.00000
    15.0274     7526.00000
    15.0405     7713.00000
    15.0536     7708.00000
    15.0668     7873.00000
    15.0799     7734.00000
    15.0930     7796.00000
    15.1061     7786.00000
    15.1193     7807.00000
    15.1324     7748.00000
    15.1455     7635.00000
    15.1587     7574.00000
    15.1718     7665.00000
    15.1849     7588.00000
    15.1981     7543.00000
    15.2112     7728.00000
    15.2243     7659.00000
    15.2374     7621.00000
    15.2506     7764.00000
    15.2637     7728.00000
    15.2768     7662.00000
    15.2900     7570.00000
    15.3031     7582.00000
    15.3162     7734.00000
    15.3294     7686.00000
    15.3425     7611.00000
    15.3556     7664.00000
    15.3688     7869.00000
    15.3819     7682.00000
    15.3950     7730.00000
    15.4081     7666.00000
    15.4213     7787.00000
    15.4344     7664.00000
    15.4475     7706.00000
    15.4607     7585.00000
    15.4738     7816.00000
    15.4869     7660.00000
    15.5001     7614.00000
    15.5132     7753.00000
    15.5263     7590.00000
    15.5394     7604.00000
    15.5526     7547.00000
    15.5657     7808.00000
    15.5788     7687.00000
    15.5920     7620.00000
    15.6051     7385.00000
    15.6182     7597.00000
    15.6314     7504.00000
    15.6445     7559.00000
    15.6576     7559.00000
    15.6707     7590.00000
    15.6839     7610.00000
    15.6970     7773.00000
    15.7101     7664.00000
    15.7233     7585.00000
    15.7364     7708.00000
    15.7495     7798.00000
    15.7627     7525.00000
    15.7758     7509.00000
    15.7889     7635.00000
    15.8021     7789.00000
    15.8152     7813.00000
    15.8283     7674.00000
    15.8414     7669.00000
    15.8546     7721.00000
    15.8677     7742.00000
    15.8808     7782.00000
    15.8940     7770.00000
    15.9071     7575.00000
    15.9202     7467.00000
    15.9334     7622.00000
    15.9465     7677.00000
    15.9596     7679.00000
    15.9727     7608.00000
    15.9859     7612.00000
    15.9990     7642.00000
    16.0121     7720.00000
    16.0253     7874.00000
    16.0384     7811.00000
    16.0515     7644.00000
    16.0647     7783.00000
    16.0778     7601.00000
    16.0909     7432.00000
    16.1040     7682.00000
    16.1172     7489.00000
    16.1303     7575.00000
    16.1434     7586.00000
    16.1566     7644.00000
    16.1697     7720.00000
    16.1828     7657.00000
    16.1960     7449.00000
    16.2091     7595.00000
    16.2222     7708.00000
    16.2353     7660.00000
    16.2485     7597.00000
    16.2616     7426.00000
    16.2747     7698.00000
    16.2879     7563.00000
    16.3010     7420.00000
    16.3141     7756.00000
    16.3273     7865.00000
    16.3404     7630.00000
    16.3535     7586.00000
    16.3667     7772.00000
    16.3798     7801.00000
    16.3929     7613.00000
    16.4060     7436.00000
    16.4192     7667.00000
    16.4323     7742.00000
    16.4454     7673.00000
    16.4586     7657.00000
    16.4717     7738.00000
    16.4848     7553.00000
    16.4980     7701.00000
    16.5111     7506.00000
    16.5242     7665.00000
    16.5373     7618.00000
    16.5505     7504.00000
    16.5636     7404.00000
    16.5767     7484.00000
    16.5899     7497.00000
    16.6030     7575.00000
    16.6161     7514.00000
    16.6293     7508.00000
    16.6424     7492.00000
    16.6555     7484.00000
    16.6686     7482.00000
    16.6818     7568.00000
    16.6949     7675.00000
    16.7080     7667.00000
    16.7212     7652.00000
    16.7343     7793.00000
    16.7474     7737.00000
    16.7606     7702.00000
    16.7737     7884.00000
    16.7868     8066.00000
    16.8000     8035.00000
    16.8131     8061.00000
    16.8262     7874.00000
    16.8393     8087.00000
    16.8525     7775.00000
    16.8656     7852.00000
    16.8787     7702.00000
    16.8919     7656.00000
    16.9050     7455.00000
    16.9181     7514.00000
    16.9313     7458.00000
    16.9444     7502.00000
    16.9575     7472.00000
    16.9706     7601.00000
    16.9838     7519.00000
    16.9969     7472.00000
    17.0100     7432.00000
    17.0232     7369.00000
    17.0363     7485.00000
    17.0494     7552.00000
    17.0626     7444.00000
    17.0757     7499.00000
    17.0888     7512.00000
    17.1019     7619.00000
    17.1151     7387.00000
    17.1282     7781.00000
    17.1413     7607.00000
    17.1545     7556.00000
    17.1676     7560.00000
    17.1807     7171.00000
    17.1939     7413.00000
    17.2070     7653.00000
    17.2201     7583.00000
    17.2333     7496.00000
    17.2464     7590.00000
    17.2595     7529.00000
    17.2726     7467.00000
    17.2858     7398.00000
    17.2989     7472.00000
    17.3120     7550.00000
    17.3252     7268.00000
    17.3383     7383.00000
    17.3514     7535.00000
    17.3646     7269.00000
    17.3777     7278.00000
    17.3908     7663.00000
    17.4039     7255.00000
    17.4171     7296.00000
    17.4302     7292.00000
    17.4433     7316.00000
    17.4565     7404.00000
    17.4696     7640.00000
    17.4827     7335.00000
    17.4959     7350.00000
    17.5090     7298.00000
    17.5221     7486.00000
    17.5352     7308.00000
    17.5484     7330.00000
    17.5615     7396.00000
    17.5746     7275.00000
    17.5878     7301.00000
    17.6009     7499.00000
    17.6140     7306.00000
    17.6272     7483.00000
    17.6403     7256.00000
    17.6534     7218.00000
    17.6666     7303.00000
    17.6797     7412.00000
    17.6928     7299.00000
    17.7059     7314.00000
    17.7191     7330.00000
    17.7322     7434.00000
    17.7453     7312.00000
    17.7585     7267.00000
    17.7716     7393.00000
    17.7847     7450.00000
    17.7979     7498.00000
    17.8110     7329.00000
    17.8241     7452.00000
    17.8372     7301.00000
    17.8504     7347.00000
    17.8635     7491.00000
    17.8766     7417.00000
    17.8898     7443.00000
    17.9029     7580.00000
    17.9160     7644.00000
    17.9292     7542.00000
    17.9423     7461.00000
    17.9554     7476.00000
    17.9685     7313.00000
    17.9817     7449.00000
    17.9948     7306.00000
    18.0079     7236.00000
    18.0211     7533.00000
    18.0342     7346.00000
    18.0473     7310.00000
    18.0605     7562.00000
    18.0736     7258.00000
    18.0867     7277.00000
    18.0998     7198.00000
    18.1130     7169.00000
    18.1261     7316.00000
    18.1392     7212.00000
    18.1524     7162.00000
    18.1655     7265.00000
    18.1786     7266.00000
    18.1918     7265.00000
    18.2049     7328.00000
    18.2180     7364.00000
    18.2312     7147.00000
    18.2443     7340.00000
    18.2574     7328.00000
    18.2705     7301.00000
    18.2837     7370.00000
    18.2968     7083.00000
    18.3099     7236.00000
    18.3231     7389.00000
    18.3362     7409.00000
    18.3493     7245.00000
    18.3625     7270.00000
    18.3756     7216.00000
    18.3887     7277.00000
    18.4018     7224.00000
    18.4150     7125.00000
    18.4281     7309.00000
    18.4412     7328.00000
    18.4544     7379.00000
    18.4675     7330.00000
    18.4806     7369.00000
    18.4938     7384.00000
    18.5069     7097.00000
    18.5200     7313.00000
    18.5331     7325.00000
    18.5463     7305.00000
    18.5594     7285.00000
    18.5725     7073.00000
    18.5857     7227.00000
    18.5988     7202.00000
    18.6119     7210.00000
    18.6251     7099.00000
    18.6382     7106.00000
    18.6513     7169.00000
    18.6645     7229.00000
    18.6776     7185.00000
    18.6907     7122.00000
    18.7038     7366.00000
    18.7170     7005.00000
    18.7301     7173.00000
    18.7432     7224.00000
    18.7564     7236.00000
    18.7695     7079.00000
    18.7826     7393.00000
    18.7958     7176.00000
    18.8089     7172.00000
    18.8220     7107.00000
    18.8351     7203.00000
    18.8483     7109.00000
    18.8614     7121.00000
    18.8745     7131.00000
    18.8877     7053.00000
    18.9008     7181.00000
    18.9139     7334.00000
    18.9271     7191.00000
    18.9402     7113.00000
    18.9533     7394.00000
    18.9664     7302.00000
    18.9796     7133.00000
    18.9927     7218.00000
    19.0058     7293.00000
    19.0190     7292.00000
    19.0321     7201.00000
    19.0452     7078.00000
    19.0584     7201.00000
    19.0715     7210.00000
    19.0846     7220.00000
    19.0978     7384.00000
    19.1109     7583.00000
    19.1240     7600.00000
    19.1371     7468.00000
    19.1503     7625.00000
    19.1634     7796.00000
    19.1765     7618.00000
    19.1897     7659.00000
    19.2028     7589.00000
    19.2159     7642.00000
    19.2291     7635.00000
    19.2422     7649.00000
    19.2553     7518.00000
    19.2684     7758.00000
    19.2816     7717.00000
    19.2947     7523.00000
    19.3078     7560.00000
    19.3210     7691.00000
    19.3341     7740.00000
    19.3472     7673.00000
    19.3604     7613.00000
    19.3735     7604.00000
    19.3866     7574.00000
    19.3997     7447.00000
    19.4129     7759.00000
    19.4260     7630.00000
    19.4391     7592.00000
    19.4523     7686.00000
    19.4654     7727.00000
    19.4785     7593.00000
    19.4917     7670.00000
    19.5048     7586.00000
    19.5179     7780.00000
    19.5311     7851.00000
    19.5442     8036.00000
    19.5573     7904.00000
    19.5704     8279.00000
    19.5836     8226.00000
    19.5967     8360.00000
    19.6098     8355.00000
    19.6230     8581.00000
    19.6361     8702.00000
    19.6492     8799.00000
    19.6624     9285.00000
    19.6755     9727.00000
    19.6886     9986.00000
    19.7017    11392.00000
    19.7149    12779.00000
    19.7280    15627.00000
    19.7411    19414.00000
    19.7543    25357.00000
    19.7674    35008.00000
    19.7805    48711.00000
    19.7937    65315.00000
    19.8068    83338.00000
    19.8199    97013.00000
    19.8330    98643.00000
    19.8462    89439.00000
    19.8593    77200.00000
    19.8724    65121.00000
    19.8856    51022.00000
    19.8987    37997.00000
    19.9118    26180.00000
    19.9250    18510.00000
    19.9381    13618.00000
    19.9512    11675.00000
    19.9643    10452.00000
    19.9775     9539.00000
    19.9906     9359.00000
    20.0037     9090.00000
    20.0169     8985.00000
    20.0300     8763.00000
    20.0431     8638.00000
    20.0563     8476.00000
    20.0694     8302.00000
    20.0825     8156.00000
    20.0957     7857.00000
    20.1088     7885.00000
    20.1219     7765.00000
    20.1350     7878.00000
    20.1482     7986.00000
    20.1613     7991.00000
    20.1744     8007.00000
    20.1876     7764.00000
    20.2007     7754.00000
    20.2138     7561.00000
    20.2270     7790.00000
    20.2401     7602.00000
    20.2532     7560.00000
    20.2663     7658.00000
    20.2795     7602.00000
    20.2926     7570.00000
    20.3057     7637.00000
    20.3189     7608.00000
    20.3320     7622.00000
    20.3451     7582.00000
    20.3583     7464.00000
    20.3714     7532.00000
    20.3845     7573.00000
    20.3976     7537.00000
    20.4108     7419.00000
    20.4239     7463.00000
    20.4370     7613.00000
    20.4502     7530.00000
    20.4633     7548.00000
    20.4764     7483.00000
    20.4896     7572.00000
    20.5027     7611.00000
    20.5158     7662.00000
    20.5290     7579.00000
    20.5421     7513.00000
    20.5552     7373.00000
    20.5683     7594.00000
    20.5815     7570.00000
    20.5946     7362.00000
    20.6077     7272.00000
    20.6209     7285.00000
    20.6340     7427.00000
    20.6471     7538.00000
    20.6603     7481.00000
    20.6734     7402.00000
    20.6865     7462.00000
    20.6996     7216.00000
    20.7128     7228.00000
    20.7259     7334.00000
    20.7390     7470.00000
    20.7522     7386.00000
    20.7653     7256.00000
    20.7784     7513.00000
    20.7916     7450.00000
    20.8047     7415.00000
    20.8178     7454.00000
    20.8309     7386.00000
    20.8441     7470.00000
    20.8572     7367.00000
    20.8703     7485.00000
    20.8835     7320.00000
    20.8966     7265.00000
    20.9097     7458.00000
    20.9229     7363.00000
    20.9360     7516.00000
    20.9491     7364.00000
    20.9623     7449.00000
    20.9754     7320.00000
    20.9885     7187.00000
    21.0016     7152.00000
    21.0148     7498.00000
    21.0279     7404.00000
    21.0410     7266.00000
    21.0542     7515.00000
    21.0673     7525.00000
    21.0804     7414.00000
    21.0936     7284.00000
    21.1067     7250.00000
    21.1198     7378.00000
    21.1329     7421.00000
    21.1461     7582.00000
    21.1592     7369.00000
    21.1723     7318.00000
    21.1855     7334.00000
    21.1986     7354.00000
    21.2117     7281.00000
    21.2249     7365.00000
    21.2380     7245.00000
    21.2511     7307.00000
    21.2642     7385.00000
    21.2774     7271.00000
    21.2905     7445.00000
    21.3036     7337.00000
    21.3168     7575.00000
    21.3299     7482.00000
    21.3430     7238.00000
    21.3562     7352.00000
    21.3693     7559.00000
    21.3824     7562.00000
    21.3956     7519.00000
    21.4087     7451.00000
    21.4218     7515.00000
    21.4349     7511.00000
    21.4481     7517.00000
    21.4612     7476.00000
    21.4743     7375.00000
    21.4875     7376.00000
    21.5006     7474.00000
    21.5137     7642.00000
    21.5269     7547.00000
    21.5400     7435.00000
    21.5531     7293.00000
    21.5662     7525.00000
    21.5794     7443.00000
    21.5925     7377.00000
    21.6056     7467.00000
    21.6188     7324.00000
    21.6319     7232.00000
    21.6450     7274.00000
    21.6582     7475.00000
    21.6713     7398.00000
    21.6844     7546.00000
    21.6975     7522.00000
    21.7107     7485.00000
    21.7238     7426.00000
    21.7369     7305.00000
    21.7501     7632.00000
    21.7632     7768.00000
    21.7763     7377.00000
    21.7895     7465.00000
    21.8026     7514.00000
    21.8157     7727.00000
    21.8288     7553.00000
    21.8420     7620.00000
    21.8551     7653.00000
    21.8682     7732.00000
    21.8814     7457.00000
    21.8945     7653.00000
    21.9076     7624.00000
    21.9208     7456.00000
    21.9339     7424.00000
    21.9470     7430.00000
    21.9602     7422.00000
    21.9733     7400.00000
    21.9864     7225.00000
    21.9995     7378.00000
    22.0127     7365.00000
    22.0258     7484.00000
    22.0389     7498.00000
    22.0521     7364.00000
    22.0652     7421.00000
    22.0783     7374.00000
    22.0915     7482.00000
    22.1046     7380.00000
    22.1177     7476.00000
    22.1308     7510.00000
    22.1440     7253.00000
    22.1571     7672.00000
    22.1702     7297.00000
    22.1834     7385.00000
    22.1965     7186.00000
    22.2096     7348.00000
    22.2228     7381.00000
    22.2359     7439.00000
    22.2490     7363.00000
    22.2621     7632.00000
    22.2753     7309.00000
    22.2884     7261.00000
    22.3015     7456.00000
    22.3147     7651.00000
    22.3278     7472.00000
    22.3409     7711.00000
    22.3541     7592.00000
    22.3672     7740.00000
    22.3803     7657.00000
    22.3935     7693.00000
    22.4066     7796.00000
    22.4197     7724.00000
    22.4328     7755.00000
    22.4460     7986.00000
    22.4591     8033.00000
    22.4722     8512.00000
    22.4854     8713.00000
    22.4985     9528.00000
    22.5116    10633.00000
    22.5248    12665.00000
    22.5379    15759.00000
    22.5510    20926.00000
    22.5641    27391.00000
    22.5773    32230.00000
    22.5904    34165.00000
    22.6035    32103.00000
    22.6167    28379.00000
    22.6298    25230.00000
    22.6429    23200.00000
    22.6561    19497.00000
    22.6692    15891.00000
    22.6823    12556.00000
    22.6954    10309.00000
    22.7086     9009.00000
    22.7217     8454.00000
    22.7348     7955.00000
    22.7480     8014.00000
    22.7611     7929.00000
    22.7742     7872.00000
    22.7874     7826.00000
    22.8005     7805.00000
    22.8136     7724.00000
    22.8268     7559.00000
    22.8399     7480.00000
    22.8530     7426.00000
    22.8661     7410.00000
    22.8793     7401.00000
    22.8924     7454.00000
    22.9055     7222.00000
    22.9187     7203.00000
    22.9318     7303.00000
    22.9449     7285.00000
    22.9581     7302.00000
    22.9712     7264.00000
    22.9843     7328.00000
    22.9974     7293.00000
    23.0106     7401.00000
    23.0237     7491.00000
    23.0368     7526.00000
    23.0500     7362.00000
    23.0631     7279.00000
    23.0762     7310.00000
    23.0894     7332.00000
    23.1025     7275.00000
    23.1156     7314.00000
    23.1287     7627.00000
    23.1419     7620.00000
    23.1550     7543.00000
    23.1681     7496.00000
    23.1813     7397.00000
    23.1944     7398.00000
    23.2075     7564.00000
    23.2207     7442.00000
    23.2338     7535.00000
    23.2469     7524.00000
    23.2601     7590.00000
    23.2732     7476.00000
    23.2863     7515.00000
    23.2994     7406.00000
    23.3126     7691.00000
    23.3257     7536.00000
    23.3388     7496.00000
    23.3520     7502.00000
    23.3651     7525.00000
    23.3782     7676.00000
    23.3914     7539.00000
    23.4045     7716.00000
    23.4176     7518.00000
    23.4307     7453.00000
    23.4439     7414.00000
    23.4570     7378.00000
    23.4701     7454.00000
    23.4833     7421.00000
    23.4964     7446.00000
    23.5095     7426.00000
    23.5227     7562.00000
    23.5358     7538.00000
    23.5489     7503.00000
    23.5620     7513.00000
    23.5752     7848.00000
    23.5883     7642.00000
    23.6014     7749.00000
    23.6146     7786.00000
    23.6277     7764.00000
    23.6408     7996.00000
    23.6540     7887.00000
    23.6671     7751.00000
    23.6802     8061.00000
    23.6933     8254.00000
    23.7065     8522.00000
    23.7196     8687.00000
    23.7327     9468.00000
    23.7459    10785.00000
    23.7590    12816.00000
    23.7721    16562.00000
    23.7853    21723.00000
    23.7984    26608.00000
    23.8115    29720.00000
    23.8247    29769.00000
    23.8378    26339.00000
    23.8509    23203.00000
    23.8640    21601.00000
    23.8772    20077.00000
    23.8903    17610.00000
    23.9034    14086.00000
    23.9166    11566.00000
    23.9297    10299.00000
    23.9428     9363.00000
    23.9560     9081.00000
    23.9691     9190.00000
    23.9822     9343.00000
    23.9953     9656.00000
    24.0085    10070.00000
    24.0216    10967.00000
    24.0347    13437.00000
    24.0479    17518.00000
    24.0610    23855.00000
    24.0741    31821.00000
    24.0873    38595.00000
    24.1004    40194.00000
    24.1135    36342.00000
    24.1266    30972.00000
    24.1398    28820.00000
    24.1529    26875.00000
    24.1660    23559.00000
    24.1792    18252.00000
    24.1923    14656.00000
    24.2054    11901.00000
    24.2186     9892.00000
    24.2317     8806.00000
    24.2448     8423.00000
    24.2580     8180.00000
    24.2711     8105.00000
    24.2842     8148.00000
    24.2973     7918.00000
    24.3105     7911.00000
    24.3236     7915.00000
    24.3367     8051.00000
    24.3499     7997.00000
    24.3630     7944.00000
    24.3761     7901.00000
    24.3893     7940.00000
    24.4024     7843.00000
    24.4155     7528.00000
    24.4286     7554.00000
    24.4418     7519.00000
    24.4549     7520.00000
    24.4680     7556.00000
    24.4812     7438.00000
    24.4943     7353.00000
    24.5074     7361.00000
    24.5206     7208.00000
    24.5337     7377.00000
    24.5468     7463.00000
    24.5599     7510.00000
    24.5731     7694.00000
    24.5862     7547.00000
    24.5993     7330.00000
    24.6125     7308.00000
    24.6256     7315.00000
    24.6387     7510.00000
    24.6519     7541.00000
    24.6650     7413.00000
    24.6781     7412.00000
    24.6913     7356.00000
    24.7044     7352.00000
    24.7175     7433.00000
    24.7306     7441.00000
    24.7438     7425.00000
    24.7569     7360.00000
    24.7700     7370.00000
    24.7832     7345.00000
    24.7963     7437.00000
    24.8094     7420.00000
    24.8226     7321.00000
    24.8357     7309.00000
    24.8488     7374.00000
    24.8619     7316.00000
    24.8751     7322.00000
    24.8882     7100.00000
    24.9013     7249.00000
    24.9145     7329.00000
    24.9276     7267.00000
    24.9407     7600.00000
    24.9539     7366.00000
    24.9670     7105.00000
    24.9801     7253.00000
    24.9932     7277.00000
    25.0064     7488.00000
    25.0195     7449.00000
    25.0326     7386.00000
    25.0458     7191.00000
    25.0589     7362.00000
    25.0720     7255.00000
    25.0852     7293.00000
    25.0983     7229.00000
    25.1114     7365.00000
    25.1246     7312.00000
    25.1377     7483.00000
    25.1508     7303.00000
    25.1639     7432.00000
    25.1771     7624.00000
    25.1902     7462.00000
    25.2033     7568.00000
    25.2165     7707.00000
    25.2296     7601.00000
    25.2427     7422.00000
    25.2559     7502.00000
    25.2690     7289.00000
    25.2821     7189.00000
    25.2952     7399.00000
    25.3084     7254.00000
    25.3215     7270.00000
    25.3346     7379.00000
    25.3478     7356.00000
    25.3609     7179.00000
    25.3740     7242.00000
    25.3872     7507.00000
    25.4003     7352.00000
    25.4134     7221.00000
    25.4265     7407.00000
    25.4397     7388.00000
    25.4528     6929.00000
    25.4659     7280.00000
    25.4791     7265.00000
    25.4922     7253.00000
    25.5053     7310.00000
    25.5185     7299.00000
    25.5316     7197.00000
    25.5447     7169.00000
    25.5579     7356.00000
    25.5710     7262.00000
    25.5841     7251.00000
    25.5972     7330.00000
    25.6104     7459.00000
    25.6235     7191.00000
    25.6366     7481.00000
    25.6498     7284.00000
    25.6629     7237.00000
    25.6760     7233.00000
    25.6892     7375.00000
    25.7023     7363.00000
    25.7154     7341.00000
    25.7285     7168.00000
    25.7417     7243.00000
    25.7548     7367.00000
    25.7679     7254.00000
    25.7811     7385.00000
    25.7942     7253.00000
    25.8073     7165.00000
    25.8205     7284.00000
    25.8336     7251.00000
    25.8467     7251.00000
    25.8598     7396.00000
    25.8730     7363.00000
    25.8861     7328.00000
    25.8992     7374.00000
    25.9124     7260.00000
    25.9255     7105.00000
    25.9386     7241.00000
    25.9518     7367.00000
    25.9649     7326.00000
    25.9780     7358.00000
    25.9911     7384.00000
    26.0043     7276.00000
    26.0174     7315.00000
    26.0305     7330.00000
    26.0437     7204.00000
    26.0568     7241.00000
    26.0699     7165.00000
    26.0831     7271.00000
    26.0962     7316.00000
    26.1093     7250.00000
    26.1225     7286.00000
    26.1356     7213.00000
    26.1487     7152.00000
    26.1618     7251.00000
    26.1750     7201.00000
    26.1881     7259.00000
    26.2012     7271.00000
    26.2144     7235.00000
    26.2275     7162.00000
    26.2406     7102.00000
    26.2538     7274.00000
    26.2669     7088.00000
    26.2800     7145.00000
    26.2931     7247.00000
    26.3063     7077.00000
    26.3194     7352.00000
    26.3325     7283.00000
    26.3457     7109.00000
    26.3588     7056.00000
    26.3719     7236.00000
    26.3851     7315.00000
    26.3982     7190.00000
    26.4113     7112.00000
    26.4244     7037.00000
    26.4376     7230.00000
    26.4507     7148.00000
    26.4638     7051.00000
    26.4770     7095.00000
    26.4901     7075.00000
    26.5032     7162.00000
    26.5164     7246.00000
    26.5295     7260.00000
    26.5426     7058.00000
    26.5558     7097.00000
    26.5689     7053.00000
    26.5820     7143.00000
    26.5951     7235.00000
    26.6083     7120.00000
    26.6214     7136.00000
    26.6345     7194.00000
    26.6477     7116.00000
    26.6608     7228.00000
    26.6739     7096.00000
    26.6871     7247.00000
    26.7002     7192.00000
    26.7133     7149.00000
    26.7264     7188.00000
    26.7396     7066.00000
    26.7527     7080.00000
    26.7658     7109.00000
    26.7790     6918.00000
    26.7921     7210.00000
    26.8052     7157.00000
    26.8184     7097.00000
    26.8315     7121.00000
    26.8446     7118.00000
    26.8577     6992.00000
    26.8709     7177.00000
    26.8840     7137.00000
    26.8971     7213.00000
    26.9103     7310.00000
    26.9234     7193.00000
    26.9365     7446.00000
    26.9497     7014.00000
    26.9628     7254.00000
    26.9759     7456.00000
    26.9891     7439.00000
    27.0022     7439.00000
    27.0153     7266.00000
    27.0284     7304.00000
    27.0416     7336.00000
    27.0547     7406.00000
    27.0678     7446.00000
    27.0810     7463.00000
    27.0941     7315.00000
    27.1072     7390.00000
    27.1204     7444.00000
    27.1335     7529.00000
    27.1466     7431.00000
    27.1597     7518.00000
    27.1729     7510.00000
    27.1860     7431.00000
    27.1991     7410.00000
    27.2123     7451.00000
    27.2254     7522.00000
    27.2385     7486.00000
    27.2517     7362.00000
    27.2648     7242.00000
    27.2779     7334.00000
    27.2910     7518.00000
    27.3042     7217.00000
    27.3173     7430.00000
    27.3304     7349.00000
    27.3436     7535.00000
    27.3567     7346.00000
    27.3698     7479.00000
    27.3830     7440.00000
    27.3961     7345.00000
    27.4092     7341.00000
    27.4224     7393.00000
    27.4355     7363.00000
    27.4486     7423.00000
    27.4617     7451.00000
    27.4749     7350.00000
    27.4880     7257.00000
    27.5011     7437.00000
    27.5143     7582.00000
    27.5274     7595.00000
    27.5405     7562.00000
    27.5537     7495.00000
    27.5668     7748.00000
    27.5799     7516.00000
    27.5930     7549.00000
    27.6062     7471.00000
    27.6193     7713.00000
    27.6324     7940.00000
    27.6456     7841.00000
    27.6587     8027.00000
    27.6718     7951.00000
    27.6850     8327.00000
    27.6981     8236.00000
    27.7112     8727.00000
    27.7243     8415.00000
    27.7375     8420.00000
    27.7506     8754.00000
    27.7637     9161.00000
    27.7769     9409.00000
    27.7900     9708.00000
    27.8031     9792.00000
    27.8163    10481.00000
    27.8294    10920.00000
    27.8425    11970.00000
    27.8556    13603.00000
    27.8688    15897.00000
    27.8819    19743.00000
    27.8950    26073.00000
    27.9082    36159.00000
    27.9213    51146.00000
    27.9344    68632.00000
    27.9476    83510.00000
    27.9607    91514.00000
    27.9738    87653.00000
    27.9870    78084.00000
    28.0001    68430.00000
    28.0132    62059.00000
    28.0263    57940.00000
    28.0395    51807.00000
    28.0526    42920.00000
    28.0657    32517.00000
    28.0789    23675.00000
    28.0920    17968.00000
    28.1051    14435.00000
    28.1183    12358.00000
    28.1314    11184.00000
    28.1445    10290.00000
    28.1576     9900.00000
    28.1708     9579.00000
    28.1839     9296.00000
    28.1970     8692.00000
    28.2102     8707.00000
    28.2233     8426.00000
    28.2364     8239.00000
    28.2496     8109.00000
    28.2627     7980.00000
    28.2758     8047.00000
    28.2889     7969.00000
    28.3021     7816.00000
    28.3152     7602.00000
    28.3283     7635.00000
    28.3415     7872.00000
    28.3546     7619.00000
    28.3677     7716.00000
    28.3809     7727.00000
    28.3940     7522.00000
    28.4071     7559.00000
    28.4203     7646.00000
    28.4334     7774.00000
    28.4465     7889.00000
    28.4596     7920.00000
    28.4728     7928.00000
    28.4859     8126.00000
    28.4990     8302.00000
    28.5122     8449.00000
    28.5253     8621.00000
    28.5384     8896.00000
    28.5516     8896.00000
    28.5647     8478.00000
    28.5778     8172.00000
    28.5909     8143.00000
    28.6041     8320.00000
    28.6172     8222.00000
    28.6303     7918.00000
    28.6435     7614.00000
    28.6566     7665.00000
    28.6697     7605.00000
    28.6829     7582.00000
    28.6960     7572.00000
    28.7091     7637.00000
    28.7222     7574.00000
    28.7354     7560.00000
    28.7485     7694.00000
    28.7616     7799.00000
    28.7748     7755.00000
    28.7879     7929.00000
    28.8010     7888.00000
    28.8142     8075.00000
    28.8273     8054.00000
    28.8404     8221.00000
    28.8536     8264.00000
    28.8667     8791.00000
    28.8798     9265.00000
    28.8929    10151.00000
    28.9061    11773.00000
    28.9192    14499.00000
    28.9323    19654.00000
    28.9455    28111.00000
    28.9586    36191.00000
    28.9717    39521.00000
    28.9849    36318.00000
    28.9980    30838.00000
    29.0111    26755.00000
    29.0242    25522.00000
    29.0374    25907.00000
    29.0505    24546.00000
    29.0636    20760.00000
    29.0768    16451.00000
    29.0899    13166.00000
    29.1030    11050.00000
    29.1162     9698.00000
    29.1293     9225.00000
    29.1424     9056.00000
    29.1555     9477.00000
    29.1687     9917.00000
    29.1818    10628.00000
    29.1949    12077.00000
    29.2081    13249.00000
    29.2212    14705.00000
    29.2343    15463.00000
    29.2475    15976.00000
    29.2606    15500.00000
    29.2737    15355.00000
    29.2869    14860.00000
    29.3000    14863.00000
    29.3131    14201.00000
    29.3262    13778.00000
    29.3394    12718.00000
    29.3525    11633.00000
    29.3656    10847.00000
    29.3788    10106.00000
    29.3919     9441.00000
    29.4050     8985.00000
    29.4182     8550.00000
    29.4313     8091.00000
    29.4444     8129.00000
    29.4575     7898.00000
    29.4707     7623.00000
    29.4838     7520.00000
    29.4969     7475.00000
    29.5101     7337.00000
    29.5232     7313.00000
    29.5363     7214.00000
    29.5495     7257.00000
    29.5626     7258.00000
    29.5757     7057.00000
    29.5888     7247.00000
    29.6020     7115.00000
    29.6151     7149.00000
    29.6282     6935.00000
    29.6414     7162.00000
    29.6545     7024.00000
    29.6676     7222.00000
    29.6808     7019.00000
    29.6939     7078.00000
    29.7070     7204.00000
    29.7201     7101.00000
    29.7333     7164.00000
    29.7464     7161.00000
    29.7595     7265.00000
    29.7727     7160.00000
    29.7858     7170.00000
    29.7989     7095.00000
    29.8121     7100.00000
    29.8252     7108.00000
    29.8383     7162.00000
    29.8515     7241.00000
    29.8646     7182.00000
    29.8777     7344.00000
    29.8908     7180.00000
    29.9040     7127.00000
    29.9171     6961.00000
    29.9302     7168.00000
    29.9434     7035.00000
    29.9565     6914.00000
    29.9696     7003.00000
    29.9828     7138.00000
    29.9959     7056.00000
    30.0090     7068.00000
    30.0221     6944.00000
    30.0353     7148.00000
    30.0484     6956.00000
    30.0615     7215.00000
    30.0747     7003.00000
    30.0878     6965.00000
    30.1009     6885.00000
    30.1141     7026.00000
    30.1272     7221.00000
    30.1403     7142.00000
    30.1535     7117.00000
    30.1666     7061.00000
    30.1797     6976.00000
    30.1928     6999.00000
    30.2060     7016.00000
    30.2191     7056.00000
    30.2322     6938.00000
    30.2454     7013.00000
    30.2585     7108.00000
    30.2716     6946.00000
    30.2848     6763.00000
    30.2979     6984.00000
    30.3110     6836.00000
    30.3241     6974.00000
    30.3373     7148.00000
    30.3504     6927.00000
    30.3635     7047.00000
    30.3767     6970.00000
    30.3898     6814.00000
    30.4029     6898.00000
    30.4161     6883.00000
    30.4292     6911.00000
    30.4423     6813.00000
    30.4554     6994.00000
    30.4686     7086.00000
    30.4817     6960.00000
    30.4948     7088.00000
    30.5080     7041.00000
    30.5211     6846.00000
    30.5342     6892.00000
    30.5474     6957.00000
    30.5605     7030.00000
    30.5736     6900.00000
    30.5868     6987.00000
    30.5999     6850.00000
    30.6130     7009.00000
    30.6261     7138.00000
    30.6393     6856.00000
    30.6524     7093.00000
    30.6655     7046.00000
    30.6787     6865.00000
    30.6918     6765.00000
    30.7049     7061.00000
    30.7181     6996.00000
    30.7312     6938.00000
    30.7443     6868.00000
    30.7574     6964.00000
    30.7706     6880.00000
    30.7837     6914.00000
    30.7968     6969.00000
    30.8100     6865.00000
    30.8231     6977.00000
    30.8362     6965.00000
    30.8494     7156.00000
    30.8625     7155.00000
    30.8756     6880.00000
    30.8887     6889.00000
    30.9019     6848.00000
    30.9150     6854.00000
    30.9281     6936.00000
    30.9413     7072.00000
    30.9544     7042.00000
    30.9675     7023.00000
    30.9807     6975.00000
    30.9938     6837.00000
    31.0069     6908.00000
    31.0200     6901.00000
    31.0332     6786.00000
    31.0463     6866.00000
    31.0594     6804.00000
    31.0726     6894.00000
    31.0857     6885.00000
    31.0988     6896.00000
    31.1120     6800.00000
    31.1251     6956.00000
    31.1382     6859.00000
    31.1514     6717.00000
    31.1645     6864.00000
    31.1776     7014.00000
    31.1907     6881.00000
    31.2039     6974.00000
    31.2170     7129.00000
    31.2301     6963.00000
    31.2433     6967.00000
    31.2564     6856.00000
    31.2695     6860.00000
    31.2827     6809.00000
    31.2958     6830.00000
    31.3089     6926.00000
    31.3220     6963.00000
    31.3352     6832.00000
    31.3483     6853.00000
    31.3614     6754.00000
    31.3746     6808.00000
    31.3877     6847.00000
    31.4008     6822.00000
    31.4140     6885.00000
    31.4271     6899.00000
    31.4402     6910.00000
    31.4533     6874.00000
    31.4665     6697.00000
    31.4796     6898.00000
    31.4927     7076.00000
    31.5059     6790.00000
    31.5190     6966.00000
    31.5321     6935.00000
    31.5453     6923.00000
    31.5584     6817.00000
    31.5715     6819.00000
    31.5847     6732.00000
    31.5978     6738.00000
    31.6109     6866.00000
    31.6240     6885.00000
    31.6372     6852.00000
    31.6503     6752.00000
    31.6634     6689.00000
    31.6766     6850.00000
    31.6897     6782.00000
    31.7028     6664.00000
    31.7160     6797.00000
    31.7291     6691.00000
    31.7422     6767.00000
    31.7553     6842.00000
    31.7685     6770.00000
    31.7816     6711.00000
    31.7947     6707.00000
    31.8079     6708.00000
    31.8210     6734.00000
    31.8341     6793.00000
    31.8473     6791.00000
    31.8604     6947.00000
    31.8735     6828.00000
    31.8866     6751.00000
    31.8998     6733.00000
    31.9129     6806.00000
    31.9260     6979.00000
    31.9392     7068.00000
    31.9523     6762.00000
    31.9654     6727.00000
    31.9786     6969.00000
    31.9917     6848.00000
    32.0048     6777.00000
    32.0180     6699.00000
    32.0311     6849.00000
    32.0442     6663.00000
    32.0573     6834.00000
    32.0705     6899.00000
    32.0836     6910.00000
    32.0967     7013.00000
    32.1099     6783.00000
    32.1230     6774.00000
    32.1361     6653.00000
    32.1493     6648.00000
    32.1624     6920.00000
    32.1755     7042.00000
    32.1886     6909.00000
    32.2018     6929.00000
    32.2149     7100.00000
    32.2280     6825.00000
    32.2412     6919.00000
    32.2543     6870.00000
    32.2674     7036.00000
    32.2806     6927.00000
    32.2937     6839.00000
    32.3068     7009.00000
    32.3199     6904.00000
    32.3331     6799.00000
    32.3462     6701.00000
    32.3593     6912.00000
    32.3725     6915.00000
    32.3856     6825.00000
    32.3987     6947.00000
    32.4119     7035.00000
    32.4250     6796.00000
    32.4381     6936.00000
    32.4512     6913.00000
    32.4644     6792.00000
    32.4775     6708.00000
    32.4906     6885.00000
    32.5038     6960.00000
    32.5169     6871.00000
    32.5300     6941.00000
    32.5432     6818.00000
    32.5563     7027.00000
    32.5694     6987.00000
    32.5826     6843.00000
    32.5957     6951.00000
    32.6088     6858.00000
    32.6219     7104.00000
    32.6351     6973.00000
    32.6482     7014.00000
    32.6613     7107.00000
    32.6745     7082.00000
    32.6876     7252.00000
    32.7007     6906.00000
    32.7139     7256.00000
    32.7270     7119.00000
    32.7401     7278.00000
    32.7532     7248.00000
    32.7664     7467.00000
    32.7795     7336.00000
    32.7926     7721.00000
    32.8058     8138.00000
    32.8189     8827.00000
    32.8320    10174.00000
    32.8452    11808.00000
    32.8583    13845.00000
    32.8714    15285.00000
    32.8845    15407.00000
    32.8977    14277.00000
    32.9108    12832.00000
    32.9239    12442.00000
    32.9371    12505.00000
    32.9502    13625.00000
    32.9633    14827.00000
    32.9765    16796.00000
    32.9896    19270.00000
    33.0027    21161.00000
    33.0159    21265.00000
    33.0290    19104.00000
    33.0421    15659.00000
    33.0552    13576.00000
    33.0684    13562.00000
    33.0815    13936.00000
    33.0946    14137.00000
    33.1078    13363.00000
    33.1209    11703.00000
    33.1340    10140.00000
    33.1472     9013.00000
    33.1603     8129.00000
    33.1734     7782.00000
    33.1865     7653.00000
    33.1997     7393.00000
    33.2128     7395.00000
    33.2259     7229.00000
    33.2391     7189.00000
    33.2522     7159.00000
    33.2653     7217.00000
    33.2785     6941.00000
    33.2916     7129.00000
    33.3047     7031.00000
    33.3178     6755.00000
    33.3310     6835.00000
    33.3441     6954.00000
    33.3572     6986.00000
    33.3704     6977.00000
    33.3835     6734.00000
    33.3966     6907.00000
    33.4098     7022.00000
    33.4229     6988.00000
    33.4360     7060.00000
    33.4492     7010.00000
    33.4623     7110.00000
    33.4754     7012.00000
    33.4885     7225.00000
    33.5017     7202.00000
    33.5148     7155.00000
    33.5279     7224.00000
    33.5411     7358.00000
    33.5542     7693.00000
    33.5673     8112.00000
    33.5805     8686.00000
    33.5936    10022.00000
    33.6067    11581.00000
    33.6198    13098.00000
    33.6330    14806.00000
    33.6461    15307.00000
    33.6592    14380.00000
    33.6724    13192.00000
    33.6855    12151.00000
    33.6986    11415.00000
    33.7118    11200.00000
    33.7249    11392.00000
    33.7380    11020.00000
    33.7511    10408.00000
    33.7643     9570.00000
    33.7774     8699.00000
    33.7905     7865.00000
    33.8037     7584.00000
    33.8168     7297.00000
    33.8299     7307.00000
    33.8431     7172.00000
    33.8562     7142.00000
    33.8693     7004.00000
    33.8825     7106.00000
    33.8956     7277.00000
    33.9087     7400.00000
    33.9218     7591.00000
    33.9350     7725.00000
    33.9481     7765.00000
    33.9612     7852.00000
    33.9744     7942.00000
    33.9875     7694.00000
    34.0006     7527.00000
    34.0138     7418.00000
    34.0269     7523.00000
    34.0400     7704.00000
    34.0531     7629.00000
    34.0663     7630.00000
    34.0794     7592.00000
    34.0925     8395.00000
    34.1057     8994.00000
    34.1188    10611.00000
    34.1319    12626.00000
    34.1451    13497.00000
    34.1582    14206.00000
    34.1713    13367.00000
    34.1844    11768.00000
    34.1976    10648.00000
    34.2107    10481.00000
    34.2238    10245.00000
    34.2370    10685.00000
    34.2501    10345.00000
    34.2632     9865.00000
    34.2764     8744.00000
    34.2895     8096.00000
    34.3026     7552.00000
    34.3158     7335.00000
    34.3289     7010.00000
    34.3420     7048.00000
    34.3551     6769.00000
    34.3683     6886.00000
    34.3814     6898.00000
    34.3945     6890.00000
    34.4077     6851.00000
    34.4208     6761.00000
    34.4339     6771.00000
    34.4471     6667.00000
    34.4602     6669.00000
    34.4733     6694.00000
    34.4864     6610.00000
    34.4996     6731.00000
    34.5127     6897.00000
    34.5258     6841.00000
    34.5390     6882.00000
    34.5521     6843.00000
    34.5652     6714.00000
    34.5784     6800.00000
    34.5915     6869.00000
    34.6046     6883.00000
    34.6177     6807.00000
    34.6309     6688.00000
    34.6440     6841.00000
    34.6571     6811.00000
    34.6703     6931.00000
    34.6834     6820.00000
    34.6965     6919.00000
    34.7097     6871.00000
    34.7228     6845.00000
    34.7359     6991.00000
    34.7491     7145.00000
    34.7622     7249.00000
    34.7753     7737.00000
    34.7884     8148.00000
    34.8016     9235.00000
    34.8147    10440.00000
    34.8278    11228.00000
    34.8410    11882.00000
    34.8541    11804.00000
    34.8672    11054.00000
    34.8804    10181.00000
    34.8935     9861.00000
    34.9066     9547.00000
    34.9197     9689.00000
    34.9329     9617.00000
    34.9460     9159.00000
    34.9591     8617.00000
    34.9723     8158.00000
    34.9854     7625.00000
    34.9985     7475.00000
    35.0117     7226.00000
    35.0248     7286.00000
    35.0379     7436.00000
    35.0510     7406.00000
    35.0642     7640.00000
    35.0773     7357.00000
    35.0904     7182.00000
    35.1036     6892.00000
    35.1167     7049.00000
    35.1298     6898.00000
    35.1430     6954.00000
    35.1561     7104.00000
    35.1692     6748.00000
    35.1824     6829.00000
    35.1955     6701.00000
    35.2086     6667.00000
    35.2217     6581.00000
    35.2349     6611.00000
    35.2480     6764.00000
    35.2611     6794.00000
    35.2743     6571.00000
    35.2874     6601.00000
    35.3005     6699.00000
    35.3137     6580.00000
    35.3268     6578.00000
    35.3399     6765.00000
    35.3530     6651.00000
    35.3662     6680.00000
    35.3793     6553.00000
    35.3924     6614.00000
    35.4056     6682.00000
    35.4187     6710.00000
    35.4318     6683.00000
    35.4450     6425.00000
    35.4581     6634.00000
    35.4712     6631.00000
    35.4843     6655.00000
    35.4975     6717.00000
    35.5106     6559.00000
    35.5237     6755.00000
    35.5369     6796.00000
    35.5500     6686.00000
    35.5631     6583.00000
    35.5763     6537.00000
    35.5894     6434.00000
    35.6025     6618.00000
    35.6156     6682.00000
    35.6288     6597.00000
    35.6419     6678.00000
    35.6550     6671.00000
    35.6682     6597.00000
    35.6813     6561.00000
    35.6944     6621.00000
    35.7076     6563.00000
    35.7207     6604.00000
    35.7338     6455.00000
    35.7470     6506.00000
    35.7601     6639.00000
    35.7732     6623.00000
    35.7863     6718.00000
    35.7995     6534.00000
    35.8126     6534.00000
    35.8257     6426.00000
    35.8389     6650.00000
    35.8520     6511.00000
    35.8651     6514.00000
    35.8783     6557.00000
    35.8914     6517.00000
    35.9045     6627.00000
    35.9176     6532.00000
    35.9308     6726.00000
    35.9439     6731.00000
    35.9570     6481.00000
    35.9702     6576.00000
    35.9833     6484.00000
    35.9964     6770.00000
    36.0096     6711.00000
    36.0227     6460.00000
    36.0358     6491.00000
    36.0489     6327.00000
    36.0621     6567.00000
    36.0752     6652.00000
    36.0883     6687.00000
    36.1015     6758.00000
    36.1146     6749.00000
    36.1277     6476.00000
    36.1409     6412.00000
    36.1540     6640.00000
    36.1671     6787.00000
    36.1802     6722.00000
    36.1934     6710.00000
    36.2065     6641.00000
    36.2196     6475.00000
    36.2328     6647.00000
    36.2459     6685.00000
    36.2590     6746.00000
    36.2722     6424.00000
    36.2853     6596.00000
    36.2984     6751.00000
    36.3116     6637.00000
    36.3247     6621.00000
    36.3378     6797.00000
    36.3509     6816.00000
    36.3641     6629.00000
    36.3772     6698.00000
    36.3903     6733.00000
    36.4035     6804.00000
    36.4166     6799.00000
    36.4297     7234.00000
    36.4429     7485.00000
    36.4560     8159.00000
    36.4691     8949.00000
    36.4822     9745.00000
    36.4954    10155.00000
    36.5085     9814.00000
    36.5216     8747.00000
    36.5348     8164.00000
    36.5479     7876.00000
    36.5610     8064.00000
    36.5742     8330.00000
    36.5873     8470.00000
    36.6004     8326.00000
    36.6135     7874.00000
    36.6267     7222.00000
    36.6398     6946.00000
    36.6529     6728.00000
    36.6661     6741.00000
    36.6792     6643.00000
    36.6923     6752.00000
    36.7055     6580.00000
    36.7186     6593.00000
    36.7317     6638.00000
    36.7449     6663.00000
    36.7580     6630.00000
    36.7711     6685.00000
    36.7842     6560.00000
    36.7974     6481.00000
    36.8105     6589.00000
    36.8236     6638.00000
    36.8368     6572.00000
    36.8499     6515.00000
    36.8630     6489.00000
    36.8762     6414.00000
    36.8893     6497.00000
    36.9024     6663.00000
    36.9155     6543.00000
    36.9287     6381.00000
    36.9418     6480.00000
    36.9549     6492.00000
    36.9681     6466.00000
    36.9812     6401.00000
    36.9943     6542.00000
    37.0075     6708.00000
    37.0206     6619.00000
    37.0337     6426.00000
    37.0468     6655.00000
    37.0600     6605.00000
    37.0731     6557.00000
    37.0862     6326.00000
    37.0994     6615.00000
    37.1125     6554.00000
    37.1256     6350.00000
    37.1388     6312.00000
    37.1519     6568.00000
    37.1650     6671.00000
    37.1782     6633.00000
    37.1913     6465.00000
    37.2044     6554.00000
    37.2175     6401.00000
    37.2307     6580.00000
    37.2438     6630.00000
    37.2569     6610.00000
    37.2701     6660.00000
    37.2832     6425.00000
    37.2963     6665.00000
    37.3095     6537.00000
    37.3226     6578.00000
    37.3357     6571.00000
    37.3488     6604.00000
    37.3620     6587.00000
    37.3751     6954.00000
    37.3882     6967.00000
    37.4014     6775.00000
    37.4145     6883.00000
    37.4276     7155.00000
    37.4408     7416.00000
    37.4539     7382.00000
    37.4670     7500.00000
    37.4801     7402.00000
    37.4933     7199.00000
    37.5064     7105.00000
    37.5195     7225.00000
    37.5327     7384.00000
    37.5458     7667.00000
    37.5589     7673.00000
    37.5721     8257.00000
    37.5852     8460.00000
    37.5983     9285.00000
    37.6115    10149.00000
    37.6246    11028.00000
    37.6377    11559.00000
    37.6508    11560.00000
    37.6640    10913.00000
    37.6771    10177.00000
    37.6902     9947.00000
    37.7034    10107.00000
    37.7165    10803.00000
    37.7296    11182.00000
    37.7428    11206.00000
    37.7559    10719.00000
    37.7690     9550.00000
    37.7821     8893.00000
    37.7953     8200.00000
    37.8084     7859.00000
    37.8215     8151.00000
    37.8347     8115.00000
    37.8478     7880.00000
    37.8609     7473.00000
    37.8741     7293.00000
    37.8872     7058.00000
    37.9003     7012.00000
    37.9134     6584.00000
    37.9266     6769.00000
    37.9397     6712.00000
    37.9528     6630.00000
    37.9660     6711.00000
    37.9791     6758.00000
    37.9922     6677.00000
    38.0054     6593.00000
    38.0185     6730.00000
    38.0316     6737.00000
    38.0448     6705.00000
    38.0579     6754.00000
    38.0710     6543.00000
    38.0841     6645.00000
    38.0973     6525.00000
    38.1104     6581.00000
    38.1235     6701.00000
    38.1367     6693.00000
    38.1498     6663.00000
    38.1629     6794.00000
    38.1761     6708.00000
    38.1892     6651.00000
    38.2023     6605.00000
    38.2154     6428.00000
    38.2286     6558.00000
    38.2417     6609.00000
    38.2548     6582.00000
    38.2680     6368.00000
    38.2811     6459.00000
    38.2942     6735.00000
    38.3074     6406.00000
    38.3205     6379.00000
    38.3336     6592.00000
    38.3467     6580.00000
    38.3599     6432.00000
    38.3730     6441.00000
    38.3861     6549.00000
    38.3993     6674.00000
    38.4124     6496.00000
    38.4255     6536.00000
    38.4387     6625.00000
    38.4518     6538.00000
    38.4649     6352.00000
    38.4781     6486.00000
    38.4912     6613.00000
    38.5043     6375.00000
    38.5174     6539.00000
    38.5306     6544.00000
    38.5437     6473.00000
    38.5568     6436.00000
    38.5700     6541.00000
    38.5831     6444.00000
    38.5962     6392.00000
    38.6094     6477.00000
    38.6225     6373.00000
    38.6356     6418.00000
    38.6487     6404.00000
    38.6619     6431.00000
    38.6750     6488.00000
    38.6881     6298.00000
    38.7013     6480.00000
    38.7144     6443.00000
    38.7275     6453.00000
    38.7407     6394.00000
    38.7538     6540.00000
    38.7669     6629.00000
    38.7800     6329.00000
    38.7932     6389.00000
    38.8063     6531.00000
    38.8194     6456.00000
    38.8326     6367.00000
    38.8457     6485.00000
    38.8588     6428.00000
    38.8720     6280.00000
    38.8851     6560.00000
    38.8982     6437.00000
    38.9114     6558.00000
    38.9245     6542.00000
    38.9376     6378.00000
    38.9507     6537.00000
    38.9639     6387.00000
    38.9770     6397.00000
    38.9901     6643.00000
    39.0033     6604.00000
    39.0164     6690.00000
    39.0295     6561.00000
    39.0427     6572.00000
    39.0558     6465.00000
    39.0689     6408.00000
    39.0820     6734.00000
    39.0952     6630.00000
    39.1083     6933.00000
    39.1214     7021.00000
    39.1346     7398.00000
    39.1477     7866.00000
    39.1608     8590.00000
    39.1740     9411.00000
    39.1871     9588.00000
    39.2002     8971.00000
    39.2133     8393.00000
    39.2265     7747.00000
    39.2396     7473.00000
    39.2527     7395.00000
    39.2659     7932.00000
    39.2790     7951.00000
    39.2921     7958.00000
    39.3053     7596.00000
    39.3184     7201.00000
    39.3315     7089.00000
    39.3446     6793.00000
    39.3578     6597.00000
    39.3709     6555.00000
    39.3840     6633.00000
    39.3972     6604.00000
    39.4103     6443.00000
    39.4234     6475.00000
    39.4366     6488.00000
    39.4497     6530.00000
    39.4628     6276.00000
    39.4760     6417.00000
    39.4891     6463.00000
    39.5022     6483.00000
    39.5153     6393.00000
    39.5285     6516.00000
    39.5416     6461.00000
    39.5547     6463.00000
    39.5679     6602.00000
    39.5810     6505.00000
    39.5941     6578.00000
    39.6073     6456.00000
    39.6204     6479.00000
    39.6335     6496.00000
    39.6466     6659.00000
    39.6598     6671.00000
    39.6729     6429.00000
    39.6860     6384.00000
    39.6992     6545.00000
    39.7123     6360.00000
    39.7254     6474.00000
    39.7386     6428.00000
    39.7517     6633.00000
    39.7648     6454.00000
    39.7779     6406.00000
    39.7911     6535.00000
    39.8042     6362.00000
    39.8173     6585.00000
    39.8305     6395.00000
    39.8436     6641.00000
    39.8567     6479.00000
    39.8699     6430.00000
    39.8830     6335.00000
    39.8961     6379.00000
    39.9092     6527.00000
    39.9224     6444.00000
    39.9355     6552.00000
    39.9486     6545.00000
    39.9618     6500.00000
    39.9749     6523.00000
    39.9880     6464.00000
    40.0012     6593.00000
    40.0143     6560.00000
    40.0274     6544.00000
    40.0406     6647.00000
    40.0537     6609.00000
    40.0668     6608.00000
    40.0799     6687.00000
    40.0931     6800.00000
    40.1062     6693.00000
    40.1193     6862.00000
    40.1325     6974.00000
    40.1456     7040.00000
    40.1587     7199.00000
    40.1719     7641.00000
    40.1850     7958.00000
    40.1981     8356.00000
    40.2112     8558.00000
    40.2244     9161.00000
    40.2375     9445.00000
    40.2506     9643.00000
    40.2638     9597.00000
    40.2769     9753.00000
    40.2900     9088.00000
    40.3032     8797.00000
    40.3163     8387.00000
    40.3294     8092.00000
    40.3425     8169.00000
    40.3557     8210.00000
    40.3688     8119.00000
    40.3819     7717.00000
    40.3951     7460.00000
    40.4082     7349.00000
    40.4213     7120.00000
    40.4345     6767.00000
    40.4476     6518.00000
    40.4607     6717.00000
    40.4739     6577.00000
    40.4870     6445.00000
    40.5001     6592.00000
    40.5132     6449.00000
    40.5264     6439.00000
    40.5395     6393.00000
    40.5526     6641.00000
    40.5658     6429.00000
    40.5789     6400.00000
    40.5920     6505.00000
    40.6052     6308.00000
    40.6183     6414.00000
    40.6314     6483.00000
    40.6445     6322.00000
    40.6577     6363.00000
    40.6708     6478.00000
    40.6839     6368.00000
    40.6971     6432.00000
    40.7102     6561.00000
    40.7233     6487.00000
    40.7365     6424.00000
    40.7496     6529.00000
    40.7627     6378.00000
    40.7758     6386.00000
    40.7890     6661.00000
    40.8021     6618.00000
    40.8152     6484.00000
    40.8284     6372.00000
    40.8415     6520.00000
    40.8546     6658.00000
    40.8678     6724.00000
    40.8809     6754.00000
    40.8940     6590.00000
    40.9072     6742.00000
    40.9203     6935.00000
    40.9334     7140.00000
    40.9465     7195.00000
    40.9597     7632.00000
    40.9728     8021.00000
    40.9859     8491.00000
    40.9991     8997.00000
    41.0122     9341.00000
    41.0253     9694.00000
    41.0385    10132.00000
    41.0516    10781.00000
    41.0647    11490.00000
    41.0778    12195.00000
    41.0910    12098.00000
    41.1041    11543.00000
    41.1172    11109.00000
    41.1304    10715.00000
    41.1435    10917.00000
    41.1566    11486.00000
    41.1698    11327.00000
    41.1829    11546.00000
    41.1960    11044.00000
    41.2091     9938.00000
    41.2223     9079.00000
    41.2354     8561.00000
    41.2485     8274.00000
    41.2617     8245.00000
    41.2748     8005.00000
    41.2879     8027.00000
    41.3011     7616.00000
    41.3142     7311.00000
    41.3273     7082.00000
    41.3405     6724.00000
    41.3536     6790.00000
    41.3667     6710.00000
    41.3798     6518.00000
    41.3930     6433.00000
    41.4061     6466.00000
    41.4192     6534.00000
    41.4324     6498.00000
    41.4455     6573.00000
    41.4586     6507.00000
    41.4718     6401.00000
    41.4849     6532.00000
    41.4980     6502.00000
    41.5111     6449.00000
    41.5243     6471.00000
    41.5374     6475.00000
    41.5505     6442.00000
    41.5637     6413.00000
    41.5768     6311.00000
    41.5899     6484.00000
    41.6031     6304.00000
    41.6162     6475.00000
    41.6293     6389.00000
    41.6424     6513.00000
    41.6556     6487.00000
    41.6687     6520.00000
    41.6818     6431.00000
    41.6950     6432.00000
    41.7081     6323.00000
    41.7212     6415.00000
    41.7344     6446.00000
    41.7475     6388.00000
    41.7606     6301.00000
    41.7738     6419.00000
    41.7869     6374.00000
    41.8000     6346.00000
    41.8131     6413.00000
    41.8263     6281.00000
    41.8394     6310.00000
    41.8525     6380.00000
    41.8657     6490.00000
    41.8788     6292.00000
    41.8919     6411.00000
    41.9051     6510.00000
    41.9182     6474.00000
    41.9313     6534.00000
    41.9444     6346.00000
    41.9576     6653.00000
    41.9707     6530.00000
    41.9838     6638.00000
    41.9970     6442.00000
    42.0101     6449.00000
    42.0232     6495.00000
    42.0364     6471.00000
    42.0495     6393.00000
    42.0626     6354.00000
    42.0757     6287.00000
    42.0889     6466.00000
    42.1020     6408.00000
    42.1151     6214.00000
    42.1283     6563.00000
    42.1414     6506.00000
    42.1545     6375.00000
    42.1677     6480.00000
    42.1808     6433.00000
    42.1939     6398.00000
    42.2071     6354.00000
    42.2202     6375.00000
    42.2333     6608.00000
    42.2464     6599.00000
    42.2596     6413.00000
    42.2727     6359.00000
    42.2858     6356.00000
    42.2990     6445.00000
    42.3121     6477.00000
    42.3252     6611.00000
    42.3384     6477.00000
    42.3515     6558.00000
    42.3646     6213.00000
    42.3777     6446.00000
    42.3909     6482.00000
    42.4040     6473.00000
    42.4171     6399.00000
    42.4303     6420.00000
    42.4434     6461.00000
    42.4565     6273.00000
    42.4697     6366.00000
    42.4828     6465.00000
    42.4959     6322.00000
    42.5090     6321.00000
    42.5222     6357.00000
    42.5353     6267.00000
    42.5484     6349.00000
    42.5616     6423.00000
    42.5747     6262.00000
    42.5878     6418.00000
    42.6010     6298.00000
    42.6141     6278.00000
    42.6272     6284.00000
    42.6404     6261.00000
    42.6535     6327.00000
    42.6666     6277.00000
    42.6797     6284.00000
    42.6929     6349.00000
    42.7060     6580.00000
    42.7191     6483.00000
    42.7323     6184.00000
    42.7454     6318.00000
    42.7585     6338.00000
    42.7717     6523.00000
    42.7848     6286.00000
    42.7979     6268.00000
    42.8110     6406.00000
    42.8242     6239.00000
    42.8373     6328.00000
    42.8504     6474.00000
    42.8636     6300.00000
    42.8767     6185.00000
    42.8898     6305.00000
    42.9030     6390.00000
    42.9161     6403.00000
    42.9292     6345.00000
    42.9423     6208.00000
    42.9555     6391.00000
    42.9686     6300.00000
    42.9817     6431.00000
    42.9949     6490.00000
    43.0080     6324.00000
    43.0211     6350.00000
    43.0343     6419.00000
    43.0474     6623.00000
    43.0605     6433.00000
    43.0736     6443.00000
    43.0868     6621.00000
    43.0999     6378.00000
    43.1130     6357.00000
    43.1262     6466.00000
    43.1393     6165.00000
    43.1524     6382.00000
    43.1656     6525.00000
    43.1787     6370.00000
    43.1918     6529.00000
    43.2050     6414.00000
    43.2181     6267.00000
    43.2312     6328.00000
    43.2443     6513.00000
    43.2575     6448.00000
    43.2706     6650.00000
    43.2837     6661.00000
    43.2969     6424.00000
    43.3100     6194.00000
    43.3231     6457.00000
    43.3363     6386.00000
    43.3494     6425.00000
    43.3625     6383.00000
    43.3756     6588.00000
    43.3888     6391.00000
    43.4019     6222.00000
    43.4150     6422.00000
    43.4282     6493.00000
    43.4413     6659.00000
    43.4544     6603.00000
    43.4676     6658.00000
    43.4807     6655.00000
    43.4938     6694.00000
    43.5069     6928.00000
    43.5201     7219.00000
    43.5332     7325.00000
    43.5463     7913.00000
    43.5595     7849.00000
    43.5726     7654.00000
    43.5857     7428.00000
    43.5989     7243.00000
    43.6120     7002.00000
    43.6251     7118.00000
    43.6383     7429.00000
    43.6514     7275.00000
    43.6645     7369.00000
    43.6776     7104.00000
    43.6908     7104.00000
    43.7039     6787.00000
    43.7170     6632.00000
    43.7302     6832.00000
    43.7433     6605.00000
    43.7564     6612.00000
    43.7696     6389.00000
    43.7827     6433.00000
    43.7958     6413.00000
    43.8089     6381.00000
    43.8221     6444.00000
    43.8352     6532.00000
    43.8483     6427.00000
    43.8615     6296.00000
    43.8746     6246.00000
    43.8877     6386.00000
    43.9009     6270.00000
    43.9140     6465.00000
    43.9271     6379.00000
    43.9402     6379.00000
    43.9534     6354.00000
    43.9665     6436.00000
    43.9796     6199.00000
    43.9928     6234.00000
    44.0059     6456.00000
    44.0190     6529.00000
    44.0322     6536.00000
    44.0453     6625.00000
    44.0584     6675.00000
    44.0715     6649.00000
    44.0847     6770.00000
    44.0978     6768.00000
    44.1109     6533.00000
    44.1241     6488.00000
    44.1372     6483.00000
    44.1503     6526.00000
    44.1635     6602.00000
    44.1766     6868.00000
    44.1897     6630.00000
    44.2029     6549.00000
    44.2160     6548.00000
    44.2291     6568.00000
    44.2422     6396.00000
    44.2554     6534.00000
    44.2685     6470.00000
    44.2816     6615.00000
    44.2948     6769.00000
    44.3079     6521.00000
    44.3210     6544.00000
    44.3342     6395.00000
    44.3473     6527.00000
    44.3604     6666.00000
    44.3735     6670.00000
    44.3867     6721.00000
    44.3998     6631.00000
    44.4129     6719.00000
    44.4261     6852.00000
    44.4392     6865.00000
    44.4523     6962.00000
    44.4655     7243.00000
    44.4786     7585.00000
    44.4917     7917.00000
    44.5048     8645.00000
    44.5180     9485.00000
    44.5311    10793.00000
    44.5442    11913.00000
    44.5574    13137.00000
    44.5705    13443.00000
    44.5836    13082.00000
    44.5968    11753.00000
    44.6099    10727.00000
    44.6230     9717.00000
    44.6362     9405.00000
    44.6493     9444.00000
    44.6624     9735.00000
    44.6755    10100.00000
    44.6887    10294.00000
    44.7018     9698.00000
    44.7149     9046.00000
    44.7281     8219.00000
    44.7412     7613.00000
    44.7543     7401.00000
    44.7675     7129.00000
    44.7806     6875.00000
    44.7937     6769.00000
    44.8068     6646.00000
    44.8200     6745.00000
    44.8331     6697.00000
    44.8462     6683.00000
    44.8594     6582.00000
    44.8725     6452.00000
    44.8856     6600.00000
    44.8988     6502.00000
    44.9119     6432.00000
    44.9250     6297.00000
    44.9381     6466.00000
    44.9513     6245.00000
    44.9644     6338.00000
    44.9775     6458.00000
    44.9907     6283.00000
    45.0038     6407.00000
    45.0169     6362.00000
    45.0301     6345.00000
    45.0432     6311.00000
    45.0563     6356.00000
    45.0695     6216.00000
    45.0826     6292.00000
    45.0957     6407.00000
    45.1088     6476.00000
    45.1220     6369.00000
    45.1351     6392.00000
    45.1482     6450.00000
    45.1614     6353.00000
    45.1745     6534.00000
    45.1876     6336.00000
    45.2008     6207.00000
    45.2139     6331.00000
    45.2270     6375.00000
    45.2401     6364.00000
    45.2533     6373.00000
    45.2664     6494.00000
    45.2795     6551.00000
    45.2927     6403.00000
    45.3058     6320.00000
    45.3189     6340.00000
    45.3321     6567.00000
    45.3452     6391.00000
    45.3583     6455.00000
    45.3714     6681.00000
    45.3846     6572.00000
    45.3977     6399.00000
    45.4108     6375.00000
    45.4240     6356.00000
    45.4371     6296.00000
    45.4502     6409.00000
    45.4634     6313.00000
    45.4765     6323.00000
    45.4896     6402.00000
    45.5028     6347.00000
    45.5159     6520.00000
    45.5290     6449.00000
    45.5421     6399.00000
    45.5553     6456.00000
    45.5684     6424.00000
    45.5815     6536.00000
    45.5947     6296.00000
    45.6078     6263.00000
    45.6209     6401.00000
    45.6341     6214.00000
    45.6472     6500.00000
    45.6603     6637.00000
    45.6734     6458.00000
    45.6866     6375.00000
    45.6997     6369.00000
    45.7128     6547.00000
    45.7260     6383.00000
    45.7391     6193.00000
    45.7522     6657.00000
    45.7654     6597.00000
    45.7785     6660.00000
    45.7916     6600.00000
    45.8047     6522.00000
    45.8179     6529.00000
    45.8310     6496.00000
    45.8441     6736.00000
    45.8573     6737.00000
    45.8704     6911.00000
    45.8835     6931.00000
    45.8967     6896.00000
    45.9098     6804.00000
    45.9229     6847.00000
    45.9361     6978.00000
    45.9492     6819.00000
    45.9623     7043.00000
    45.9754     7378.00000
    45.9886     7582.00000
    46.0017     7794.00000
    46.0148     8243.00000
    46.0280     9309.00000
    46.0411    11060.00000
    46.0542    13754.00000
    46.0674    16703.00000
    46.0805    18749.00000
    46.0936    19533.00000
    46.1067    19454.00000
    46.1199    17993.00000
    46.1330    15118.00000
    46.1461    13031.00000
    46.1593    11515.00000
    46.1724    11356.00000
    46.1855    11892.00000
    46.1987    13037.00000
    46.2118    13464.00000
    46.2249    13401.00000
    46.2380    12864.00000
    46.2512    11571.00000
    46.2643    10234.00000
    46.2774     9102.00000
    46.2906     8489.00000
    46.3037     8127.00000
    46.3168     7607.00000
    46.3300     7226.00000
    46.3431     7155.00000
    46.3562     7032.00000
    46.3694     7131.00000
    46.3825     6899.00000
    46.3956     6969.00000
    46.4087     6904.00000
    46.4219     6884.00000
    46.4350     6945.00000
    46.4481     6762.00000
    46.4613     6750.00000
    46.4744     6626.00000
    46.4875     6500.00000
    46.5007     6611.00000
    46.5138     6529.00000
    46.5269     6511.00000
    46.5400     6411.00000
    46.5532     6568.00000
    46.5663     6488.00000
    46.5794     6411.00000
    46.5926     6562.00000
    46.6057     6573.00000
    46.6188     6382.00000
    46.6320     6351.00000
    46.6451     6439.00000
    46.6582     6503.00000
    46.6713     6415.00000
    46.6845     6393.00000
    46.6976     6543.00000
    46.7107     6427.00000
    46.7239     6402.00000
    46.7370     6342.00000
    46.7501     6317.00000
    46.7633     6534.00000
    46.7764     6563.00000
    46.7895     6492.00000
    46.8027     6502.00000
    46.8158     6390.00000
    46.8289     6549.00000
    46.8420     6522.00000
    46.8552     6389.00000
    46.8683     6575.00000
    46.8814     6618.00000
    46.8946     6388.00000
    46.9077     6456.00000
    46.9208     6459.00000
    46.9340     6590.00000
    46.9471     6421.00000
    46.9602     6467.00000
    46.9733     6438.00000
    46.9865     6498.00000
    46.9996     6336.00000
    47.0127     6501.00000
    47.0259     6506.00000
    47.0390     6464.00000
    47.0521     6462.00000
    47.0653     6436.00000
    47.0784     6487.00000
    47.0915     6510.00000
    47.1046     6432.00000
    47.1178     6282.00000
    47.1309     6384.00000
    47.1440     6495.00000
    47.1572     6515.00000
    47.1703     6493.00000
    47.1834     6703.00000
    47.1966     6370.00000
    47.2097     6604.00000
    47.2228     6575.00000
    47.2359     6401.00000
    47.2491     6772.00000
    47.2622     6628.00000
    47.2753     6679.00000
    47.2885     6967.00000
    47.3016     6948.00000
    47.3147     6976.00000
    47.3279     7309.00000
    47.3410     7678.00000
    47.3541     8067.00000
    47.3673     8320.00000
    47.3804     8855.00000
    47.3935     8978.00000
    47.4066     9010.00000
    47.4198     8813.00000
    47.4329     8629.00000
    47.4460     8175.00000
    47.4592     8027.00000
    47.4723     8046.00000
    47.4854     8430.00000
    47.4986     9133.00000
    47.5117    10275.00000
    47.5248    11650.00000
    47.5379    13365.00000
    47.5511    13859.00000
    47.5642    13530.00000
    47.5773    11895.00000
    47.5905    10054.00000
    47.6036     9078.00000
    47.6167     8453.00000
    47.6299     8188.00000
    47.6430     8792.00000
    47.6561     9433.00000
    47.6692     9815.00000
    47.6824    10139.00000
    47.6955     9801.00000
    47.7086     9175.00000
    47.7218     8197.00000
    47.7349     7537.00000
    47.7480     7340.00000
    47.7612     7169.00000
    47.7743     7234.00000
    47.7874     7013.00000
    47.8005     7146.00000
    47.8137     6974.00000
    47.8268     6852.00000
    47.8399     7144.00000
    47.8531     6953.00000
    47.8662     6845.00000
    47.8793     6899.00000
    47.8925     6956.00000
    47.9056     7018.00000
    47.9187     7017.00000
    47.9319     7053.00000
    47.9450     7090.00000
    47.9581     7276.00000
    47.9712     7274.00000
    47.9844     7566.00000
    47.9975     7470.00000
    48.0106     7736.00000
    48.0238     8047.00000
    48.0369     8755.00000
    48.0500     9550.00000
    48.0632    10523.00000
    48.0763    11801.00000
    48.0894    13710.00000
    48.1025    15805.00000
    48.1157    17737.00000
    48.1288    18877.00000
    48.1419    19144.00000
    48.1551    18218.00000
    48.1682    16182.00000
    48.1813    14488.00000
    48.1945    12969.00000
    48.2076    12240.00000
    48.2207    12209.00000
    48.2338    12721.00000
    48.2470    13128.00000
    48.2601    13121.00000
    48.2732    12978.00000
    48.2864    12226.00000
    48.2995    11037.00000
    48.3126     9909.00000
    48.3258     8807.00000
    48.3389     8310.00000
    48.3520     7742.00000
    48.3652     7477.00000
    48.3783     7216.00000
    48.3914     6946.00000
    48.4045     6952.00000
    48.4177     6866.00000
    48.4308     6870.00000
    48.4439     6882.00000
    48.4571     6703.00000
    48.4702     6830.00000
    48.4833     6657.00000
    48.4965     6668.00000
    48.5096     6645.00000
    48.5227     6720.00000
    48.5358     6526.00000
    48.5490     6691.00000
    48.5621     6665.00000
    48.5752     6480.00000
    48.5884     6666.00000
    48.6015     6716.00000
    48.6146     6602.00000
    48.6278     6615.00000
    48.6409     6820.00000
    48.6540     6779.00000
    48.6671     6996.00000
    48.6803     7241.00000
    48.6934     7466.00000
    48.7065     7736.00000
    48.7197     7893.00000
    48.7328     7969.00000
    48.7459     7940.00000
    48.7591     7853.00000
    48.7722     7678.00000
    48.7853     7387.00000
    48.7985     7706.00000
    48.8116     7742.00000
    48.8247     7973.00000
    48.8378     8030.00000
    48.8510     7843.00000
    48.8641     7926.00000
    48.8772     7559.00000
    48.8904     7527.00000
    48.9035     7522.00000
    48.9166     7163.00000
    48.9298     7363.00000
    48.9429     6981.00000
    48.9560     7022.00000
    48.9691     7229.00000
    48.9823     7130.00000
    48.9954     7079.00000
    49.0085     7273.00000
    49.0217     7055.00000
    49.0348     7147.00000
    49.0479     7364.00000
    49.0611     7456.00000
    49.0742     7296.00000
    49.0873     7577.00000
    49.1004     7765.00000
    49.1136     8293.00000
    49.1267     9003.00000
    49.1398     9695.00000
    49.1530    10784.00000
    49.1661    12480.00000
    49.1792    13984.00000
    49.1924    15137.00000
    49.2055    15334.00000
    49.2186    15259.00000
    49.2318    13854.00000
    49.2449    12705.00000
    49.2580    11516.00000
    49.2711    10739.00000
    49.2843    11192.00000
    49.2974    11920.00000
    49.3105    13263.00000
    49.3237    14423.00000
    49.3368    14219.00000
    49.3499    13735.00000
    49.3631    12908.00000
    49.3762    11400.00000
    49.3893    10146.00000
    49.4024     9140.00000
    49.4156     8867.00000
    49.4287     8573.00000
    49.4418     8544.00000
    49.4550     8612.00000
    49.4681     8608.00000
    49.4812     8377.00000
    49.4944     8079.00000
    49.5075     7655.00000
    49.5206     7382.00000
    49.5337     7319.00000
    49.5469     7320.00000
    49.5600     7104.00000
    49.5731     7033.00000
    49.5863     6940.00000
    49.5994     6755.00000
    49.6125     6933.00000
    49.6257     6875.00000
    49.6388     6708.00000
    49.6519     6825.00000
    49.6651     6797.00000
    49.6782     7008.00000
    49.6913     6891.00000
    49.7044     6835.00000
    49.7176     7006.00000
    49.7307     7120.00000
    49.7438     7104.00000
    49.7570     7088.00000
    49.7701     7158.00000
    49.7832     7334.00000
    49.7964     7449.00000
    49.8095     7671.00000
    49.8226     7876.00000
    49.8357     8681.00000
    49.8489     9516.00000
    49.8620    10871.00000
    49.8751    12781.00000
    49.8883    14868.00000
    49.9014    17743.00000
    49.9145    19338.00000
    49.9277    19497.00000
    49.9408    18134.00000
    49.9539    15971.00000
    49.9670    13353.00000
    49.9802    11745.00000
    49.9933    10742.00000
    50.0064    11132.00000
    50.0196    11740.00000
    50.0327    12634.00000
    50.0458    13174.00000
    50.0590    13280.00000
    50.0721    12635.00000
    50.0852    11342.00000
    50.0984    10247.00000
    50.1115     8849.00000
    50.1246     8246.00000
    50.1377     7805.00000
    50.1509     7383.00000
    50.1640     7245.00000
    50.1771     7251.00000
    50.1903     7087.00000
    50.2034     6961.00000
    50.2165     6813.00000
    50.2297     6898.00000
    50.2428     6810.00000
    50.2559     6687.00000
    50.2690     6810.00000
    50.2822     6786.00000
    50.2953     6714.00000
    50.3084     6516.00000
    50.3216     6594.00000
    50.3347     6705.00000
    50.3478     6675.00000
    50.3610     6731.00000
    50.3741     6846.00000
    50.3872     7006.00000
    50.4003     7114.00000
    50.4135     7430.00000
    50.4266     7320.00000
    50.4397     7566.00000
    50.4529     7508.00000
    50.4660     7379.00000
    50.4791     7431.00000
    50.4923     7380.00000
    50.5054     7344.00000
    50.5185     7326.00000
    50.5317     7568.00000
    50.5448     7905.00000
    50.5579     8104.00000
    50.5710     8871.00000
    50.5842     9274.00000
    50.5973     9706.00000
    50.6104     9523.00000
    50.6236     9540.00000
    50.6367     9639.00000
    50.6498     9582.00000
    50.6630     9629.00000
    50.6761     9843.00000
    50.6892     9590.00000
    50.7023     9472.00000
    50.7155     9086.00000
    50.7286     8813.00000
    50.7417     8473.00000
    50.7549     8318.00000
    50.7680     8254.00000
    50.7811     8127.00000
    50.7943     8002.00000
    50.8074     8003.00000
    50.8205     7867.00000
    50.8336     7769.00000
    50.8468     7476.00000
    50.8599     7194.00000
    50.8730     6924.00000
    50.8862     6815.00000
    50.8993     6628.00000
    50.9124     6603.00000
    50.9256     6575.00000
    50.9387     6576.00000
    50.9518     6455.00000
    50.9649     6657.00000
    50.9781     6630.00000
    50.9912     6419.00000
    51.0043     6465.00000
    51.0175     6401.00000
    51.0306     6532.00000
    51.0437     6593.00000
    51.0569     6520.00000
    51.0700     6407.00000
    51.0831     6483.00000
    51.0963     6320.00000
    51.1094     6528.00000
    51.1225     6595.00000
    51.1356     6520.00000
    51.1488     6511.00000
    51.1619     6604.00000
    51.1750     6459.00000
    51.1882     6573.00000
    51.2013     6696.00000
    51.2144     6497.00000
    51.2276     6614.00000
    51.2407     6563.00000
    51.2538     6453.00000
    51.2669     6691.00000
    51.2801     6586.00000
    51.2932     6354.00000
    51.3063     6490.00000
    51.3195     6330.00000
    51.3326     6245.00000
    51.3457     6390.00000
    51.3589     6638.00000
    51.3720     6498.00000
    51.3851     6550.00000
    51.3982     6517.00000
    51.4114     6691.00000
    51.4245     6607.00000
    51.4376     6532.00000
    51.4508     6516.00000
    51.4639     6691.00000
    51.4770     6627.00000
    51.4902     6748.00000
    51.5033     6871.00000
    51.5164     6746.00000
    51.5296     6746.00000
    51.5427     6871.00000
    51.5558     6980.00000
    51.5689     7180.00000
    51.5821     7538.00000
    51.5952     7758.00000
    51.6083     8225.00000
    51.6215     8850.00000
    51.6346     9295.00000
    51.6477    10132.00000
    51.6609    11295.00000
    51.6740    12650.00000
    51.6871    14281.00000
    51.7002    15132.00000
    51.7134    14761.00000
    51.7265    13324.00000
    51.7396    11710.00000
    51.7528    10339.00000
    51.7659    10061.00000
    51.7790    10008.00000
    51.7922    10310.00000
    51.8053    10543.00000
    51.8184    11058.00000
    51.8315    11509.00000
    51.8447    11423.00000
    51.8578    10391.00000
    51.8709     9731.00000
    51.8841     8896.00000
    51.8972     8220.00000
    51.9103     7807.00000
    51.9235     7559.00000
    51.9366     7434.00000
    51.9497     7205.00000
    51.9628     7041.00000
    51.9760     6847.00000
    51.9891     6731.00000
    52.0022     6834.00000
    52.0154     6706.00000
    52.0285     6702.00000
    52.0416     6497.00000
    52.0548     6542.00000
    52.0679     6469.00000
    52.0810     6566.00000
    52.0942     6477.00000
    52.1073     6515.00000
    52.1204     6454.00000
    52.1335     6331.00000
    52.1467     6498.00000
    52.1598     6466.00000
    52.1729     6479.00000
    52.1861     6370.00000
    52.1992     6379.00000
    52.2123     6324.00000
    52.2255     6516.00000
    52.2386     6271.00000
    52.2517     6318.00000
    52.2648     6391.00000
    52.2780     6481.00000
    52.2911     6522.00000
    52.3042     6440.00000
    52.3174     6427.00000
    52.3305     6542.00000
    52.3436     6344.00000
    52.3568     6482.00000
    52.3699     6528.00000
    52.3830     6316.00000
    52.3961     6509.00000
    52.4093     6370.00000
    52.4224     6354.00000
    52.4355     6318.00000
    52.4487     6301.00000
    52.4618     6491.00000
    52.4749     6492.00000
    52.4881     6332.00000
    52.5012     6374.00000
    52.5143     6386.00000
    52.5275     6408.00000
    52.5406     6409.00000
    52.5537     6453.00000
    52.5668     6551.00000
    52.5800     6516.00000
    52.5931     6455.00000
    52.6062     6671.00000
    52.6194     6887.00000
    52.6325     7075.00000
    52.6456     7409.00000
    52.6588     7833.00000
    52.6719     8371.00000
    52.6850     8154.00000
    52.6981     7865.00000
    52.7113     7475.00000
    52.7244     7266.00000
    52.7375     6914.00000
    52.7507     6779.00000
    52.7638     6575.00000
    52.7769     6918.00000
    52.7901     7054.00000
    52.8032     7251.00000
    52.8163     7393.00000
    52.8294     7315.00000
    52.8426     7138.00000
    52.8557     6944.00000
    52.8688     6810.00000
    52.8820     6700.00000
    52.8951     6644.00000
    52.9082     6547.00000
    52.9214     6458.00000
    52.9345     6434.00000
    52.9476     6366.00000
    52.9608     6460.00000
    52.9739     6320.00000
    52.9870     6508.00000
    53.0001     6392.00000
    53.0133     6352.00000
    53.0264     6458.00000
    53.0395     6326.00000
    53.0527     6287.00000
    53.0658     6295.00000
    53.0789     6391.00000
    53.0921     6326.00000
    53.1052     6319.00000
    53.1183     6095.00000
    53.1314     6317.00000
    53.1446     6281.00000
    53.1577     6346.00000
    53.1708     6169.00000
    53.1840     6217.00000
    53.1971     6339.00000
    53.2102     6321.00000
    53.2234     6208.00000
    53.2365     6464.00000
    53.2496     6524.00000
    53.2627     6344.00000
    53.2759     6435.00000
    53.2890     6469.00000
    53.3021     6475.00000
    53.3153     6513.00000
    53.3284     6444.00000
    53.3415     6411.00000
    53.3547     6578.00000
    53.3678     6399.00000
    53.3809     6352.00000
    53.3941     6438.00000
    53.4072     6415.00000
    53.4203     6524.00000
    53.4334     6310.00000
    53.4466     6325.00000
    53.4597     6323.00000
    53.4728     6339.00000
    53.4860     6363.00000
    53.4991     6181.00000
    53.5122     6289.00000
    53.5254     6387.00000
    53.5385     6332.00000
    53.5516     6466.00000
    53.5647     6225.00000
    53.5779     6124.00000
    53.5910     6346.00000
    53.6041     6263.00000
    53.6173     6250.00000
    53.6304     6366.00000
    53.6435     6289.00000
    53.6567     6325.00000
    53.6698     6379.00000
    53.6829     6448.00000
    53.6960     6364.00000
    53.7092     6281.00000
    53.7223     6414.00000
    53.7354     6230.00000
    53.7486     6255.00000
    53.7617     6434.00000
    53.7748     6600.00000
    53.7880     6527.00000
    53.8011     6460.00000
    53.8142     6283.00000
    53.8274     6438.00000
    53.8405     6423.00000
    53.8536     6431.00000
    53.8667     6354.00000
    53.8799     6280.00000
    53.8930     6369.00000
    53.9061     6514.00000
    53.9193     6487.00000
    53.9324     6470.00000
    53.9455     6530.00000
    53.9587     6464.00000
    53.9718     6494.00000
    53.9849     6415.00000
    53.9980     6164.00000
    54.0112     6338.00000
    54.0243     6384.00000
    54.0374     6315.00000
    54.0506     6240.00000
    54.0637     6040.00000
    54.0768     6203.00000
    54.0900     6195.00000
    54.1031     6224.00000
    54.1162     6304.00000
    54.1293     6129.00000
    54.1425     6500.00000
    54.1556     6273.00000
    54.1687     6350.00000
    54.1819     6117.00000
    54.1950     6123.00000
    54.2081     6240.00000
    54.2213     6304.00000
    54.2344     6165.00000
    54.2475     6301.00000
    54.2607     6399.00000
    54.2738     6272.00000
    54.2869     6214.00000
    54.3000     6373.00000
    54.3132     6328.00000
    54.3263     6132.00000
    54.3394     6333.00000
    54.3526     6213.00000
    54.3657     6392.00000
    54.3788     6311.00000
    54.3920     6299.00000
    54.4051     6351.00000
    54.4182     6287.00000
    54.4313     6314.00000
    54.4445     6238.00000
    54.4576     6227.00000
    54.4707     6205.00000
    54.4839     6107.00000
    54.4970     6209.00000
    54.5101     6250.00000
    54.5233     6249.00000
    54.5364     6359.00000
    54.5495     6387.00000
    54.5626     6233.00000
    54.5758     6184.00000
    54.5889     6380.00000
    54.6020     6366.00000
    54.6152     6324.00000
    54.6283     6197.00000
    54.6414     6341.00000
    54.6546     6305.00000
    54.6677     6413.00000
    54.6808     6218.00000
    54.6940     6463.00000
    54.7071     6329.00000
    54.7202     6203.00000
    54.7333     6297.00000
    54.7465     6227.00000
    54.7596     6328.00000
    54.7727     6377.00000
    54.7859     6367.00000
    54.7990     6321.00000
    54.8121     6300.00000
    54.8253     6294.00000
    54.8384     6384.00000
    54.8515     6264.00000
    54.8646     6380.00000
    54.8778     6366.00000
    54.8909     6566.00000
    54.9040     6475.00000
    54.9172     6372.00000
    54.9303     6253.00000
    54.9434     6322.00000
    54.9566     6429.00000
    54.9697     6395.00000
    54.9828     6374.00000
    54.9959     6254.00000
    55.0091     6265.00000
    55.0222     6205.00000
    55.0353     6263.00000
    55.0485     6419.00000
    55.0616     6342.00000
    55.0747     6276.00000
    55.0879     6215.00000
    55.1010     6324.00000
    55.1141     6057.00000
    55.1272     6510.00000
    55.1404     6478.00000
    55.1535     6435.00000
    55.1666     6337.00000
    55.1798     6287.00000
    55.1929     6158.00000
    55.2060     6250.00000
    55.2192     6394.00000
    55.2323     6319.00000
    55.2454     6262.00000
    55.2586     6453.00000
    55.2717     6425.00000
    55.2848     6228.00000
    55.2979     6319.00000
    55.3111     6480.00000
    55.3242     6485.00000
    55.3373     6261.00000
    55.3505     6371.00000
    55.3636     6693.00000
    55.3767     6517.00000
    55.3899     6419.00000
    55.4030     6643.00000
    55.4161     6713.00000
    55.4292     6885.00000
    55.4424     6992.00000
    55.4555     7338.00000
    55.4686     7731.00000
    55.4818     8222.00000
    55.4949     8693.00000
    55.5080     8895.00000
    55.5212     8638.00000
    55.5343     8399.00000
    55.5474     8078.00000
    55.5605     7826.00000
    55.5737     7823.00000
    55.5868     7834.00000
    55.5999     8007.00000
    55.6131     8259.00000
    55.6262     8571.00000
    55.6393     9190.00000
    55.6525     9652.00000
    55.6656    10240.00000
    55.6787    10575.00000
    55.6918    11297.00000
    55.7050    12318.00000
    55.7181    12701.00000
    55.7312    13329.00000
    55.7444    13211.00000
    55.7575    12461.00000
    55.7706    11276.00000
    55.7838    10428.00000
    55.7969     9335.00000
    55.8100     8921.00000
    55.8232     8656.00000
    55.8363     9072.00000
    55.8494     9262.00000
    55.8625     9540.00000
    55.8757     9679.00000
    55.8888     9936.00000
    55.9019     9529.00000
    55.9151     9013.00000
    55.9282     8563.00000
    55.9413     8042.00000
    55.9545     7737.00000
    55.9676     7313.00000
    55.9807     7252.00000
    55.9938     7210.00000
    56.0070     7194.00000
    56.0201     7441.00000
    56.0332     7375.00000
    56.0464     7166.00000
    56.0595     6929.00000
    56.0726     6749.00000
    56.0858     6803.00000
    56.0989     6759.00000
    56.1120     6874.00000
    56.1251     6648.00000
    56.1383     6821.00000
    56.1514     6888.00000
    56.1645     6703.00000
    56.1777     6913.00000
    56.1908     6897.00000
    56.2039     6966.00000
    56.2171     7001.00000
    56.2302     6885.00000
    56.2433     7263.00000
    56.2565     7752.00000
    56.2696     8223.00000
    56.2827     8543.00000
    56.2958     9047.00000
    56.3090     9568.00000
    56.3221     9461.00000
    56.3352     9021.00000
    56.3484     8473.00000
    56.3615     7803.00000
    56.3746     7415.00000
    56.3878     7403.00000
    56.4009     7195.00000
    56.4140     7446.00000
    56.4271     7855.00000
    56.4403     8129.00000
    56.4534     8262.00000
    56.4665     8265.00000
    56.4797     8152.00000
    56.4928     7905.00000
    56.5059     7618.00000
    56.5191     7643.00000
    56.5322     7745.00000
    56.5453     7774.00000
    56.5584     8142.00000
    56.5716     8612.00000
    56.5847     9401.00000
    56.5978    10299.00000
    56.6110    11066.00000
    56.6241    11081.00000
    56.6372    10717.00000
    56.6504    10168.00000
    56.6635     9283.00000
    56.6766     8545.00000
    56.6898     7982.00000
    56.7029     7564.00000
    56.7160     7584.00000
    56.7291     7888.00000
    56.7423     8122.00000
    56.7554     8761.00000
    56.7685     8695.00000
    56.7817     8913.00000
    56.7948     8533.00000
    56.8079     8090.00000
    56.8211     7903.00000
    56.8342     7681.00000
    56.8473     7483.00000
    56.8604     7272.00000
    56.8736     7290.00000
    56.8867     7343.00000
    56.8998     7341.00000
    56.9130     7199.00000
    56.9261     6881.00000
    56.9392     6885.00000
    56.9524     6821.00000
    56.9655     6799.00000
    56.9786     6695.00000
    56.9917     6771.00000
    57.0049     6764.00000
    57.0180     6678.00000
    57.0311     6650.00000
    57.0443     6772.00000
    57.0574     6639.00000
    57.0705     6496.00000
    57.0837     6393.00000
    57.0968     6456.00000
    57.1099     6465.00000
    57.1231     6408.00000
    57.1362     6392.00000
    57.1493     6290.00000
    57.1624     6358.00000
    57.1756     6465.00000
    57.1887     6331.00000
    57.2018     6475.00000
    57.2150     6355.00000
    57.2281     6352.00000
    57.2412     6480.00000
    57.2544     6398.00000
    57.2675     6311.00000
    57.2806     6345.00000
    57.2937     6413.00000
    57.3069     6527.00000
    57.3200     6433.00000
    57.3331     6438.00000
    57.3463     6374.00000
    57.3594     6415.00000
    57.3725     6469.00000
    57.3857     6343.00000
    57.3988     6408.00000
    57.4119     6323.00000
    57.4250     6414.00000
    57.4382     6526.00000
    57.4513     6321.00000
    57.4644     6388.00000
    57.4776     6531.00000
    57.4907     6546.00000
    57.5038     6388.00000
    57.5170     6353.00000
    57.5301     6509.00000
    57.5432     6447.00000
    57.5564     6634.00000
    57.5695     6585.00000
    57.5826     6347.00000
    57.5957     6624.00000
    57.6089     6475.00000
    57.6220     6564.00000
    57.6351     6799.00000
    57.6483     6927.00000
    57.6614     7027.00000
    57.6745     7042.00000
    57.6877     7367.00000
    57.7008     7454.00000
    57.7139     7968.00000
    57.7270     8301.00000
    57.7402     8705.00000
    57.7533     9137.00000
    57.7664     9404.00000
    57.7796     9367.00000
    57.7927     9247.00000
    57.8058     9082.00000
    57.8190     8899.00000
    57.8321     8834.00000
    57.8452     8629.00000
    57.8583     8836.00000
    57.8715     9066.00000
    57.8846     9489.00000
    57.8977    10107.00000
    57.9109    10687.00000
    57.9240    10878.00000
    57.9371    11135.00000
    57.9503    10982.00000
    57.9634    10098.00000
    57.9765     9362.00000
    57.9897     8825.00000
    58.0028     8102.00000
    58.0159     8071.00000
    58.0290     7967.00000
    58.0422     7933.00000
    58.0553     8150.00000
    58.0684     8016.00000
    58.0816     8156.00000
    58.0947     8297.00000
    58.1078     8063.00000
    58.1210     7747.00000
    58.1341     7417.00000
    58.1472     7233.00000
    58.1603     6902.00000
    58.1735     6919.00000
    58.1866     6746.00000
    58.1997     6750.00000
    58.2129     6593.00000
    58.2260     6561.00000
    58.2391     6491.00000
    58.2523     6492.00000
    58.2654     6520.00000
    58.2785     6473.00000
    58.2916     6450.00000
    58.3048     6592.00000
    58.3179     6355.00000
    58.3310     6187.00000
    58.3442     6496.00000
    58.3573     6442.00000
    58.3704     6504.00000
    58.3836     6486.00000
    58.3967     6590.00000
    58.4098     6527.00000
    58.4230     6478.00000
    58.4361     6571.00000
    58.4492     6620.00000
    58.4623     6568.00000
    58.4755     6810.00000
    58.4886     6632.00000
    58.5017     6934.00000
    58.5149     7211.00000
    58.5280     7253.00000
    58.5411     7365.00000
    58.5543     7547.00000
    58.5674     7897.00000
    58.5805     7856.00000
    58.5936     7787.00000
    58.6068     7786.00000
    58.6199     7806.00000
    58.6330     7463.00000
    58.6462     7539.00000
    58.6593     7231.00000
    58.6724     7244.00000
    58.6856     7399.00000
    58.6987     7646.00000
    58.7118     8067.00000
    58.7249     8329.00000
    58.7381     9112.00000
    58.7512     9346.00000
    58.7643     9517.00000
    58.7775     9887.00000
    58.7906     9752.00000
    58.8037     9836.00000
    58.8169     9703.00000
    58.8300     9715.00000
    58.8431     9726.00000
    58.8562     9881.00000
    58.8694    10286.00000
    58.8825    10496.00000
    58.8956    10780.00000
    58.9088    10351.00000
    58.9219    10118.00000
    58.9350    10161.00000
    58.9482     9574.00000
    58.9613     9467.00000
    58.9744     9629.00000
    58.9876     9893.00000
    59.0007    10236.00000
    59.0138    10606.00000
    59.0269    10589.00000
    59.0401    10571.00000
    59.0532    10143.00000
    59.0663     9645.00000
    59.0795     9165.00000
    59.0926     8839.00000
    59.1057     8740.00000
    59.1189     8802.00000
    59.1320     9078.00000
    59.1451     9474.00000
    59.1582    10096.00000
    59.1714    10565.00000
    59.1845    10772.00000
    59.1976    10652.00000
    59.2108    10174.00000
    59.2239     9300.00000
    59.2370     8591.00000
    59.2502     7911.00000
    59.2633     7649.00000
    59.2764     7713.00000
    59.2895     7499.00000
    59.3027     7830.00000
    59.3158     7680.00000
    59.3289     7959.00000
    59.3421     7987.00000
    59.3552     7973.00000
    59.3683     7879.00000
    59.3815     7508.00000
    59.3946     7228.00000
    59.4077     7073.00000
    59.4208     6726.00000
    59.4340     6524.00000
    59.4471     6512.00000
    59.4602     6572.00000
    59.4734     6486.00000
    59.4865     6512.00000
    59.4996     6408.00000
    59.5128     6381.00000
    59.5259     6307.00000
    59.5390     6195.00000
    59.5522     6439.00000
    59.5653     6426.00000
    59.5784     6137.00000
    59.5915     6372.00000
    59.6047     6341.00000
    59.6178     6488.00000
    59.6309     6286.00000
    59.6441     6293.00000
    59.6572     6396.00000
    59.6703     6452.00000
    59.6835     6354.00000
    59.6966     6408.00000
    59.7097     6336.00000
    59.7228     6378.00000
    59.7360     6420.00000
    59.7491     6599.00000
    59.7622     6449.00000
    59.7754     6450.00000
    59.7885     6540.00000
    59.8016     6378.00000
    59.8148     6578.00000
    59.8279     6688.00000
    59.8410     6604.00000
    59.8541     6810.00000
    59.8673     6704.00000
    59.8804     6852.00000
    59.8935     6764.00000
    59.9067     6880.00000
    59.9198     7120.00000
    59.9329     7392.00000
    59.9461     7936.00000
    59.9592     8144.00000
    59.9723     9326.00000
    59.9855    10202.00000
    59.9986    11401.00000
    60.0117    12311.00000
    60.0248    12278.00000
    60.0380    11793.00000
    60.0511    10688.00000
    60.0642     9415.00000
    60.0774     8573.00000
    60.0905     7928.00000
    60.1036     7692.00000
    60.1168     7722.00000
    60.1299     7924.00000
    60.1430     8387.00000
    60.1561     8854.00000
    60.1693     9112.00000
    60.1824     9455.00000
    60.1955     9299.00000
    60.2087     8910.00000
    60.2218     8208.00000
    60.2349     7565.00000
    60.2481     7150.00000
    60.2612     6999.00000
    60.2743     6873.00000
    60.2874     6562.00000
    60.3006     6407.00000
    60.3137     6555.00000
    60.3268     6320.00000
    60.3400     6341.00000
    60.3531     6324.00000
    60.3662     6475.00000
    60.3794     6535.00000
    60.3925     6443.00000
    60.4056     6439.00000
    60.4188     6512.00000
    60.4319     6414.00000
    60.4450     6583.00000
    60.4581     6697.00000
    60.4713     6819.00000
    60.4844     6889.00000
    60.4975     7267.00000
    60.5107     7633.00000
    60.5238     8138.00000
    60.5369     8732.00000
    60.5501     8997.00000
    60.5632     8994.00000
    60.5763     8578.00000
    60.5894     8074.00000
    60.6026     7916.00000
    60.6157     7385.00000
    60.6288     7226.00000
    60.6420     7284.00000
    60.6551     7231.00000
    60.6682     7494.00000
    60.6814     7509.00000
    60.6945     7333.00000
    60.7076     7539.00000
    60.7207     7754.00000
    60.7339     7782.00000
    60.7470     7531.00000
    60.7601     7141.00000
    60.7733     7038.00000
    60.7864     7151.00000
    60.7995     6771.00000
    60.8127     6771.00000
    60.8258     6545.00000
    60.8389     6570.00000
    60.8521     6636.00000
    60.8652     6586.00000
    60.8783     6688.00000
    60.8914     6560.00000
    60.9046     6507.00000
    60.9177     6419.00000
    60.9308     6486.00000
    60.9440     6552.00000
    60.9571     6649.00000
    60.9702     6757.00000
    60.9834     6674.00000
    60.9965     6493.00000
    61.0096     6693.00000
    61.0227     6803.00000
    61.0359     6655.00000
    61.0490     6833.00000
    61.0621     6887.00000
    61.0753     6923.00000
    61.0884     7147.00000
    61.1015     7416.00000
    61.1147     7557.00000
    61.1278     7827.00000
    61.1409     8307.00000
    61.1540     8971.00000
    61.1672     9689.00000
    61.1803    10708.00000
    61.1934    11409.00000
    61.2066    12434.00000
    61.2197    13452.00000
    61.2328    13690.00000
    61.2460    13547.00000
    61.2591    13672.00000
    61.2722    12813.00000
    61.2854    12008.00000
    61.2985    11110.00000
    61.3116    10155.00000
    61.3247     9612.00000
    61.3379     9345.00000
    61.3510     9382.00000
    61.3641     9567.00000
    61.3773     9678.00000
    61.3904    10013.00000
    61.4035    10046.00000
    61.4167     9928.00000
    61.4298     9779.00000
    61.4429     9509.00000
    61.4560     8934.00000
    61.4692     8545.00000
    61.4823     7728.00000
    61.4954     7311.00000
    61.5086     6719.00000
    61.5217     6945.00000
    61.5348     6539.00000
    61.5480     6597.00000
    61.5611     6566.00000
    61.5742     6634.00000
    61.5873     6631.00000
    61.6005     6786.00000
    61.6136     6540.00000
    61.6267     6971.00000
    61.6399     7281.00000
    61.6530     7591.00000
    61.6661     7590.00000
    61.6793     7569.00000
    61.6924     7431.00000
    61.7055     7081.00000
    61.7187     6922.00000
    61.7318     6595.00000
    61.7449     6521.00000
    61.7580     6549.00000
    61.7712     6509.00000
    61.7843     6535.00000
    61.7974     6525.00000
    61.8106     6871.00000
    61.8237     6922.00000
    61.8368     6819.00000
    61.8500     6866.00000
    61.8631     6885.00000
    61.8762     6591.00000
    61.8893     6395.00000
    61.9025     6337.00000
    61.9156     6490.00000
    61.9287     6339.00000
    61.9419     6308.00000
    61.9550     6392.00000
    61.9681     6232.00000
    61.9813     6230.00000
    61.9944     6268.00000
    62.0075     6206.00000
    62.0206     6138.00000
    62.0338     6198.00000
    62.0469     6146.00000
    62.0600     6118.00000
    62.0732     6104.00000
    62.0863     6203.00000
    62.0994     6349.00000
    62.1126     6151.00000
    62.1257     5998.00000
    62.1388     6059.00000
    62.1520     6204.00000
    62.1651     6163.00000
    62.1782     6047.00000
    62.1913     6217.00000
    62.2045     6213.00000
    62.2176     6072.00000
    62.2307     6101.00000
    62.2439     6116.00000
    62.2570     6148.00000
    62.2701     6098.00000
    62.2833     6047.00000
    62.2964     6085.00000
    62.3095     6267.00000
    62.3226     6265.00000
    62.3358     6034.00000
    62.3489     5914.00000
    62.3620     6194.00000
    62.3752     6016.00000
    62.3883     6103.00000
    62.4014     6106.00000
    62.4146     6141.00000
    62.4277     6019.00000
    62.4408     6057.00000
    62.4539     6053.00000
    62.4671     6020.00000
    62.4802     6183.00000
    62.4933     5950.00000
    62.5065     6110.00000
    62.5196     5897.00000
    62.5327     6108.00000
    62.5459     6201.00000
    62.5590     6102.00000
    62.5721     5923.00000
    62.5852     6092.00000
    62.5984     6216.00000
    62.6115     6122.00000
    62.6246     6227.00000
    62.6378     6051.00000
    62.6509     6150.00000
    62.6640     6064.00000
    62.6772     6098.00000
    62.6903     6049.00000
    62.7034     6002.00000
    62.7166     6200.00000
    62.7297     6197.00000
    62.7428     6068.00000
    62.7559     6090.00000
    62.7691     6216.00000
    62.7822     6061.00000
    62.7953     6132.00000
    62.8085     6067.00000
    62.8216     6335.00000
    62.8347     6173.00000
    62.8479     6255.00000
    62.8610     6233.00000
    62.8741     6254.00000
    62.8872     6212.00000
    62.9004     6116.00000
    62.9135     6061.00000
    62.9266     6131.00000
    62.9398     6256.00000
    62.9529     6198.00000
    62.9660     6233.00000
    62.9792     6325.00000
    62.9923     6187.00000
    63.0054     6209.00000
    63.0185     6164.00000
    63.0317     6256.00000
    63.0448     6213.00000
    63.0579     6212.00000
    63.0711     6129.00000
    63.0842     6206.00000
    63.0973     6299.00000
    63.1105     6273.00000
    63.1236     6362.00000
    63.1367     6402.00000
    63.1499     6539.00000
    63.1630     6535.00000
    63.1761     6654.00000
    63.1892     6834.00000
    63.2024     7095.00000
    63.2155     7246.00000
    63.2286     7304.00000
    63.2418     7410.00000
    63.2549     7365.00000
    63.2680     7242.00000
    63.2812     6927.00000
    63.2943     6945.00000
    63.3074     6602.00000
    63.3205     6787.00000
    63.3337     6773.00000
    63.3468     6644.00000
    63.3599     6897.00000
    63.3731     7022.00000
    63.3862     7047.00000
    63.3993     6980.00000
    63.4125     7130.00000
    63.4256     7277.00000
    63.4387     7374.00000
    63.4518     7647.00000
    63.4650     7682.00000
    63.4781     7959.00000
    63.4912     8113.00000
    63.5044     8259.00000
    63.5175     7747.00000
    63.5306     7709.00000
    63.5438     7202.00000
    63.5569     7086.00000
    63.5700     6838.00000
    63.5831     6769.00000
    63.5963     6733.00000
    63.6094     6618.00000
    63.6225     6837.00000
    63.6357     7083.00000
    63.6488     7103.00000
    63.6619     7057.00000
    63.6751     7257.00000
    63.6882     7250.00000
    63.7013     7096.00000
    63.7145     6805.00000
    63.7276     6498.00000
    63.7407     6422.00000
    63.7538     6485.00000
    63.7670     6328.00000
    63.7801     6452.00000
    63.7932     6388.00000
    63.8064     6425.00000
    63.8195     6257.00000
    63.8326     6302.00000
    63.8458     6336.00000
    63.8589     6285.00000
    63.8720     6349.00000
    63.8851     6211.00000
    63.8983     6067.00000
    63.9114     6052.00000
    63.9245     6186.00000
    63.9377     6094.00000
    63.9508     6026.00000
    63.9639     6201.00000
    63.9771     6211.00000
    63.9902     6122.00000
    64.0033     6044.00000
    64.0164     6133.00000
    64.0296     6058.00000
    64.0427     6087.00000
    64.0558     6135.00000
    64.0690     6051.00000
    64.0821     6170.00000
    64.0952     6009.00000
    64.1084     6137.00000
    64.1215     6165.00000
    64.1346     6230.00000
    64.1478     6241.00000
    64.1609     6234.00000
    64.1740     6305.00000
    64.1871     6237.00000
    64.2003     6470.00000
    64.2134     6468.00000
    64.2265     6635.00000
    64.2397     6689.00000
    64.2528     6821.00000
    64.2659     6980.00000
    64.2791     7204.00000
    64.2922     7167.00000
    64.3053     7362.00000
    64.3184     7432.00000
    64.3316     7232.00000
    64.3447     7109.00000
    64.3578     6749.00000
    64.3710     6527.00000
    64.3841     6333.00000
    64.3972     6460.00000
    64.4104     6581.00000
    64.4235     6401.00000
    64.4366     6271.00000
    64.4498     6654.00000
    64.4629     6553.00000
    64.4760     6754.00000
    64.4891     6698.00000
    64.5023     6727.00000
    64.5154     6675.00000
    64.5285     6608.00000
    64.5417     6450.00000
    64.5548     6435.00000
    64.5679     6266.00000
    64.5811     6170.00000
    64.5942     6190.00000
    64.6073     6200.00000
    64.6204     6324.00000
    64.6336     6024.00000
    64.6467     6163.00000
    64.6598     6287.00000
    64.6730     6168.00000
    64.6861     6104.00000
    64.6992     6092.00000
    64.7124     6189.00000
    64.7255     6108.00000
    64.7386     5911.00000
    64.7517     6249.00000
    64.7649     6177.00000
    64.7780     6061.00000
    64.7911     6081.00000
    64.8043     6130.00000
    64.8174     6030.00000
    64.8305     6092.00000
    64.8437     6066.00000
    64.8568     5933.00000
    64.8699     6042.00000
    64.8830     5966.00000
    64.8962     6052.00000
    64.9093     6064.00000
    64.9224     6100.00000
    64.9356     6042.00000
    64.9487     6148.00000
    64.9618     6106.00000
    64.9750     6087.00000
    64.9881     6112.00000
    65.0012     5937.00000
    65.0144     6047.00000
    65.0275     6258.00000
    65.0406     5983.00000
    65.0537     6081.00000
    65.0669     6039.00000
    65.0800     6108.00000
    65.0931     6074.00000
    65.1063     6146.00000
    65.1194     6155.00000
    65.1325     6153.00000
    65.1457     6088.00000
    65.1588     6079.00000
    65.1719     6126.00000
    65.1850     6195.00000
    65.1982     6087.00000
    65.2113     6123.00000
    65.2244     6117.00000
    65.2376     6122.00000
    65.2507     6146.00000
    65.2638     6032.00000
    65.2770     6093.00000
    65.2901     6183.00000
    65.3032     6175.00000
    65.3163     6117.00000
    65.3295     5919.00000
    65.3426     6035.00000
    65.3557     6128.00000
    65.3689     6042.00000
    65.3820     6039.00000
    65.3951     6034.00000
    65.4083     6121.00000
    65.4214     6176.00000
    65.4345     6235.00000
    65.4476     6210.00000
    65.4608     6181.00000
    65.4739     6028.00000
    65.4870     6069.00000
    65.5002     6062.00000
    65.5133     5840.00000
    65.5264     6013.00000
    65.5396     6006.00000
    65.5527     6047.00000
    65.5658     6077.00000
    65.5790     6125.00000
    65.5921     6030.00000
    65.6052     6017.00000
    65.6183     6144.00000
    65.6315     6023.00000
    65.6446     6048.00000
    65.6577     6080.00000
    65.6709     5998.00000
    65.6840     5991.00000
    65.6971     5957.00000
    65.7103     5853.00000
    65.7234     5994.00000
    65.7365     5973.00000
    65.7496     5855.00000
    65.7628     5855.00000
    65.7759     5988.00000
    65.7890     6090.00000
    65.8022     5864.00000
    65.8153     5883.00000
    65.8284     5972.00000
    65.8416     5960.00000
    65.8547     5951.00000
    65.8678     5850.00000
    65.8810     5910.00000
    65.8941     5829.00000
    65.9072     6029.00000
    65.9203     5990.00000
    65.9335     6000.00000
    65.9466     5920.00000
    65.9597     6073.00000
    65.9729     5910.00000
    65.9860     5765.00000
    65.9991     5861.00000
    66.0123     5896.00000
    66.0254     6094.00000
    66.0385     6043.00000
    66.0516     6046.00000
    66.0648     5912.00000
    66.0779     5933.00000
    66.0910     5883.00000
    66.1042     5953.00000
    66.1173     5882.00000
    66.1304     5887.00000
    66.1436     6198.00000
    66.1567     5887.00000
    66.1698     5937.00000
    66.1829     6129.00000
    66.1961     6128.00000
    66.2092     6084.00000
    66.2223     6013.00000
    66.2355     6132.00000
    66.2486     6022.00000
    66.2617     5985.00000
    66.2749     6105.00000
    66.2880     5931.00000
    66.3011     6101.00000
    66.3142     6107.00000
    66.3274     6162.00000
    66.3405     5938.00000
    66.3536     5996.00000
    66.3668     6093.00000
    66.3799     6045.00000
    66.3930     6085.00000
    66.4062     6008.00000
    66.4193     6077.00000
    66.4324     6111.00000
    66.4455     6228.00000
    66.4587     6126.00000
    66.4718     6187.00000
    66.4849     6234.00000
    66.4981     6324.00000
    66.5112     6223.00000
    66.5243     6123.00000
    66.5375     6044.00000
    66.5506     6188.00000
    66.5637     6089.00000
    66.5769     6090.00000
    66.5900     5961.00000
    66.6031     5845.00000
    66.6162     6044.00000
    66.6294     6247.00000
    66.6425     6173.00000
    66.6556     6197.00000
    66.6688     6022.00000
    66.6819     6031.00000
    66.6950     6053.00000
    66.7082     6027.00000
    66.7213     5768.00000
    66.7344     6128.00000
    66.7476     5980.00000
    66.7607     5927.00000
    66.7738     6019.00000
    66.7869     5940.00000
    66.8001     6023.00000
    66.8132     5923.00000
    66.8263     6055.00000
    66.8395     6071.00000
    66.8526     6087.00000
    66.8657     5970.00000
    66.8789     5800.00000
    66.8920     5841.00000
    66.9051     5964.00000
    66.9182     5942.00000
    66.9314     5926.00000
    66.9445     6070.00000
    66.9576     5850.00000
    66.9708     5938.00000
    66.9839     6080.00000
    66.9970     6104.00000
    67.0102     5910.00000
    67.0233     5838.00000
    67.0364     5944.00000
    67.0495     5982.00000
    67.0627     6174.00000
    67.0758     5907.00000
    67.0889     5773.00000
    67.1021     6037.00000
    67.1152     5969.00000
    67.1283     5910.00000
    67.1415     5946.00000
    67.1546     5980.00000
    67.1677     5790.00000
    67.1808     5984.00000
    67.1940     5925.00000
    67.2071     6059.00000
    67.2202     6010.00000
    67.2334     5927.00000
    67.2465     5956.00000
    67.2596     5855.00000
    67.2728     6325.00000
    67.2859     5933.00000
    67.2990     6064.00000
    67.3121     6058.00000
    67.3253     5911.00000
    67.3384     6088.00000
    67.3515     6053.00000
    67.3647     6139.00000
    67.3778     6155.00000
    67.3909     6128.00000
    67.4041     6229.00000
    67.4172     6182.00000
    67.4303     6101.00000
    67.4435     6094.00000
    67.4566     6099.00000
    67.4697     6058.00000
    67.4828     5896.00000
    67.4960     5841.00000
    67.5091     5896.00000
    67.5222     6088.00000
    67.5354     6185.00000
    67.5485     6051.00000
    67.5616     6140.00000
    67.5748     6097.00000
    67.5879     6086.00000
    67.6010     6181.00000
    67.6142     6041.00000
    67.6273     5969.00000
    67.6404     5959.00000
    67.6535     6097.00000
    67.6667     6115.00000
    67.6798     6110.00000
    67.6929     6167.00000
    67.7061     5970.00000
    67.7192     6047.00000
    67.7323     6125.00000
    67.7455     5889.00000
    67.7586     6173.00000
    67.7717     5923.00000
    67.7848     5967.00000
    67.7980     5959.00000
    67.8111     6057.00000
    67.8242     6030.00000
    67.8374     6064.00000
    67.8505     6168.00000
    67.8636     6126.00000
    67.8768     6068.00000
    67.8899     6166.00000
    67.9030     5954.00000
    67.9161     5992.00000
    67.9293     5842.00000
    67.9424     5924.00000
    67.9555     6002.00000
    67.9687     6193.00000
    67.9818     5890.00000
    67.9949     6114.00000
    68.0081     5919.00000
    68.0212     5902.00000
    68.0343     5824.00000
    68.0474     5947.00000
    68.0606     6017.00000
    68.0737     6031.00000
    68.0868     6253.00000
    68.1000     6059.00000
    68.1131     5963.00000
    68.1262     5880.00000
    68.1394     5968.00000
    68.1525     6068.00000
    68.1656     6170.00000
    68.1787     6022.00000
    68.1919     5850.00000
    68.2050     6176.00000
    68.2181     6110.00000
    68.2313     6114.00000
    68.2444     6135.00000
    68.2575     6012.00000
    68.2707     6008.00000
    68.2838     5930.00000
    68.2969     6035.00000
    68.3101     6045.00000
    68.3232     6068.00000
    68.3363     5952.00000
    68.3494     6084.00000
    68.3626     6120.00000
    68.3757     6072.00000
    68.3888     5935.00000
    68.4020     6024.00000
    68.4151     5970.00000
    68.4282     6079.00000
    68.4414     6122.00000
    68.4545     6347.00000
    68.4676     5940.00000
    68.4807     5962.00000
    68.4939     6015.00000
    68.5070     5950.00000
    68.5201     6058.00000
    68.5333     6072.00000
    68.5464     5891.00000
    68.5595     6108.00000
    68.5727     6015.00000
    68.5858     6076.00000
    68.5989     6114.00000
    68.6120     6073.00000
    68.6252     5999.00000
    68.6383     6057.00000
    68.6514     6034.00000
    68.6646     6096.00000
    68.6777     6099.00000
    68.6908     6073.00000
    68.7040     6197.00000
    68.7171     6098.00000
    68.7302     6201.00000
    68.7434     6282.00000
    68.7565     6519.00000
    68.7696     6471.00000
    68.7827     6355.00000
    68.7959     6575.00000
    68.8090     6689.00000
    68.8221     6714.00000
    68.8353     6769.00000
    68.8484     6841.00000
    68.8615     7087.00000
    68.8747     7236.00000
    68.8878     7082.00000
    68.9009     7102.00000
    68.9140     7280.00000
    68.9272     7470.00000
    68.9403     7519.00000
    68.9534     7205.00000
    68.9666     7048.00000
    68.9797     6858.00000
    68.9928     6721.00000
    69.0060     6556.00000
    69.0191     6499.00000
    69.0322     6566.00000
    69.0453     6588.00000
    69.0585     6566.00000
    69.0716     6696.00000
    69.0847     6839.00000
    69.0979     6817.00000
    69.1110     6834.00000
    69.1241     7072.00000
    69.1373     6830.00000
    69.1504     6877.00000
    69.1635     6927.00000
    69.1767     7137.00000
    69.1898     7318.00000
    69.2029     7605.00000
    69.2160     7905.00000
    69.2292     8117.00000
    69.2423     8450.00000
    69.2554     8362.00000
    69.2686     7680.00000
    69.2817     7591.00000
    69.2948     7270.00000
    69.3080     7352.00000
    69.3211     7225.00000
    69.3342     7586.00000
    69.3473     7496.00000
    69.3605     7723.00000
    69.3736     8003.00000
    69.3867     8211.00000
    69.3999     8439.00000
    69.4130     8330.00000
    69.4261     8315.00000
    69.4393     8150.00000
    69.4524     8258.00000
    69.4655     7770.00000
    69.4786     7903.00000
    69.4918     7916.00000
    69.5049     7804.00000
    69.5180     7594.00000
    69.5312     7522.00000
    69.5443     7309.00000
    69.5574     7195.00000
    69.5706     7122.00000
    69.5837     7133.00000
    69.5968     6965.00000
    69.6099     6911.00000
    69.6231     6875.00000
    69.6362     6657.00000
    69.6493     6491.00000
    69.6625     6603.00000
    69.6756     6692.00000
    69.6887     6759.00000
    69.7019     6605.00000
    69.7150     6641.00000
    69.7281     6577.00000
    69.7413     6546.00000
    69.7544     6676.00000
    69.7675     6512.00000
    69.7806     6684.00000
    69.7938     6902.00000
    69.8069     6956.00000
    69.8200     7341.00000
    69.8332     7685.00000
    69.8463     7893.00000
    69.8594     7765.00000
    69.8726     7524.00000
    69.8857     7210.00000
    69.8988     6947.00000
    69.9119     6712.00000
    69.9251     6495.00000
    69.9382     6473.00000
    69.9513     6337.00000
    69.9645     6446.00000
    69.9776     6564.00000
    69.9907     6401.00000
    70.0039     6547.00000
    70.0170     6745.00000
    70.0301     6750.00000
    70.0433     6844.00000
    70.0564     7076.00000
    70.0695     7014.00000
    70.0826     6799.00000
    70.0958     6524.00000
    70.1089     6506.00000
    70.1220     6425.00000
    70.1352     6411.00000
    70.1483     6301.00000
    70.1614     6329.00000
    70.1746     6387.00000
    70.1877     6237.00000
    70.2008     6212.00000
    70.2139     6168.00000
    70.2271     6245.00000
    70.2402     6303.00000
    70.2533     6248.00000
    70.2665     6107.00000
    70.2796     6164.00000
    70.2927     6165.00000
    70.3059     6201.00000
    70.3190     6175.00000
    70.3321     6148.00000
    70.3452     6040.00000
    70.3584     6065.00000
    70.3715     5933.00000
    70.3846     6065.00000
    70.3978     6059.00000
    70.4109     6244.00000
    70.4240     6109.00000
    70.4372     6232.00000
    70.4503     6096.00000
    70.4634     6211.00000
    70.4765     6360.00000
    70.4897     6372.00000
    70.5028     6442.00000
    70.5159     6562.00000
    70.5291     6530.00000
    70.5422     6792.00000
    70.5553     6679.00000
    70.5685     6611.00000
    70.5816     6546.00000
    70.5947     6512.00000
    70.6078     6612.00000
    70.6210     6557.00000
    70.6341     6683.00000
    70.6472     6486.00000
    70.6604     6723.00000
    70.6735     6990.00000
    70.6866     6677.00000
    70.6998     6690.00000
    70.7129     6725.00000
    70.7260     6900.00000
    70.7392     6766.00000
    70.7523     6785.00000
    70.7654     6565.00000
    70.7785     6474.00000
    70.7917     6563.00000
    70.8048     6307.00000
    70.8179     6367.00000
    70.8311     6357.00000
    70.8442     6309.00000
    70.8573     6271.00000
    70.8705     6522.00000
    70.8836     6426.00000
    70.8967     6534.00000
    70.9099     6427.00000
    70.9230     6497.00000
    70.9361     6334.00000
    70.9492     6237.00000
    70.9624     6129.00000
    70.9755     6175.00000
    70.9886     6196.00000
    71.0018     6019.00000
    71.0149     6101.00000
    71.0280     6117.00000
    71.0412     5999.00000
    71.0543     5983.00000
    71.0674     6078.00000
    71.0805     6069.00000
    71.0937     5865.00000
    71.1068     6094.00000
    71.1199     5995.00000
    71.1331     6052.00000
    71.1462     6005.00000
    71.1593     5877.00000
    71.1725     5837.00000
    71.1856     5886.00000
    71.1987     5886.00000
    71.2118     6104.00000
    71.2250     6001.00000
    71.2381     5873.00000
    71.2512     5912.00000
    71.2644     6033.00000
    71.2775     5964.00000
    71.2906     6055.00000
    71.3038     5987.00000
    71.3169     5870.00000
    71.3300     5917.00000
    71.3431     6046.00000
    71.3563     6017.00000
    71.3694     6112.00000
    71.3825     5907.00000
    71.3957     5976.00000
    71.4088     6116.00000
    71.4219     5988.00000
    71.4351     6081.00000
    71.4482     6232.00000
    71.4613     6190.00000
    71.4744     6245.00000
    71.4876     6118.00000
    71.5007     6239.00000
    71.5138     6146.00000
    71.5270     6067.00000
    71.5401     6140.00000
    71.5532     6029.00000
    71.5664     6292.00000
    71.5795     6105.00000
    71.5926     6296.00000
    71.6058     6259.00000
    71.6189     6344.00000
    71.6320     6396.00000
    71.6451     6458.00000
    71.6583     6390.00000
    71.6714     6562.00000
    71.6845     6544.00000
    71.6977     6361.00000
    71.7108     6289.00000
    71.7239     6369.00000
    71.7371     6349.00000
    71.7502     6416.00000
    71.7633     6511.00000
    71.7764     6428.00000
    71.7896     6406.00000
    71.8027     6690.00000
    71.8158     6785.00000
    71.8290     6849.00000
    71.8421     7157.00000
    71.8552     7467.00000
    71.8684     7769.00000
    71.8815     7843.00000
    71.8946     8078.00000
    71.9078     8293.00000
    71.9209     8489.00000
    71.9340     8415.00000
    71.9471     8236.00000
    71.9603     8011.00000
    71.9734     7568.00000
    71.9865     7404.00000
    71.9997     7088.00000
    72.0128     6889.00000
    72.0259     6798.00000
    72.0391     6727.00000
    72.0522     6919.00000
    72.0653     6900.00000
    72.0784     6951.00000
    72.0916     7048.00000
    72.1047     7255.00000
    72.1178     7185.00000
    72.1310     7256.00000
    72.1441     7254.00000
    72.1572     7097.00000
    72.1704     6835.00000
    72.1835     6648.00000
    72.1966     6527.00000
    72.2097     6374.00000
    72.2229     6370.00000
    72.2360     6196.00000
    72.2491     6088.00000
    72.2623     6323.00000
    72.2754     6157.00000
    72.2885     6161.00000
    72.3017     6030.00000
    72.3148     6220.00000
    72.3279     6109.00000
    72.3410     5936.00000
    72.3542     6088.00000
    72.3673     6283.00000
    72.3804     6185.00000
    72.3936     6002.00000
    72.4067     5994.00000
    72.4198     5994.00000
    72.4330     6133.00000
    72.4461     6026.00000
    72.4592     6129.00000
    72.4724     6124.00000
    72.4855     6158.00000
    72.4986     6128.00000
    72.5117     6185.00000
    72.5249     6180.00000
    72.5380     6596.00000
    72.5511     6666.00000
    72.5643     6790.00000
    72.5774     6660.00000
    72.5905     6447.00000
    72.6037     6534.00000
    72.6168     6430.00000
    72.6299     6041.00000
    72.6430     6247.00000
    72.6562     6281.00000
    72.6693     6060.00000
    72.6824     6079.00000
    72.6956     6138.00000
    72.7087     6058.00000
    72.7218     6194.00000
    72.7350     6348.00000
    72.7481     6284.00000
    72.7612     6366.00000
    72.7743     6393.00000
    72.7875     6193.00000
    72.8006     6319.00000
    72.8137     6257.00000
    72.8269     6179.00000
    72.8400     6041.00000
    72.8531     6081.00000
    72.8663     6081.00000
    72.8794     6051.00000
    72.8925     6060.00000
    72.9057     6212.00000
    72.9188     6110.00000
    72.9319     6318.00000
    72.9450     6290.00000
    72.9582     6281.00000
    72.9713     6146.00000
    72.9844     6229.00000
    72.9976     6228.00000
    73.0107     6208.00000
    73.0238     6204.00000
    73.0370     6112.00000
    73.0501     6224.00000
    73.0632     6318.00000
    73.0763     6012.00000
    73.0895     6058.00000
    73.1026     6235.00000
    73.1157     6184.00000
    73.1289     6429.00000
    73.1420     6606.00000
    73.1551     6551.00000
    73.1683     6630.00000
    73.1814     6729.00000
    73.1945     6753.00000
    73.2076     7101.00000
    73.2208     6962.00000
    73.2339     7050.00000
    73.2470     7197.00000
    73.2602     7159.00000
    73.2733     7285.00000
    73.2864     7391.00000
    73.2996     7047.00000
    73.3127     6808.00000
    73.3258     6763.00000
    73.3390     6677.00000
    73.3521     6381.00000
    73.3652     6365.00000
    73.3783     6237.00000
    73.3915     6299.00000
    73.4046     6541.00000
    73.4177     6419.00000
    73.4309     6542.00000
    73.4440     6524.00000
    73.4571     6618.00000
    73.4703     6678.00000
    73.4834     6621.00000
    73.4965     6683.00000
    73.5096     6637.00000
    73.5228     6515.00000
    73.5359     6452.00000
    73.5490     6547.00000
    73.5622     6223.00000
    73.5753     6250.00000
    73.5884     6196.00000
    73.6016     6076.00000
    73.6147     6168.00000
    73.6278     6188.00000
    73.6409     5913.00000
    73.6541     5959.00000
    73.6672     5872.00000
    73.6803     5946.00000
    73.6935     6017.00000
    73.7066     6034.00000
    73.7197     6042.00000
    73.7329     6080.00000
    73.7460     6154.00000
    73.7591     6131.00000
    73.7722     6136.00000
    73.7854     6158.00000
    73.7985     6177.00000
    73.8116     6330.00000
    73.8248     6281.00000
    73.8379     6329.00000
    73.8510     6194.00000
    73.8642     6101.00000
    73.8773     6006.00000
    73.8904     5997.00000
    73.9035     6184.00000
    73.9167     6127.00000
    73.9298     6227.00000
    73.9429     6225.00000
    73.9561     6126.00000
    73.9692     6160.00000
    73.9823     6214.00000
    73.9955     6334.00000
    74.0086     6567.00000
    74.0217     6722.00000
    74.0349     6756.00000
    74.0480     6873.00000
    74.0611     6779.00000
    74.0742     6974.00000
    74.0874     6958.00000
    74.1005     6841.00000
    74.1136     6781.00000
    74.1268     6885.00000
    74.1399     6831.00000
    74.1530     7050.00000
    74.1662     7106.00000
    74.1793     7164.00000
    74.1924     7208.00000
    74.2056     7483.00000
    74.2187     7279.00000
    74.2318     7009.00000
    74.2449     7109.00000
    74.2581     6999.00000
    74.2712     7046.00000
    74.2843     7006.00000
    74.2975     6885.00000
    74.3106     6987.00000
    74.3237     6910.00000
    74.3369     7000.00000
    74.3500     6787.00000
    74.3631     7081.00000
    74.3762     6937.00000
    74.3894     6902.00000
    74.4025     6801.00000
    74.4156     6781.00000
    74.4288     6666.00000
    74.4419     6510.00000
    74.4550     6463.00000
    74.4682     6282.00000
    74.4813     6435.00000
    74.4944     6220.00000
    74.5075     6352.00000
    74.5207     6317.00000
    74.5338     6337.00000
    74.5469     6387.00000
    74.5601     6389.00000
    74.5732     6531.00000
    74.5863     6219.00000
    74.5995     6256.00000
    74.6126     6200.00000
    74.6257     6008.00000
    74.6388     6038.00000
    74.6520     5955.00000
    74.6651     6089.00000
    74.6782     6228.00000
    74.6914     6134.00000
    74.7045     6123.00000
    74.7176     6174.00000
    74.7308     6091.00000
    74.7439     6018.00000
    74.7570     5879.00000
    74.7701     5856.00000
    74.7833     5913.00000
    74.7964     5981.00000
    74.8095     5984.00000
    74.8227     6001.00000
    74.8358     6083.00000
    74.8489     6179.00000
    74.8621     6231.00000
    74.8752     6144.00000
    74.8883     6145.00000
    74.9015     6172.00000
    74.9146     6122.00000
    74.9277     6182.00000
    74.9408     5939.00000
    74.9540     6028.00000
    74.9671     5944.00000
    74.9802     5901.00000
    74.9934     5995.00000
    75.0065     5864.00000
    75.0196     5821.00000
    75.0328     5888.00000
    75.0459     5952.00000
    75.0590     5798.00000
    75.0722     6099.00000
    75.0853     6027.00000
    75.0984     6185.00000
    75.1115     6076.00000
    75.1247     5689.00000
    75.1378     6121.00000
    75.1509     5921.00000
    75.1641     6093.00000
    75.1772     5903.00000
    75.1903     6001.00000
    75.2035     5798.00000
    75.2166     5861.00000
    75.2297     5950.00000
    75.2428     5953.00000
    75.2560     5782.00000
    75.2691     5855.00000
    75.2822     5838.00000
    75.2954     5762.00000
    75.3085     5899.00000
    75.3216     5878.00000
    75.3348     5987.00000
    75.3479     5952.00000
    75.3610     5809.00000
    75.3741     5860.00000
    75.3873     5897.00000
    75.4004     6059.00000
    75.4135     6007.00000
    75.4267     5932.00000
    75.4398     5835.00000
    75.4529     5992.00000
    75.4661     5881.00000
    75.4792     5808.00000
    75.4923     5909.00000
    75.5054     5945.00000
    75.5186     5923.00000
    75.5317     5881.00000
    75.5448     5754.00000
    75.5580     6035.00000
    75.5711     5870.00000
    75.5842     5876.00000
    75.5974     6028.00000
    75.6105     5998.00000
    75.6236     5832.00000
    75.6367     6056.00000
    75.6499     5934.00000
    75.6630     6114.00000
    75.6761     6122.00000
    75.6893     6045.00000
    75.7024     6119.00000
    75.7155     6211.00000
    75.7287     6400.00000
    75.7418     6478.00000
    75.7549     6413.00000
    75.7681     6416.00000
    75.7812     6229.00000
    75.7943     6287.00000
    75.8074     6027.00000
    75.8206     5993.00000
    75.8337     6107.00000
    75.8468     6091.00000
    75.8600     6070.00000
    75.8731     6080.00000
    75.8862     6028.00000
    75.8994     5920.00000
    75.9125     5998.00000
    75.9256     6244.00000
    75.9387     6338.00000
    75.9519     6149.00000
    75.9650     5921.00000
    75.9781     5976.00000
    75.9913     6102.00000
    76.0044     6179.00000
    76.0175     5892.00000
    76.0307     6004.00000
    76.0438     6047.00000
    76.0569     5903.00000
    76.0701     5822.00000
    76.0832     5933.00000
    76.0963     6024.00000
    76.1094     5933.00000
    76.1226     6029.00000
    76.1357     6027.00000
    76.1488     5768.00000
    76.1620     5921.00000
    76.1751     6053.00000
    76.1882     5918.00000
    76.2014     5933.00000
    76.2145     5871.00000
    76.2276     5927.00000
    76.2407     6032.00000
    76.2539     5966.00000
    76.2670     5895.00000
    76.2801     5967.00000
    76.2933     5955.00000
    76.3064     5876.00000
    76.3195     5969.00000
    76.3327     5845.00000
    76.3458     5856.00000
    76.3589     5878.00000
    76.3720     6091.00000
    76.3852     6015.00000
    76.3983     6184.00000
    76.4114     6208.00000
    76.4246     6478.00000
    76.4377     6301.00000
    76.4508     6220.00000
    76.4640     6249.00000
    76.4771     6337.00000
    76.4902     6237.00000
    76.5033     6200.00000
    76.5165     6379.00000
    76.5296     6304.00000
    76.5427     6229.00000
    76.5559     6399.00000
    76.5690     6449.00000
    76.5821     6221.00000
    76.5953     6424.00000
    76.6084     6682.00000
    76.6215     6658.00000
    76.6347     6729.00000
    76.6478     6820.00000
    76.6609     7053.00000
    76.6740     7003.00000
    76.6872     7114.00000
    76.7003     7273.00000
    76.7134     7261.00000
    76.7266     7226.00000
    76.7397     7107.00000
    76.7528     6951.00000
    76.7660     6831.00000
    76.7791     6811.00000
    76.7922     6743.00000
    76.8053     6503.00000
    76.8185     6662.00000
    76.8316     6933.00000
    76.8447     7008.00000
    76.8579     7211.00000
    76.8710     7514.00000
    76.8841     7693.00000
    76.8973     7723.00000
    76.9104     7487.00000
    76.9235     7285.00000
    76.9366     7249.00000
    76.9498     6865.00000
    76.9629     6675.00000
    76.9760     6619.00000
    76.9892     6547.00000
    77.0023     6259.00000
    77.0154     6288.00000
    77.0286     6138.00000
    77.0417     6229.00000
    77.0548     6306.00000
    77.0679     6303.00000
    77.0811     6515.00000
    77.0942     6696.00000
    77.1073     6755.00000
    77.1205     6844.00000
    77.1336     6800.00000
    77.1467     6516.00000
    77.1599     6360.00000
    77.1730     6181.00000
    77.1861     6407.00000
    77.1993     6232.00000
    77.2124     6116.00000
    77.2255     6154.00000
    77.2386     6160.00000
    77.2518     6380.00000
    77.2649     6282.00000
    77.2780     6122.00000
    77.2912     6202.00000
    77.3043     6067.00000
    77.3174     5999.00000
    77.3306     6084.00000
    77.3437     5975.00000
    77.3568     6061.00000
    77.3699     5957.00000
    77.3831     5887.00000
    77.3962     6115.00000
    77.4093     5960.00000
    77.4225     6193.00000
    77.4356     6371.00000
    77.4487     6441.00000
    77.4619     6733.00000
    77.4750     6724.00000
    77.4881     6912.00000
    77.5013     7112.00000
    77.5144     7235.00000
    77.5275     7125.00000
    77.5406     6936.00000
    77.5538     6767.00000
    77.5669     6482.00000
    77.5800     6236.00000
    77.5932     6085.00000
    77.6063     6139.00000
    77.6194     6228.00000
    77.6326     6094.00000
    77.6457     5979.00000
    77.6588     6189.00000
    77.6719     6156.00000
    77.6851     6318.00000
    77.6982     6314.00000
    77.7113     6317.00000
    77.7245     6373.00000
    77.7376     6571.00000
    77.7507     6609.00000
    77.7639     6480.00000
    77.7770     6487.00000
    77.7901     6034.00000
    77.8032     6084.00000
    77.8164     6145.00000
    77.8295     5987.00000
    77.8426     5858.00000
    77.8558     5786.00000
    77.8689     6011.00000
    77.8820     6056.00000
    77.8952     6006.00000
    77.9083     5937.00000
    77.9214     5785.00000
    77.9345     5830.00000
    77.9477     5807.00000
    77.9608     5868.00000
    77.9739     5971.00000
    77.9871     5952.00000
    78.0002     5822.00000
    78.0133     5817.00000
    78.0265     5839.00000
    78.0396     5931.00000
    78.0527     5939.00000
    78.0658     5899.00000
    78.0790     5834.00000
    78.0921     5612.00000
    78.1052     5682.00000
    78.1184     5893.00000
    78.1315     5903.00000
    78.1446     6031.00000
    78.1578     5843.00000
    78.1709     5760.00000
    78.1840     5811.00000
    78.1972     5888.00000
    78.2103     5904.00000
    78.2234     5834.00000
    78.2365     5918.00000
    78.2497     5893.00000
    78.2628     5950.00000
    78.2759     5986.00000
    78.2891     6062.00000
    78.3022     6012.00000
    78.3153     5882.00000
    78.3285     5795.00000
    78.3416     5869.00000
    78.3547     5959.00000
    78.3679     5885.00000
    78.3810     5877.00000
    78.3941     5934.00000
    78.4072     6004.00000
    78.4204     5887.00000
    78.4335     5833.00000
    78.4466     5769.00000
    78.4598     5779.00000
    78.4729     5923.00000
    78.4860     5917.00000
    78.4992     5987.00000
    78.5123     6089.00000
    78.5254     5943.00000
    78.5385     5892.00000
    78.5517     5893.00000
    78.5648     6089.00000
    78.5779     6055.00000
    78.5911     6050.00000
    78.6042     5988.00000
    78.6173     6121.00000
    78.6305     6053.00000
    78.6436     5968.00000
    78.6567     6125.00000
    78.6698     5911.00000
    78.6830     6090.00000
    78.6961     5975.00000
    78.7092     5953.00000
    78.7224     6231.00000
    78.7355     6036.00000
    78.7486     6056.00000
    78.7618     6152.00000
    78.7749     6169.00000
    78.7880     6338.00000
    78.8011     6409.00000
    78.8143     6277.00000
    78.8274     6299.00000
    78.8405     6550.00000
    78.8537     6514.00000
    78.8668     6429.00000
    78.8799     6797.00000
    78.8931     6819.00000
    78.9062     6885.00000
    78.9193     6878.00000
    78.9324     7005.00000
    78.9456     6955.00000
    78.9587     6992.00000
    78.9718     7025.00000
    78.9850     7055.00000
    78.9981     6783.00000
    79.0112     6817.00000
    79.0244     6653.00000
    79.0375     6718.00000
    79.0506     6469.00000
    79.0638     6506.00000
    79.0769     6537.00000
    79.0900     6598.00000
    79.1031     6597.00000
    79.1163     6634.00000
    79.1294     6581.00000
    79.1425     6564.00000
    79.1557     6659.00000
    79.1688     6660.00000
    79.1819     6747.00000
    79.1951     6753.00000
    79.2082     6679.00000
    79.2213     6673.00000
    79.2345     6634.00000
    79.2476     6701.00000
    79.2607     6310.00000
    79.2738     6428.00000
    79.2870     6321.00000
    79.3001     6215.00000
    79.3132     6038.00000
    79.3264     6005.00000
    79.3395     6328.00000
    79.3526     6114.00000
    79.3658     6101.00000
    79.3789     6025.00000
    79.3920     6233.00000
    79.4051     6188.00000
    79.4183     6027.00000
    79.4314     6226.00000
    79.4445     6220.00000
    79.4577     6213.00000
    79.4708     6190.00000
    79.4839     6110.00000
    79.4971     6317.00000
    79.5102     6255.00000
    79.5233     6174.00000
    79.5364     6252.00000
    79.5496     6166.00000
    79.5627     6180.00000
    79.5758     6412.00000
    79.5890     6534.00000
    79.6021     6643.00000
    79.6152     6758.00000
    79.6284     6867.00000
    79.6415     6882.00000
    79.6546     6908.00000
    79.6677     6904.00000
    79.6809     6639.00000
    79.6940     6855.00000
    79.7071     6556.00000
    79.7203     6506.00000
    79.7334     6403.00000
    79.7465     6438.00000
    79.7597     6427.00000
    79.7728     6448.00000
    79.7859     6516.00000
    79.7990     6544.00000
    79.8122     6718.00000
    79.8253     6670.00000
    79.8384     6843.00000
    79.8516     6997.00000
    79.8647     6961.00000
    79.8778     7056.00000
    79.8910     6934.00000
    79.9041     6892.00000
    79.9172     6779.00000
    79.9304     6497.00000
    79.9435     6573.00000
    79.9566     6391.00000
    79.9697     6292.00000
    79.9829     6181.00000
    79.9960     6210.00000
    80.0091     6352.00000
    80.0223     6394.00000
    80.0354     6305.00000
    80.0485     6121.00000
    80.0617     6261.00000
    80.0748     6254.00000
    80.0879     6323.00000
    80.1010     6281.00000
    80.1142     6317.00000
    80.1273     6145.00000
    80.1404     6022.00000
    80.1536     6130.00000
    80.1667     6105.00000
    80.1798     6036.00000
    80.1930     6108.00000
    80.2061     6008.00000
    80.2192     6100.00000
    80.2323     5863.00000
    80.2455     6040.00000
    80.2586     5961.00000
    80.2717     6175.00000
    80.2849     6018.00000
    80.2980     6110.00000
    80.3111     5990.00000
    80.3243     5894.00000
    80.3374     6083.00000
    80.3505     6155.00000
    80.3637     6010.00000
    80.3768     6141.00000
    80.3899     5978.00000
    80.4030     6032.00000
    80.4162     6068.00000
    80.4293     6006.00000
    80.4424     6029.00000
    80.4556     6177.00000
    80.4687     6304.00000
    80.4818     6128.00000
    80.4950     6422.00000
    80.5081     6291.00000
    80.5212     6603.00000
    80.5343     6798.00000
    80.5475     7064.00000
    80.5606     7147.00000
    80.5737     7098.00000
    80.5869     7004.00000
    80.6000     7053.00000
    80.6131     6991.00000
    80.6263     6879.00000
    80.6394     6770.00000
    80.6525     6661.00000
    80.6656     6679.00000
    80.6788     6769.00000
    80.6919     6648.00000
    80.7050     6814.00000
    80.7182     6716.00000
    80.7313     6850.00000
    80.7444     6722.00000
    80.7576     6841.00000
    80.7707     7035.00000
    80.7838     6936.00000
    80.7970     6823.00000
    80.8101     6645.00000
    80.8232     6617.00000
    80.8363     6701.00000
    80.8495     6826.00000
    80.8626     6576.00000
    80.8757     6418.00000
    80.8889     6552.00000
    80.9020     6480.00000
    80.9151     6334.00000
    80.9283     6105.00000
    80.9414     6443.00000
    80.9545     6410.00000
    80.9676     6320.00000
    80.9808     6309.00000
    80.9939     6053.00000
    81.0070     6105.00000
    81.0202     6373.00000
    81.0333     6319.00000
    81.0464     6219.00000
    81.0596     6201.00000
    81.0727     6265.00000
    81.0858     6568.00000
    81.0989     6522.00000
    81.1121     6710.00000
    81.1252     6610.00000
    81.1383     6451.00000
    81.1515     6293.00000
    81.1646     6335.00000
    81.1777     6363.00000
    81.1909     6220.00000
    81.2040     6388.00000
    81.2171     6349.00000
    81.2302     6435.00000
    81.2434     6288.00000
    81.2565     6415.00000
    81.2696     6339.00000
    81.2828     6308.00000
    81.2959     6530.00000
    81.3090     6579.00000
    81.3222     6748.00000
    81.3353     6695.00000
    81.3484     6728.00000
    81.3616     6716.00000
    81.3747     6911.00000
    81.3878     6932.00000
    81.4009     6802.00000
    81.4141     6851.00000
    81.4272     6742.00000
    81.4403     6705.00000
    81.4535     6485.00000
    81.4666     6253.00000
    81.4797     6365.00000
    81.4929     6365.00000
    81.5060     6176.00000
    81.5191     6209.00000
    81.5322     6250.00000
    81.5454     6271.00000
    81.5585     6454.00000
    81.5716     6378.00000
    81.5848     6380.00000
    81.5979     6324.00000
    81.6110     6380.00000
    81.6242     6302.00000
    81.6373     6427.00000
    81.6504     6129.00000
    81.6636     6160.00000
    81.6767     6160.00000
    81.6898     6129.00000
    81.7029     6144.00000
    81.7161     6068.00000
    81.7292     6178.00000
    81.7423     6230.00000
    81.7555     6099.00000
    81.7686     6199.00000
    81.7817     5953.00000
    81.7949     6028.00000
    81.8080     6092.00000
    81.8211     6017.00000
    81.8342     6087.00000
    81.8474     6165.00000
    81.8605     6007.00000
    81.8736     5866.00000
    81.8868     5992.00000
    81.8999     5806.00000
    81.9130     5980.00000
    81.9262     6045.00000
    81.9393     5966.00000
    81.9524     5862.00000
    81.9655     5974.00000
    81.9787     6026.00000
    81.9918     5893.00000
    82.0049     5946.00000
    82.0181     5873.00000
    82.0312     5870.00000
    82.0443     6100.00000
    82.0575     6057.00000
    82.0706     6329.00000
    82.0837     6051.00000
    82.0968     6069.00000
    82.1100     6118.00000
    82.1231     6253.00000
    82.1362     6241.00000
    82.1494     6324.00000
    82.1625     6301.00000
    82.1756     6424.00000
    82.1888     6361.00000
    82.2019     6353.00000
    82.2150     6449.00000
    82.2281     6261.00000
    82.2413     6317.00000
    82.2544     6293.00000
    82.2675     6216.00000
    82.2807     6238.00000
    82.2938     5955.00000
    82.3069     6011.00000
    82.3201     5988.00000
    82.3332     6027.00000
    82.3463     6178.00000
    82.3595     6050.00000
    82.3726     6503.00000
    82.3857     6293.00000
    82.3988     6428.00000
    82.4120     6340.00000
    82.4251     6125.00000
    82.4382     6243.00000
    82.4514     6577.00000
    82.4645     6451.00000
    82.4776     6493.00000
    82.4908     6329.00000
    82.5039     6435.00000
    82.5170     6302.00000
    82.5302     6367.00000
    82.5433     6062.00000
    82.5564     6237.00000
    82.5695     6126.00000
    82.5827     6038.00000
    82.5958     6032.00000
    82.6089     6017.00000
    82.6221     5924.00000
    82.6352     6184.00000
    82.6483     6037.00000
    82.6615     5939.00000
    82.6746     6142.00000
    82.6877     6041.00000
    82.7008     6036.00000
    82.7140     6221.00000
    82.7271     5914.00000
    82.7402     5949.00000
    82.7534     6036.00000
    82.7665     5972.00000
    82.7796     6029.00000
    82.7928     6060.00000
    82.8059     6167.00000
    82.8190     6103.00000
    82.8321     6081.00000
    82.8453     6200.00000
    82.8584     6147.00000
    82.8715     6159.00000
    82.8847     6193.00000
    82.8978     6244.00000
    82.9109     6197.00000
    82.9241     6262.00000
    82.9372     6187.00000
    82.9503     6477.00000
    82.9634     6422.00000
    82.9766     6456.00000
    82.9897     6484.00000
    83.0028     6414.00000
    83.0160     6259.00000
    83.0291     6081.00000
    83.0422     6078.00000
    83.0554     5992.00000
    83.0685     6122.00000
    83.0816     6062.00000
    83.0947     6023.00000
    83.1079     6078.00000
    83.1210     6106.00000
    83.1341     5835.00000
    83.1473     5986.00000
    83.1604     6013.00000
    83.1735     6126.00000
    83.1867     6211.00000
    83.1998     6131.00000
    83.2129     6096.00000
    83.2261     6151.00000
    83.2392     6119.00000
    83.2523     6172.00000
    83.2654     6119.00000
    83.2786     5966.00000
    83.2917     6096.00000
    83.3048     6006.00000
    83.3180     6093.00000
    83.3311     5869.00000
    83.3442     5929.00000
    83.3574     5944.00000
    83.3705     5750.00000
    83.3836     5961.00000
    83.3967     6000.00000
    83.4099     5881.00000
    83.4230     5667.00000
    83.4361     5808.00000
    83.4493     5849.00000
    83.4624     5829.00000
    83.4755     5756.00000
    83.4887     5885.00000
    83.5018     5912.00000
    83.5149     5766.00000
    83.5281     5870.00000
    83.5412     5793.00000
    83.5543     5872.00000
    83.5674     5967.00000
    83.5806     5734.00000
    83.5937     5719.00000
    83.6068     5874.00000
    83.6200     5783.00000
    83.6331     5812.00000
    83.6462     5884.00000
    83.6594     5867.00000
    83.6725     5724.00000
    83.6856     5704.00000
    83.6987     5796.00000
    83.7119     5879.00000
    83.7250     5889.00000
    83.7381     5793.00000
    83.7513     5779.00000
    83.7644     5761.00000
    83.7775     5849.00000
    83.7907     5809.00000
    83.8038     5898.00000
    83.8169     5987.00000
    83.8300     5873.00000
    83.8432     5884.00000
    83.8563     5862.00000
    83.8694     5759.00000
    83.8826     5718.00000
    83.8957     5943.00000
    83.9088     5782.00000
    83.9220     5738.00000
    83.9351     5797.00000
    83.9482     6000.00000
    83.9613     5674.00000
    83.9745     5697.00000
    83.9876     5758.00000
    84.0007     5876.00000
    84.0139     5885.00000
    84.0270     5985.00000
    84.0401     5862.00000
    84.0533     5801.00000
    84.0664     5631.00000
    84.0795     5810.00000
    84.0927     5817.00000
    84.1058     5902.00000
    84.1189     5843.00000
    84.1320     5923.00000
    84.1452     5862.00000
    84.1583     6020.00000
    84.1714     6029.00000
    84.1846     5963.00000
    84.1977     5996.00000
    84.2108     6194.00000
    84.2240     5980.00000
    84.2371     6075.00000
    84.2502     6089.00000
    84.2633     5837.00000
    84.2765     5896.00000
    84.2896     6107.00000
    84.3027     5914.00000
    84.3159     5947.00000
    84.3290     6006.00000
    84.3421     5983.00000
    84.3553     5934.00000
    84.3684     5944.00000
    84.3815     6011.00000
    84.3946     6078.00000
    84.4078     6165.00000
    84.4209     6195.00000
    84.4340     6237.00000
    84.4472     6312.00000
    84.4603     6287.00000
    84.4734     6174.00000
    84.4866     6371.00000
    84.4997     6366.00000
    84.5128     6330.00000
    84.5260     6426.00000
    84.5391     6409.00000
    84.5522     6275.00000
    84.5653     6417.00000
    84.5785     6341.00000
    84.5916     6363.00000
    84.6047     6302.00000
    84.6179     6415.00000
    84.6310     6418.00000
    84.6441     6282.00000
    84.6573     6088.00000
    84.6704     6207.00000
    84.6835     6249.00000
    84.6966     6054.00000
    84.7098     6146.00000
    84.7229     6077.00000
    84.7360     6120.00000
    84.7492     6054.00000
    84.7623     6033.00000
    84.7754     5917.00000
    84.7886     6106.00000
    84.8017     5945.00000
    84.8148     6141.00000
    84.8279     6129.00000
    84.8411     6008.00000
    84.8542     5995.00000
    84.8673     5929.00000
    84.8805     5925.00000
    84.8936     5955.00000
    84.9067     5902.00000
    84.9199     5915.00000
    84.9330     6085.00000
    84.9461     5981.00000
    84.9593     6019.00000
    84.9724     5977.00000
    84.9855     5819.00000
    84.9986     5870.00000
    85.0118     5947.00000
    85.0249     6067.00000
    85.0380     5911.00000
    85.0512     5815.00000
    85.0643     5837.00000
    85.0774     5702.00000
    85.0906     5691.00000
    85.1037     5721.00000
    85.1168     5745.00000
    85.1299     5966.00000
    85.1431     5817.00000
    85.1562     5830.00000
    85.1693     5873.00000
    85.1825     5949.00000
    85.1956     5823.00000
    85.2087     5952.00000
    85.2219     5979.00000
    85.2350     5922.00000
    85.2481     5974.00000
    85.2612     5906.00000
    85.2744     5989.00000
    85.2875     6196.00000
    85.3006     5891.00000
    85.3138     5950.00000
    85.3269     6061.00000
    85.3400     5842.00000
    85.3532     5923.00000
    85.3663     5908.00000
    85.3794     5792.00000
    85.3925     5782.00000
    85.4057     5884.00000
    85.4188     5778.00000
    85.4319     5994.00000
    85.4451     5893.00000
    85.4582     5973.00000
    85.4713     5947.00000
    85.4845     5821.00000
    85.4976     5792.00000
    85.5107     5767.00000
    85.5238     5841.00000
    85.5370     5828.00000
    85.5501     6046.00000
    85.5632     5965.00000
    85.5764     5738.00000
    85.5895     5922.00000
    85.6026     5848.00000
    85.6158     5892.00000
    85.6289     5990.00000
    85.6420     5852.00000
    85.6552     5835.00000
    85.6683     6009.00000
    85.6814     6012.00000
    85.6945     6143.00000
    85.7077     6123.00000
    85.7208     6027.00000
    85.7339     6143.00000
    85.7471     6161.00000
    85.7602     6146.00000
    85.7733     6161.00000
    85.7865     5975.00000
    85.7996     5955.00000
    85.8127     6036.00000
    85.8259     5991.00000
    85.8390     6009.00000
    85.8521     5903.00000
    85.8652     5973.00000
    85.8784     5793.00000
    85.8915     6085.00000
    85.9046     5886.00000
    85.9178     5936.00000
    85.9309     6024.00000
    85.9440     6014.00000
    85.9572     5953.00000
    85.9703     6124.00000
    85.9834     6159.00000
    85.9965     6057.00000
    86.0097     5989.00000
    86.0228     5957.00000
    86.0359     5802.00000
    86.0491     5847.00000
    86.0622     5630.00000
    86.0753     5901.00000
    86.0885     5822.00000
    86.1016     5797.00000
    86.1147     5871.00000
    86.1278     5843.00000
    86.1410     6018.00000
    86.1541     6059.00000
    86.1672     5965.00000
    86.1804     5979.00000
    86.1935     5785.00000
    86.2066     6017.00000
    86.2198     5985.00000
    86.2329     6191.00000
    86.2460     6065.00000
    86.2591     6132.00000
    86.2723     5999.00000
    86.2854     5873.00000
    86.2985     6014.00000
    86.3117     5970.00000
    86.3248     5802.00000
    86.3379     5941.00000
    86.3511     5903.00000
    86.3642     6054.00000
    86.3773     6040.00000
    86.3904     6018.00000
    86.4036     6193.00000
    86.4167     6081.00000
    86.4298     6130.00000
    86.4430     6048.00000
    86.4561     6091.00000
    86.4692     6206.00000
    86.4824     6179.00000
    86.4955     6167.00000
    86.5086     6164.00000
    86.5218     6296.00000
    86.5349     6192.00000
    86.5480     6325.00000
    86.5611     6192.00000
    86.5743     6238.00000
    86.5874     5995.00000
    86.6005     6063.00000
    86.6137     6108.00000
    86.6268     5974.00000
    86.6399     6138.00000
    86.6531     6286.00000
    86.6662     6142.00000
    86.6793     6378.00000
    86.6925     6236.00000
    86.7056     6359.00000
    86.7187     6574.00000
    86.7318     6819.00000
    86.7450     7119.00000
    86.7581     7198.00000
    86.7712     7398.00000
    86.7844     7264.00000
    86.7975     7016.00000
    86.8106     6888.00000
    86.8238     6952.00000
    86.8369     6777.00000
    86.8500     6610.00000
    86.8631     6491.00000
    86.8763     6430.00000
    86.8894     6445.00000
    86.9025     6520.00000
    86.9157     6403.00000
    86.9288     6544.00000
    86.9419     6447.00000
    86.9551     6606.00000
    86.9682     6775.00000
    86.9813     6669.00000
    86.9944     6795.00000
    87.0076     6979.00000
    87.0207     6776.00000
    87.0338     6832.00000
    87.0470     6802.00000
    87.0601     6742.00000
    87.0732     6848.00000
    87.0864     6737.00000
    87.0995     6606.00000
    87.1126     6548.00000
    87.1257     6560.00000
    87.1389     6393.00000
    87.1520     6391.00000
    87.1651     6246.00000
    87.1783     6279.00000
    87.1914     6264.00000
    87.2045     6105.00000
    87.2177     6102.00000
    87.2308     6191.00000
    87.2439     6272.00000
    87.2570     6205.00000
    87.2702     6185.00000
    87.2833     6108.00000
    87.2964     6059.00000
    87.3096     6065.00000
    87.3227     6028.00000
    87.3358     6208.00000
    87.3490     6007.00000
    87.3621     5954.00000
    87.3752     6036.00000
    87.3884     6143.00000
    87.4015     6049.00000
    87.4146     5988.00000
    87.4277     5919.00000
    87.4409     5943.00000
    87.4540     5946.00000
    87.4671     5892.00000
    87.4803     5935.00000
    87.4934     5866.00000
    87.5065     6054.00000
    87.5197     5960.00000
    87.5328     5914.00000
    87.5459     5860.00000
    87.5590     5821.00000
    87.5722     5900.00000
    87.5853     5810.00000
    87.5984     5936.00000
    87.6116     5962.00000
    87.6247     5926.00000
    87.6378     5973.00000
    87.6510     6203.00000
    87.6641     6151.00000
    87.6772     6110.00000
    87.6904     6044.00000
    87.7035     6037.00000
    87.7166     6089.00000
    87.7297     5890.00000
    87.7429     5913.00000
    87.7560     6361.00000
    87.7691     6146.00000
    87.7823     6042.00000
    87.7954     6161.00000
    87.8085     6150.00000
    87.8217     6172.00000
    87.8348     6108.00000
    87.8479     6143.00000
    87.8610     6157.00000
    87.8742     6295.00000
    87.8873     6397.00000
    87.9004     6320.00000
    87.9136     6429.00000
    87.9267     6325.00000
    87.9398     6349.00000
    87.9530     6532.00000
    87.9661     6446.00000
    87.9792     6457.00000
    87.9923     6372.00000
    88.0055     6364.00000
    88.0186     6394.00000
    88.0317     6525.00000
    88.0449     6476.00000
    88.0580     6351.00000
    88.0711     6216.00000
    88.0843     6157.00000
    88.0974     6134.00000
    88.1105     6003.00000
    88.1236     6200.00000
    88.1368     6064.00000
    88.1499     6045.00000
    88.1630     6228.00000
    88.1762     6268.00000
    88.1893     6252.00000
    88.2024     6069.00000
    88.2156     6269.00000
    88.2287     6235.00000
    88.2418     6009.00000
    88.2550     6203.00000
    88.2681     6043.00000
    88.2812     6074.00000
    88.2943     6117.00000
    88.3075     6103.00000
    88.3206     6178.00000
    88.3337     6182.00000
    88.3469     6061.00000
    88.3600     5975.00000
    88.3731     5996.00000
    88.3863     5941.00000
    88.3994     5987.00000
    88.4125     5953.00000
    88.4256     5951.00000
    88.4388     5840.00000
    88.4519     5857.00000
    88.4650     5814.00000
    88.4782     6004.00000
    88.4913     6022.00000
    88.5044     5926.00000
    88.5176     6080.00000
    88.5307     5917.00000
    88.5438     6212.00000
    88.5569     6218.00000
    88.5701     6317.00000
    88.5832     6213.00000
    88.5963     6359.00000
    88.6095     6380.00000
    88.6226     6418.00000
    88.6357     6358.00000
    88.6489     6189.00000
    88.6620     6378.00000
    88.6751     6299.00000
    88.6882     6310.00000
    88.7014     6136.00000
    88.7145     6293.00000
    88.7276     6178.00000
    88.7408     6357.00000
    88.7539     6227.00000
    88.7670     6340.00000
    88.7802     6294.00000
    88.7933     6223.00000
    88.8064     6394.00000
    88.8196     6325.00000
    88.8327     6391.00000
    88.8458     6306.00000
    88.8589     6311.00000
    88.8721     6423.00000
    88.8852     6291.00000
    88.8983     6241.00000
    88.9115     6300.00000
    88.9246     6266.00000
    88.9377     6078.00000
    88.9509     6103.00000
    88.9640     6192.00000
    88.9771     6150.00000
    88.9902     6244.00000
    89.0034     6201.00000
    89.0165     6161.00000
    89.0296     6222.00000
    89.0428     6306.00000
    89.0559     6124.00000
    89.0690     6225.00000
    89.0822     6245.00000
    89.0953     6138.00000
    89.1084     6389.00000
    89.1216     6390.00000
    89.1347     6355.00000
    89.1478     6621.00000
    89.1609     6574.00000
    89.1741     6208.00000
    89.1872     6307.00000
    89.2003     6083.00000
    89.2135     6239.00000
    89.2266     6202.00000
    89.2397     6248.00000
    89.2529     6407.00000
    89.2660     6339.00000
    89.2791     6328.00000
    89.2922     6224.00000
    89.3054     6280.00000
    89.3185     6562.00000
    89.3316     6457.00000
    89.3448     6562.00000
    89.3579     6637.00000
    89.3710     6574.00000
    89.3842     6555.00000
    89.3973     6498.00000
    89.4104     6737.00000
    89.4235     6761.00000
    89.4367     6724.00000
    89.4498     6818.00000
    89.4629     6746.00000
    89.4761     6487.00000
    89.4892     6383.00000
    89.5023     6332.00000
    89.5155     6187.00000
    89.5286     6303.00000
    89.5417     6275.00000
    89.5548     6304.00000
    89.5680     6086.00000
    89.5811     6174.00000
    89.5942     6144.00000
    89.6074     6138.00000
    89.6205     6244.00000
    89.6336     6303.00000
    89.6468     6366.00000
    89.6599     6349.00000
    89.6730     6181.00000
    89.6861     6415.00000
    89.6993     6384.00000
    89.7124     6477.00000
    89.7255     6588.00000
    89.7387     6669.00000
    89.7518     6770.00000
    89.7649     6617.00000
    89.7781     6915.00000
    89.7912     6834.00000
    89.8043     6550.00000
    89.8175     6239.00000
    89.8306     6289.00000
    89.8437     6074.00000
    89.8568     6047.00000
    89.8700     5969.00000
    89.8831     5896.00000
    89.8962     5954.00000
    89.9094     5974.00000
    89.9225     6040.00000
    89.9356     5990.00000
    89.9488     6039.00000
    89.9619     5958.00000
    89.9750     5788.00000
    89.9882     5997.00000
    90.0013     6080.00000
    90.0144     6138.00000
    90.0275     6175.00000
    90.0407     6162.00000
    90.0538     6071.00000
    90.0669     6192.00000
    90.0801     5973.00000
    90.0932     6071.00000
    90.1063     5947.00000
    90.1195     5768.00000
    90.1326     5755.00000
    90.1457     5916.00000
    90.1588     5863.00000
    90.1720     5882.00000
    90.1851     5846.00000
    90.1982     5838.00000
    90.2114     5906.00000
    90.2245     5917.00000
    90.2376     5842.00000
    90.2508     5864.00000
    90.2639     5780.00000
    90.2770     5893.00000
    90.2901     5825.00000
    90.3033     5872.00000
    90.3164     5847.00000
    90.3295     5783.00000
    90.3427     5657.00000
    90.3558     5688.00000
    90.3689     5739.00000
    90.3821     5973.00000
    90.3952     5681.00000
    90.4083     5886.00000
    90.4214     5909.00000
    90.4346     5765.00000
    90.4477     5943.00000
    90.4608     5867.00000
    90.4740     5850.00000
    90.4871     5810.00000
    90.5002     5937.00000
    90.5134     5789.00000
    90.5265     5813.00000
    90.5396     6008.00000
    90.5527     5905.00000
    90.5659     5932.00000
    90.5790     5827.00000
    90.5921     5839.00000
    90.6053     5801.00000
    90.6184     5861.00000
    90.6315     5757.00000
    90.6447     5819.00000
    90.6578     5847.00000
    90.6709     5916.00000
    90.6841     5817.00000
    90.6972     5938.00000
    90.7103     5778.00000
    90.7234     5858.00000
    90.7366     5826.00000
    90.7497     5659.00000
    90.7628     5891.00000
    90.7760     5762.00000
    90.7891     5818.00000
    90.8022     5852.00000
    90.8154     5893.00000
    90.8285     5958.00000
    90.8416     5866.00000
    90.8548     5902.00000
    90.8679     5885.00000
    90.8810     5780.00000
    90.8941     5971.00000
    90.9073     5794.00000
    90.9204     5801.00000
    90.9335     5798.00000
    90.9467     5803.00000
    90.9598     5747.00000
    90.9729     5762.00000
    90.9861     5953.00000
    90.9992     5841.00000
    91.0123     5965.00000
    91.0254     6022.00000
    91.0386     5931.00000
    91.0517     5905.00000
    91.0648     5941.00000
    91.0780     5965.00000
    91.0911     6025.00000
    91.1042     5936.00000
    91.1174     6010.00000
    91.1305     6298.00000
    91.1436     6142.00000
    91.1567     6224.00000
    91.1699     6140.00000
    91.1830     6125.00000
    91.1961     6134.00000
    91.2093     6215.00000
    91.2224     6055.00000
    91.2355     6096.00000
    91.2487     5966.00000
    91.2618     5995.00000
    91.2749     6094.00000
    91.2880     5912.00000
    91.3012     5944.00000
    91.3143     6116.00000
    91.3274     6229.00000
    91.3406     6106.00000
    91.3537     6158.00000
    91.3668     6182.00000
    91.3800     6095.00000
    91.3931     6082.00000
    91.4062     6072.00000
    91.4193     6071.00000
    91.4325     6079.00000
    91.4456     6157.00000
    91.4587     6135.00000
    91.4719     6210.00000
    91.4850     6240.00000
    91.4981     6136.00000
    91.5113     6163.00000
    91.5244     6088.00000
    91.5375     6139.00000
    91.5507     6282.00000
    91.5638     6346.00000
    91.5769     6285.00000
    91.5900     6419.00000
    91.6032     6251.00000
    91.6163     6262.00000
    91.6294     6089.00000
    91.6426     6163.00000
    91.6557     6068.00000
    91.6688     6206.00000
    91.6820     5883.00000
    91.6951     6030.00000
    91.7082     6031.00000
    91.7213     6159.00000
    91.7345     6123.00000
    91.7476     5969.00000
    91.7607     6173.00000
    91.7739     6258.00000
    91.7870     6264.00000
    91.8001     6435.00000
    91.8133     6244.00000
    91.8264     6381.00000
    91.8395     6431.00000
    91.8526     6499.00000
    91.8658     6533.00000
    91.8789     6313.00000
    91.8920     6217.00000
    91.9052     6431.00000
    91.9183     6504.00000
    91.9314     6366.00000
    91.9446     6282.00000
    91.9577     6403.00000
    91.9708     6322.00000
    91.9840     6312.00000
    91.9971     6275.00000
    92.0102     6194.00000
    92.0233     6163.00000
    92.0365     6384.00000
    92.0496     6332.00000
    92.0627     6165.00000
    92.0759     6358.00000
    92.0890     6442.00000
    92.1021     6394.00000
    92.1153     6522.00000
    92.1284     6635.00000
    92.1415     6764.00000
    92.1546     6734.00000
    92.1678     6898.00000
    92.1809     6816.00000
    92.1940     6883.00000
    92.2072     6680.00000
    92.2203     6620.00000
    92.2334     6414.00000
    92.2466     6334.00000
    92.2597     6345.00000
    92.2728     6198.00000
    92.2859     6077.00000
    92.2991     6144.00000
    92.3122     6080.00000
    92.3253     6024.00000
    92.3385     6172.00000
    92.3516     5989.00000
    92.3647     5977.00000
    92.3779     6185.00000
    92.3910     6108.00000
    92.4041     6025.00000
    92.4173     6163.00000
    92.4304     6215.00000
    92.4435     6140.00000
    92.4566     6227.00000
    92.4698     6171.00000
    92.4829     6252.00000
    92.4960     6141.00000
    92.5092     5824.00000
    92.5223     6027.00000
    92.5354     6044.00000
    92.5486     5926.00000
    92.5617     5865.00000
    92.5748     5784.00000
    92.5879     5985.00000
    92.6011     5731.00000
    92.6142     5613.00000
    92.6273     5756.00000
    92.6405     5876.00000
    92.6536     5759.00000
    92.6667     5858.00000
    92.6799     5817.00000
    92.6930     5754.00000
    92.7061     5823.00000
    92.7192     5760.00000
    92.7324     5855.00000
    92.7455     5988.00000
    92.7586     5817.00000
    92.7718     5876.00000
    92.7849     5903.00000
    92.7980     5952.00000
    92.8112     5916.00000
    92.8243     6095.00000
    92.8374     5903.00000
    92.8505     5893.00000
    92.8637     5961.00000
    92.8768     5994.00000
    92.8899     5894.00000
    92.9031     5992.00000
    92.9162     6028.00000
    92.9293     5684.00000
    92.9425     6053.00000
    92.9556     5970.00000
    92.9687     5881.00000
    92.9819     5944.00000
    92.9950     5948.00000
    93.0081     5879.00000
    93.0212     5931.00000
    93.0344     6012.00000
    93.0475     5890.00000
    93.0606     5814.00000
    93.0738     5913.00000
    93.0869     5795.00000
    93.1000     5826.00000
    93.1132     5756.00000
    93.1263     5857.00000
    93.1394     5873.00000
    93.1525     5999.00000
    93.1657     5884.00000
    93.1788     5817.00000
    93.1919     5966.00000
    93.2051     5846.00000
    93.2182     5941.00000
    93.2313     5854.00000
    93.2445     5948.00000
    93.2576     5928.00000
    93.2707     5820.00000
    93.2839     5918.00000
    93.2970     5923.00000
    93.3101     6041.00000
    93.3232     5812.00000
    93.3364     5861.00000
    93.3495     5909.00000
    93.3626     5837.00000
    93.3758     5860.00000
    93.3889     5879.00000
    93.4020     5734.00000
    93.4152     5880.00000
    93.4283     5959.00000
    93.4414     5716.00000
    93.4545     5847.00000
    93.4677     5975.00000
    93.4808     5881.00000
    93.4939     5933.00000
    93.5071     6070.00000
    93.5202     5854.00000
    93.5333     6174.00000
    93.5465     6082.00000
    93.5596     5976.00000
    93.5727     5992.00000
    93.5858     6061.00000
    93.5990     6070.00000
    93.6121     6040.00000
    93.6252     5993.00000
    93.6384     6247.00000
    93.6515     6314.00000
    93.6646     6423.00000
    93.6778     6329.00000
    93.6909     6462.00000
    93.7040     6377.00000
    93.7171     6397.00000
    93.7303     6232.00000
    93.7434     6245.00000
    93.7565     6086.00000
    93.7697     6089.00000
    93.7828     6091.00000
    93.7959     6016.00000
    93.8091     5944.00000
    93.8222     5838.00000
    93.8353     5893.00000
    93.8484     6137.00000
    93.8616     5976.00000
    93.8747     5943.00000
    93.8878     6079.00000
    93.9010     5763.00000
    93.9141     6025.00000
    93.9272     6199.00000
    93.9404     5945.00000
    93.9535     5856.00000
    93.9666     6121.00000
    93.9798     6052.00000
    93.9929     6098.00000
    94.0060     6132.00000
    94.0191     6023.00000
    94.0323     5936.00000
    94.0454     5962.00000
    94.0585     6066.00000
    94.0717     5909.00000
    94.0848     5824.00000
    94.0979     5913.00000
    94.1111     5942.00000
    94.1242     6002.00000
    94.1373     6001.00000
    94.1505     5913.00000
    94.1636     5838.00000
    94.1767     5766.00000
    94.1898     5883.00000
    94.2030     5782.00000
    94.2161     5816.00000
    94.2292     5991.00000
    94.2424     5846.00000
    94.2555     5911.00000
    94.2686     5843.00000
    94.2818     6029.00000
    94.2949     5981.00000
    94.3080     5841.00000
    94.3211     5957.00000
    94.3343     5910.00000
    94.3474     5986.00000
    94.3605     6062.00000
    94.3737     6160.00000
    94.3868     6175.00000
    94.3999     6215.00000
    94.4131     6207.00000
    94.4262     6215.00000
    94.4393     6298.00000
    94.4524     6262.00000
    94.4656     6462.00000
    94.4787     6297.00000
    94.4918     6341.00000
    94.5050     6148.00000
    94.5181     6264.00000
    94.5312     6406.00000
    94.5444     6386.00000
    94.5575     6165.00000
    94.5706     6406.00000
    94.5837     6462.00000
    94.5969     6288.00000
    94.6100     6315.00000
    94.6231     6226.00000
    94.6363     6117.00000
    94.6494     6097.00000
    94.6625     6206.00000
    94.6757     6336.00000
    94.6888     6263.00000
    94.7019     6171.00000
    94.7150     6093.00000
    94.7282     5931.00000
    94.7413     6149.00000
    94.7544     6186.00000
    94.7676     6147.00000
    94.7807     6184.00000
    94.7938     6179.00000
    94.8070     6151.00000
    94.8201     6178.00000
    94.8332     6213.00000
    94.8464     6105.00000
    94.8595     6494.00000
    94.8726     6308.00000
    94.8857     6217.00000
    94.8989     6321.00000
    94.9120     6396.00000
    94.9251     6270.00000
    94.9383     6226.00000
    94.9514     6244.00000
    94.9645     6234.00000
    94.9777     6064.00000
    94.9908     6261.00000
    95.0039     6072.00000
    95.0170     5996.00000
    95.0302     5968.00000
    95.0433     5892.00000
    95.0564     6159.00000
    95.0696     6052.00000
    95.0827     5895.00000
    95.0958     5952.00000
    95.1090     6005.00000
    95.1221     5802.00000
    95.1352     5876.00000
    95.1484     6018.00000
    95.1615     5962.00000
    95.1746     6033.00000
    95.1877     5970.00000
    95.2009     6115.00000
    95.2140     5870.00000
    95.2271     6083.00000
    95.2403     6129.00000
    95.2534     6023.00000
    95.2665     6149.00000
    95.2797     6213.00000
    95.2928     6326.00000
    95.3059     6235.00000
    95.3190     6283.00000
    95.3322     6468.00000
    95.3453     6491.00000
    95.3584     6485.00000
    95.3716     6311.00000
    95.3847     6105.00000
    95.3978     6083.00000
    95.4110     6313.00000
    95.4241     6123.00000
    95.4372     6178.00000
    95.4503     5877.00000
    95.4635     6100.00000
    95.4766     5933.00000
    95.4897     5934.00000
    95.5029     5875.00000
    95.5160     5967.00000
    95.5291     6040.00000
    95.5423     5860.00000
    95.5554     5932.00000
    95.5685     5961.00000
    95.5816     6147.00000
    95.5948     6184.00000
    95.6079     6435.00000
    95.6210     6268.00000
    95.6342     6292.00000
    95.6473     6430.00000
    95.6604     6534.00000
    95.6736     6575.00000
    95.6867     6570.00000
    95.6998     6574.00000
    95.7130     6402.00000
    95.7261     6361.00000
    95.7392     6239.00000
    95.7523     6429.00000
    95.7655     6219.00000
    95.7786     6061.00000
    95.7917     6063.00000
    95.8049     6076.00000
    95.8180     5927.00000
    95.8311     5909.00000
    95.8443     5862.00000
    95.8574     5863.00000
    95.8705     5914.00000
    95.8836     5854.00000
    95.8968     5755.00000
    95.9099     5858.00000
    95.9230     5912.00000
    95.9362     5972.00000
    95.9493     5850.00000
    95.9624     5702.00000
    95.9756     6036.00000
    95.9887     6008.00000
    96.0018     6001.00000
    96.0149     6052.00000
    96.0281     6087.00000
    96.0412     5831.00000
    96.0543     5907.00000
    96.0675     5847.00000
    96.0806     5842.00000
    96.0937     5916.00000
    96.1069     5803.00000
    96.1200     5757.00000
    96.1331     5841.00000
    96.1463     5884.00000
    96.1594     5794.00000
    96.1725     5816.00000
    96.1856     5620.00000
    96.1988     5625.00000
    96.2119     5722.00000
    96.2250     5721.00000
    96.2382     5692.00000
    96.2513     5928.00000
    96.2644     5723.00000
    96.2776     5735.00000
    96.2907     5755.00000
    96.3038     5797.00000
    96.3169     5749.00000
    96.3301     5894.00000
    96.3432     5867.00000
    96.3563     5687.00000
    96.3695     5710.00000
    96.3826     5597.00000
    96.3957     5728.00000
    96.4089     5805.00000
    96.4220     5666.00000
    96.4351     5692.00000
    96.4482     5825.00000
    96.4614     5803.00000
    96.4745     5845.00000
    96.4876     5753.00000
    96.5008     5623.00000
    96.5139     5629.00000
    96.5270     5763.00000
    96.5402     5783.00000
    96.5533     5944.00000
    96.5664     5686.00000
    96.5796     5841.00000
    96.5927     5776.00000
    96.6058     5771.00000
    96.6189     5878.00000
    96.6321     5758.00000
    96.6452     5870.00000
    96.6583     5847.00000
    96.6715     5831.00000
    96.6846     5866.00000
    96.6977     5827.00000
    96.7109     5966.00000
    96.7240     5914.00000
    96.7371     5820.00000
    96.7502     5873.00000
    96.7634     5957.00000
    96.7765     5922.00000
    96.7896     5758.00000
    96.8028     5763.00000
    96.8159     5851.00000
    96.8290     5906.00000
    96.8422     5920.00000
    96.8553     5805.00000
    96.8684     6031.00000
    96.8815     6049.00000
    96.8947     5996.00000
    96.9078     5938.00000
    96.9209     6013.00000
    96.9341     5854.00000
    96.9472     6011.00000
    96.9603     5879.00000
    96.9735     5804.00000
    96.9866     6017.00000
    96.9997     6146.00000
    97.0128     6077.00000
    97.0260     6285.00000
    97.0391     6115.00000
    97.0522     6056.00000
    97.0654     6017.00000
    97.0785     5979.00000
    97.0916     6018.00000
    97.1048     6083.00000
    97.1179     5955.00000
    97.1310     6122.00000
    97.1442     6106.00000
    97.1573     5965.00000
    97.1704     5956.00000
    97.1835     5989.00000
    97.1967     6070.00000
    97.2098     6041.00000
    97.2229     6093.00000
    97.2361     6032.00000
    97.2492     5955.00000
    97.2623     5999.00000
    97.2755     6204.00000
    97.2886     6154.00000
    97.3017     6134.00000
    97.3148     6013.00000
    97.3280     6150.00000
    97.3411     6110.00000
    97.3542     6152.00000
    97.3674     6051.00000
    97.3805     6031.00000
    97.3936     6022.00000
    97.4068     6114.00000
    97.4199     6027.00000
    97.4330     5921.00000
    97.4462     5776.00000
    97.4593     5769.00000
    97.4724     5935.00000
    97.4855     5794.00000
    97.4987     5860.00000
    97.5118     5963.00000
    97.5249     5983.00000
    97.5381     6022.00000
    97.5512     5975.00000
    97.5643     6132.00000
    97.5775     6044.00000
    97.5906     6077.00000
    97.6037     6035.00000
    97.6168     6015.00000
    97.6300     6048.00000
    97.6431     5940.00000
    97.6562     6015.00000
    97.6694     5862.00000
    97.6825     5908.00000
    97.6956     5843.00000
    97.7088     5882.00000
    97.7219     5730.00000
    97.7350     5878.00000
    97.7481     5774.00000
    97.7613     5858.00000
    97.7744     5883.00000
    97.7875     5728.00000
    97.8007     5693.00000
    97.8138     5739.00000
    97.8269     5751.00000
    97.8401     5879.00000
    97.8532     5798.00000
    97.8663     5673.00000
    97.8794     5904.00000
    97.8926     5869.00000
    97.9057     5919.00000
    97.9188     5991.00000
    97.9320     5866.00000
    97.9451     5926.00000
    97.9582     5801.00000
    97.9714     5870.00000
    97.9845     5734.00000
    97.9976     5756.00000
    98.0107     5661.00000
    98.0239     5840.00000
    98.0370     5684.00000
    98.0501     5589.00000
    98.0633     5867.00000
    98.0764     5880.00000
    98.0895     5908.00000
    98.1027     5881.00000
    98.1158     5729.00000
    98.1289     5808.00000
    98.1421     5898.00000
    98.1552     5819.00000
    98.1683     5821.00000
    98.1814     5779.00000
    98.1946     6039.00000
    98.2077     5987.00000
    98.2208     5893.00000
    98.2340     5971.00000
    98.2471     5928.00000
    98.2602     5884.00000
    98.2734     5880.00000
    98.2865     6014.00000
    98.2996     6055.00000
    98.3128     5895.00000
    98.3259     6295.00000
    98.3390     6093.00000
    98.3521     5953.00000
    98.3653     5987.00000
    98.3784     6034.00000
    98.3915     5798.00000
    98.4047     5939.00000
    98.4178     5991.00000
    98.4309     6242.00000
    98.4441     6113.00000
    98.4572     5982.00000
    98.4703     6034.00000
    98.4834     6237.00000
    98.4966     6000.00000
    98.5097     6130.00000
    98.5228     6046.00000
    98.5360     6085.00000
    98.5491     5976.00000
    98.5622     6046.00000
    98.5754     5913.00000
    98.5885     6147.00000
    98.6016     6030.00000
    98.6147     6096.00000
    98.6279     6216.00000
    98.6410     6174.00000
    98.6541     6140.00000
    98.6673     6123.00000
    98.6804     6210.00000
    98.6935     6146.00000
    98.7067     5817.00000
    98.7198     5914.00000
    98.7329     6159.00000
    98.7460     6028.00000
    98.7592     5911.00000
    98.7723     5921.00000
    98.7854     5947.00000
    98.7986     5937.00000
    98.8117     5842.00000
    98.8248     5953.00000
    98.8380     6053.00000
    98.8511     6015.00000
    98.8642     5914.00000
    98.8773     5720.00000
    98.8905     5950.00000
    98.9036     5806.00000
    98.9167     5784.00000
    98.9299     5827.00000
    98.9430     5926.00000
    98.9561     5910.00000
    98.9693     5880.00000
    98.9824     5847.00000
    98.9955     5922.00000
    99.0087     5870.00000
    99.0218     5941.00000
    99.0349     5814.00000
    99.0480     5753.00000
    99.0612     5922.00000
    99.0743     5823.00000
    99.0874     5848.00000
    99.1006     5815.00000
    99.1137     5978.00000
    99.1268     5692.00000
    99.1400     5741.00000
    99.1531     5868.00000
    99.1662     5799.00000
    99.1793     5703.00000
    99.1925     5718.00000
    99.2056     5611.00000
    99.2187     5751.00000
    99.2319     5749.00000
    99.2450     5653.00000
    99.2581     5763.00000
    99.2713     5810.00000
    99.2844     5915.00000
    99.2975     5626.00000
    99.3107     5723.00000
    99.3238     5716.00000
    99.3369     5805.00000
    99.3500     5834.00000
    99.3632     5795.00000
    99.3763     5886.00000
    99.3894     5723.00000
    99.4026     5853.00000
    99.4157     5789.00000
    99.4288     5909.00000
    99.4420     5729.00000
    99.4551     5732.00000
    99.4682     5778.00000
    99.4813     5759.00000
    99.4945     5720.00000
    99.5076     5817.00000
    99.5207     5845.00000
    99.5339     5895.00000
    99.5470     5753.00000
    99.5601     5776.00000
    99.5733     5728.00000
    99.5864     5570.00000
    99.5995     5739.00000
    99.6126     5742.00000
    99.6258     5822.00000
    99.6389     5686.00000
    99.6520     5697.00000
    99.6652     5646.00000
    99.6783     5727.00000
    99.6914     5686.00000
    99.7046     5680.00000
    99.7177     5890.00000
    99.7308     5718.00000
    99.7439     5947.00000
    99.7571     5759.00000
    99.7702     5742.00000
    99.7833     5782.00000
    99.7965     5713.00000
    99.8096     5706.00000
    99.8227     5793.00000
    99.8359     5766.00000
    99.8490     5755.00000
    99.8621     5745.00000
    99.8753     5593.00000
    99.8884     5783.00000
    99.9015     5783.00000
    99.9146     5764.00000
    99.9278     5739.00000
    99.9409     5893.00000
    99.9540     5853.00000
    99.9672     5874.00000
    99.9803     5901.00000
    99.9934     5770.00000
