! Initial file:   D:\ZAKARY_OUAIL\MA_THESE\Deuxième_année_de_thèse\DRX\Affinement_DRX\Fullprof\Thermodiff3-nuit_NaNbO2F2\25°C\NaNbO2F2-Lent_25°C.xrdml
! Initial format:  58
! WAVE (A):      1.54060     1.54060     1.00000
! REM : data have been multiplied by     1.0000
! X_data : 2 Theta (deg.)                                                                                                                                                                                                                                                  
! Y_data : Intensity (arb. units)                                                                                                                                                                                                                                          
!     X         Y
!--------------------------------------------------------------------------------
    10.0116     8374.00000
    10.0247     8314.00000
    10.0379     8314.00000
    10.0510     8388.00000
    10.0641     8369.00000
    10.0772     8315.00000
    10.0904     8332.00000
    10.1035     8416.00000
    10.1166     8334.00000
    10.1298     8286.00000
    10.1429     8552.00000
    10.1560     8396.00000
    10.1692     8409.00000
    10.1823     8572.00000
    10.1954     8447.00000
    10.2086     8497.00000
    10.2217     8434.00000
    10.2348     8363.00000
    10.2479     8450.00000
    10.2611     8436.00000
    10.2742     8401.00000
    10.2873     8329.00000
    10.3005     8435.00000
    10.3136     8352.00000
    10.3267     8445.00000
    10.3399     8278.00000
    10.3530     8395.00000
    10.3661     8428.00000
    10.3792     8484.00000
    10.3924     8525.00000
    10.4055     8224.00000
    10.4186     8176.00000
    10.4318     8293.00000
    10.4449     8319.00000
    10.4580     8411.00000
    10.4712     8418.00000
    10.4843     8485.00000
    10.4974     8117.00000
    10.5105     8361.00000
    10.5237     8167.00000
    10.5368     8480.00000
    10.5499     8541.00000
    10.5631     8351.00000
    10.5762     8268.00000
    10.5893     8355.00000
    10.6025     8143.00000
    10.6156     8366.00000
    10.6287     8405.00000
    10.6418     8217.00000
    10.6550     8334.00000
    10.6681     8273.00000
    10.6812     8177.00000
    10.6944     8446.00000
    10.7075     8221.00000
    10.7206     8215.00000
    10.7338     8472.00000
    10.7469     8441.00000
    10.7600     8300.00000
    10.7732     8265.00000
    10.7863     8288.00000
    10.7994     8248.00000
    10.8125     8535.00000
    10.8257     8341.00000
    10.8388     8214.00000
    10.8519     8280.00000
    10.8651     8632.00000
    10.8782     8648.00000
    10.8913     8634.00000
    10.9045     8766.00000
    10.9176     8629.00000
    10.9307     8710.00000
    10.9438     8771.00000
    10.9570     8951.00000
    10.9701     8906.00000
    10.9832     8960.00000
    10.9964     8803.00000
    11.0095     9012.00000
    11.0226     9072.00000
    11.0358     9036.00000
    11.0489     9142.00000
    11.0620     9160.00000
    11.0751     9442.00000
    11.0883     9529.00000
    11.1014     9851.00000
    11.1145    10151.00000
    11.1277    10559.00000
    11.1408    11107.00000
    11.1539    12227.00000
    11.1671    13070.00000
    11.1802    14998.00000
    11.1933    17685.00000
    11.2065    22412.00000
    11.2196    29291.00000
    11.2327    40328.00000
    11.2458    54115.00000
    11.2590    68974.00000
    11.2721    78194.00000
    11.2852    75944.00000
    11.2984    67133.00000
    11.3115    52872.00000
    11.3246    38053.00000
    11.3378    26160.00000
    11.3509    18072.00000
    11.3640    13396.00000
    11.3771    11225.00000
    11.3903    10030.00000
    11.4034     9510.00000
    11.4165     9562.00000
    11.4297     9219.00000
    11.4428     9091.00000
    11.4559     8707.00000
    11.4691     8843.00000
    11.4822     8635.00000
    11.4953     8644.00000
    11.5084     8528.00000
    11.5216     8493.00000
    11.5347     8393.00000
    11.5478     8433.00000
    11.5610     8355.00000
    11.5741     8437.00000
    11.5872     8438.00000
    11.6004     8316.00000
    11.6135     8262.00000
    11.6266     8435.00000
    11.6398     8285.00000
    11.6529     8362.00000
    11.6660     8347.00000
    11.6791     8411.00000
    11.6923     8375.00000
    11.7054     8295.00000
    11.7185     8275.00000
    11.7317     8278.00000
    11.7448     8468.00000
    11.7579     8658.00000
    11.7711     8427.00000
    11.7842     8547.00000
    11.7973     8427.00000
    11.8104     8542.00000
    11.8236     8731.00000
    11.8367     8698.00000
    11.8498     8619.00000
    11.8630     8818.00000
    11.8761     8581.00000
    11.8892     8809.00000
    11.9024     8480.00000
    11.9155     8367.00000
    11.9286     8591.00000
    11.9417     8520.00000
    11.9549     8557.00000
    11.9680     8738.00000
    11.9811     8582.00000
    11.9943     8480.00000
    12.0074     8497.00000
    12.0205     8693.00000
    12.0337     8552.00000
    12.0468     8497.00000
    12.0599     8471.00000
    12.0731     8426.00000
    12.0862     8525.00000
    12.0993     8687.00000
    12.1124     8605.00000
    12.1256     8571.00000
    12.1387     8551.00000
    12.1518     8586.00000
    12.1650     8760.00000
    12.1781     8666.00000
    12.1912     8520.00000
    12.2044     8574.00000
    12.2175     8677.00000
    12.2306     8807.00000
    12.2437     8621.00000
    12.2569     8869.00000
    12.2700     8682.00000
    12.2831     8616.00000
    12.2963     8773.00000
    12.3094     8745.00000
    12.3225     8775.00000
    12.3357     8719.00000
    12.3488     8694.00000
    12.3619     8682.00000
    12.3750     8651.00000
    12.3882     8630.00000
    12.4013     8740.00000
    12.4144     8605.00000
    12.4276     8647.00000
    12.4407     8640.00000
    12.4538     8559.00000
    12.4670     8604.00000
    12.4801     8712.00000
    12.4932     8575.00000
    12.5063     8608.00000
    12.5195     8767.00000
    12.5326     8520.00000
    12.5457     8631.00000
    12.5589     8590.00000
    12.5720     8550.00000
    12.5851     8563.00000
    12.5983     8674.00000
    12.6114     8573.00000
    12.6245     8642.00000
    12.6377     8404.00000
    12.6508     8584.00000
    12.6639     8703.00000
    12.6770     8606.00000
    12.6902     8759.00000
    12.7033     8640.00000
    12.7164     8346.00000
    12.7296     8624.00000
    12.7427     8608.00000
    12.7558     8565.00000
    12.7690     8561.00000
    12.7821     8528.00000
    12.7952     8596.00000
    12.8083     8723.00000
    12.8215     8613.00000
    12.8346     8643.00000
    12.8477     8657.00000
    12.8609     8703.00000
    12.8740     8589.00000
    12.8871     8650.00000
    12.9003     8560.00000
    12.9134     8442.00000
    12.9265     8501.00000
    12.9396     8484.00000
    12.9528     8511.00000
    12.9659     8435.00000
    12.9790     8641.00000
    12.9922     8308.00000
    13.0053     8338.00000
    13.0184     8596.00000
    13.0316     8352.00000
    13.0447     8601.00000
    13.0578     8411.00000
    13.0710     8536.00000
    13.0841     8431.00000
    13.0972     8446.00000
    13.1103     8512.00000
    13.1235     8559.00000
    13.1366     8413.00000
    13.1497     8657.00000
    13.1629     8535.00000
    13.1760     8262.00000
    13.1891     8413.00000
    13.2023     8512.00000
    13.2154     8455.00000
    13.2285     8555.00000
    13.2416     8428.00000
    13.2548     8374.00000
    13.2679     8378.00000
    13.2810     8376.00000
    13.2942     8574.00000
    13.3073     8364.00000
    13.3204     8221.00000
    13.3336     8302.00000
    13.3467     8369.00000
    13.3598     8525.00000
    13.3729     8286.00000
    13.3861     8272.00000
    13.3992     8540.00000
    13.4123     8195.00000
    13.4255     8206.00000
    13.4386     8466.00000
    13.4517     8466.00000
    13.4649     8165.00000
    13.4780     8335.00000
    13.4911     8139.00000
    13.5043     8293.00000
    13.5174     8392.00000
    13.5305     8260.00000
    13.5436     8310.00000
    13.5568     8290.00000
    13.5699     8391.00000
    13.5830     8237.00000
    13.5962     8285.00000
    13.6093     8537.00000
    13.6224     8265.00000
    13.6356     8573.00000
    13.6487     8388.00000
    13.6618     8472.00000
    13.6749     8447.00000
    13.6881     8541.00000
    13.7012     8623.00000
    13.7143     8487.00000
    13.7275     8512.00000
    13.7406     8497.00000
    13.7537     8339.00000
    13.7669     8190.00000
    13.7800     8440.00000
    13.7931     8414.00000
    13.8062     8451.00000
    13.8194     8254.00000
    13.8325     8212.00000
    13.8456     8541.00000
    13.8588     8408.00000
    13.8719     8366.00000
    13.8850     8129.00000
    13.8982     8527.00000
    13.9113     8320.00000
    13.9244     8186.00000
    13.9376     8235.00000
    13.9507     8340.00000
    13.9638     8241.00000
    13.9769     8382.00000
    13.9901     8250.00000
    14.0032     8409.00000
    14.0163     8450.00000
    14.0295     8557.00000
    14.0426     8340.00000
    14.0557     8060.00000
    14.0689     8238.00000
    14.0820     8350.00000
    14.0951     8285.00000
    14.1082     8459.00000
    14.1214     8347.00000
    14.1345     8353.00000
    14.1476     8278.00000
    14.1608     8587.00000
    14.1739     8356.00000
    14.1870     8393.00000
    14.2002     8430.00000
    14.2133     8531.00000
    14.2264     8379.00000
    14.2395     8345.00000
    14.2527     8303.00000
    14.2658     8228.00000
    14.2789     8224.00000
    14.2921     8240.00000
    14.3052     8344.00000
    14.3183     8088.00000
    14.3315     8034.00000
    14.3446     8326.00000
    14.3577     8326.00000
    14.3708     8452.00000
    14.3840     8363.00000
    14.3971     8167.00000
    14.4102     8186.00000
    14.4234     8397.00000
    14.4365     8474.00000
    14.4496     8684.00000
    14.4628     8788.00000
    14.4759     9077.00000
    14.4890     9448.00000
    14.5022     9656.00000
    14.5153     9804.00000
    14.5284     9869.00000
    14.5415     9813.00000
    14.5547     9718.00000
    14.5678     9380.00000
    14.5809     9166.00000
    14.5941     8934.00000
    14.6072     8675.00000
    14.6203     8546.00000
    14.6335     8556.00000
    14.6466     8452.00000
    14.6597     8416.00000
    14.6728     8230.00000
    14.6860     8204.00000
    14.6991     8290.00000
    14.7122     8583.00000
    14.7254     8291.00000
    14.7385     8040.00000
    14.7516     7911.00000
    14.7648     8183.00000
    14.7779     8260.00000
    14.7910     8399.00000
    14.8041     8090.00000
    14.8173     8053.00000
    14.8304     8099.00000
    14.8435     8270.00000
    14.8567     8193.00000
    14.8698     8533.00000
    14.8829     8233.00000
    14.8961     8081.00000
    14.9092     8148.00000
    14.9223     8100.00000
    14.9355     8273.00000
    14.9486     7988.00000
    14.9617     8202.00000
    14.9748     8101.00000
    14.9880     8250.00000
    15.0011     8197.00000
    15.0142     8376.00000
    15.0274     8055.00000
    15.0405     8048.00000
    15.0536     8236.00000
    15.0668     8237.00000
    15.0799     8024.00000
    15.0930     8132.00000
    15.1061     7863.00000
    15.1193     8012.00000
    15.1324     8100.00000
    15.1455     8083.00000
    15.1587     8100.00000
    15.1718     8147.00000
    15.1849     8052.00000
    15.1981     8236.00000
    15.2112     8061.00000
    15.2243     8139.00000
    15.2374     8118.00000
    15.2506     8125.00000
    15.2637     8210.00000
    15.2768     8038.00000
    15.2900     8075.00000
    15.3031     8069.00000
    15.3162     8140.00000
    15.3294     8286.00000
    15.3425     8228.00000
    15.3556     8128.00000
    15.3688     7968.00000
    15.3819     8042.00000
    15.3950     8010.00000
    15.4081     8129.00000
    15.4213     7953.00000
    15.4344     8026.00000
    15.4475     7896.00000
    15.4607     7888.00000
    15.4738     8131.00000
    15.4869     8014.00000
    15.5001     8069.00000
    15.5132     8181.00000
    15.5263     7936.00000
    15.5394     7954.00000
    15.5526     8026.00000
    15.5657     8196.00000
    15.5788     8189.00000
    15.5920     8147.00000
    15.6051     8037.00000
    15.6182     8125.00000
    15.6314     8043.00000
    15.6445     8102.00000
    15.6576     7875.00000
    15.6707     7996.00000
    15.6839     7963.00000
    15.6970     8061.00000
    15.7101     8000.00000
    15.7233     7888.00000
    15.7364     8270.00000
    15.7495     7980.00000
    15.7627     7954.00000
    15.7758     7913.00000
    15.7889     7992.00000
    15.8021     8082.00000
    15.8152     8047.00000
    15.8283     8046.00000
    15.8414     8040.00000
    15.8546     8174.00000
    15.8677     7957.00000
    15.8808     8020.00000
    15.8940     7919.00000
    15.9071     7972.00000
    15.9202     7889.00000
    15.9334     7928.00000
    15.9465     7981.00000
    15.9596     7966.00000
    15.9727     8071.00000
    15.9859     7942.00000
    15.9990     8179.00000
    16.0121     8027.00000
    16.0253     7968.00000
    16.0384     7797.00000
    16.0515     7851.00000
    16.0647     7985.00000
    16.0778     7984.00000
    16.0909     8121.00000
    16.1040     8063.00000
    16.1172     8151.00000
    16.1303     7985.00000
    16.1434     7791.00000
    16.1566     7964.00000
    16.1697     7839.00000
    16.1828     7894.00000
    16.1960     7952.00000
    16.2091     7919.00000
    16.2222     7798.00000
    16.2353     7720.00000
    16.2485     7986.00000
    16.2616     8008.00000
    16.2747     7911.00000
    16.2879     8023.00000
    16.3010     7991.00000
    16.3141     7783.00000
    16.3273     8036.00000
    16.3404     7837.00000
    16.3535     8046.00000
    16.3667     8031.00000
    16.3798     7999.00000
    16.3929     7862.00000
    16.4060     7679.00000
    16.4192     7874.00000
    16.4323     7817.00000
    16.4454     7926.00000
    16.4586     7778.00000
    16.4717     7960.00000
    16.4848     8030.00000
    16.4980     8070.00000
    16.5111     8135.00000
    16.5242     7995.00000
    16.5373     8134.00000
    16.5505     8128.00000
    16.5636     7894.00000
    16.5767     7854.00000
    16.5899     7998.00000
    16.6030     7937.00000
    16.6161     7869.00000
    16.6293     7984.00000
    16.6424     7820.00000
    16.6555     7894.00000
    16.6686     7916.00000
    16.6818     8019.00000
    16.6949     8108.00000
    16.7080     7957.00000
    16.7212     7952.00000
    16.7343     7920.00000
    16.7474     7943.00000
    16.7606     8071.00000
    16.7737     8319.00000
    16.7868     8390.00000
    16.8000     8481.00000
    16.8131     8398.00000
    16.8262     8369.00000
    16.8393     8344.00000
    16.8525     8336.00000
    16.8656     8098.00000
    16.8787     8167.00000
    16.8919     7955.00000
    16.9050     8197.00000
    16.9181     8018.00000
    16.9313     7897.00000
    16.9444     7825.00000
    16.9575     7611.00000
    16.9706     7643.00000
    16.9838     7751.00000
    16.9969     7970.00000
    17.0100     7815.00000
    17.0232     7884.00000
    17.0363     7820.00000
    17.0494     7841.00000
    17.0626     7790.00000
    17.0757     7741.00000
    17.0888     7565.00000
    17.1019     7571.00000
    17.1151     7912.00000
    17.1282     7976.00000
    17.1413     7571.00000
    17.1545     7761.00000
    17.1676     7759.00000
    17.1807     7698.00000
    17.1939     7729.00000
    17.2070     7649.00000
    17.2201     7824.00000
    17.2333     7716.00000
    17.2464     7924.00000
    17.2595     7828.00000
    17.2726     8061.00000
    17.2858     7841.00000
    17.2989     7775.00000
    17.3120     7800.00000
    17.3252     7779.00000
    17.3383     7586.00000
    17.3514     7781.00000
    17.3646     7750.00000
    17.3777     7848.00000
    17.3908     7669.00000
    17.4039     7711.00000
    17.4171     7696.00000
    17.4302     7797.00000
    17.4433     7697.00000
    17.4565     7536.00000
    17.4696     7807.00000
    17.4827     7670.00000
    17.4959     7796.00000
    17.5090     7693.00000
    17.5221     7767.00000
    17.5352     7752.00000
    17.5484     7680.00000
    17.5615     7805.00000
    17.5746     7675.00000
    17.5878     7618.00000
    17.6009     7652.00000
    17.6140     7668.00000
    17.6272     7698.00000
    17.6403     7596.00000
    17.6534     7567.00000
    17.6666     7821.00000
    17.6797     7693.00000
    17.6928     7740.00000
    17.7059     7617.00000
    17.7191     7799.00000
    17.7322     7661.00000
    17.7453     7731.00000
    17.7585     7531.00000
    17.7716     7735.00000
    17.7847     7505.00000
    17.7979     7538.00000
    17.8110     7707.00000
    17.8241     7643.00000
    17.8372     7695.00000
    17.8504     7476.00000
    17.8635     7393.00000
    17.8766     7639.00000
    17.8898     7573.00000
    17.9029     7666.00000
    17.9160     7562.00000
    17.9292     7647.00000
    17.9423     7722.00000
    17.9554     7645.00000
    17.9685     7890.00000
    17.9817     7957.00000
    17.9948     7658.00000
    18.0079     7636.00000
    18.0211     7874.00000
    18.0342     7743.00000
    18.0473     7791.00000
    18.0605     7496.00000
    18.0736     7594.00000
    18.0867     7699.00000
    18.0998     7698.00000
    18.1130     7576.00000
    18.1261     7703.00000
    18.1392     7585.00000
    18.1524     7573.00000
    18.1655     7719.00000
    18.1786     7556.00000
    18.1918     7480.00000
    18.2049     7395.00000
    18.2180     7504.00000
    18.2312     7637.00000
    18.2443     7467.00000
    18.2574     7585.00000
    18.2705     7576.00000
    18.2837     7513.00000
    18.2968     7728.00000
    18.3099     7691.00000
    18.3231     7689.00000
    18.3362     7458.00000
    18.3493     7528.00000
    18.3625     7448.00000
    18.3756     7308.00000
    18.3887     7458.00000
    18.4018     7434.00000
    18.4150     7504.00000
    18.4281     7345.00000
    18.4412     7595.00000
    18.4544     7505.00000
    18.4675     7553.00000
    18.4806     7387.00000
    18.4938     7483.00000
    18.5069     7504.00000
    18.5200     7531.00000
    18.5331     7500.00000
    18.5463     7515.00000
    18.5594     7629.00000
    18.5725     7535.00000
    18.5857     7362.00000
    18.5988     7474.00000
    18.6119     7603.00000
    18.6251     7443.00000
    18.6382     7505.00000
    18.6513     7493.00000
    18.6645     7519.00000
    18.6776     7538.00000
    18.6907     7454.00000
    18.7038     7462.00000
    18.7170     7445.00000
    18.7301     7506.00000
    18.7432     7536.00000
    18.7564     7444.00000
    18.7695     7508.00000
    18.7826     7640.00000
    18.7958     7568.00000
    18.8089     7651.00000
    18.8220     7547.00000
    18.8351     7549.00000
    18.8483     7506.00000
    18.8614     7389.00000
    18.8745     7375.00000
    18.8877     7415.00000
    18.9008     7460.00000
    18.9139     7451.00000
    18.9271     7628.00000
    18.9402     7521.00000
    18.9533     7592.00000
    18.9664     7447.00000
    18.9796     7513.00000
    18.9927     7575.00000
    19.0058     7495.00000
    19.0190     7352.00000
    19.0321     7351.00000
    19.0452     7407.00000
    19.0584     7613.00000
    19.0715     7330.00000
    19.0846     7413.00000
    19.0978     7426.00000
    19.1109     7593.00000
    19.1240     7458.00000
    19.1371     7577.00000
    19.1503     7569.00000
    19.1634     7550.00000
    19.1765     7424.00000
    19.1897     7501.00000
    19.2028     7690.00000
    19.2159     7714.00000
    19.2291     7768.00000
    19.2422     7844.00000
    19.2553     7957.00000
    19.2684     7907.00000
    19.2816     7879.00000
    19.2947     7737.00000
    19.3078     7841.00000
    19.3210     7875.00000
    19.3341     7611.00000
    19.3472     7936.00000
    19.3604     7881.00000
    19.3735     7841.00000
    19.3866     7810.00000
    19.3997     7905.00000
    19.4129     7958.00000
    19.4260     7907.00000
    19.4391     7785.00000
    19.4523     7804.00000
    19.4654     7710.00000
    19.4785     7898.00000
    19.4917     7743.00000
    19.5048     7877.00000
    19.5179     7796.00000
    19.5311     7727.00000
    19.5442     7679.00000
    19.5573     7787.00000
    19.5704     7739.00000
    19.5836     7927.00000
    19.5967     8028.00000
    19.6098     8031.00000
    19.6230     8111.00000
    19.6361     8332.00000
    19.6492     8188.00000
    19.6624     8230.00000
    19.6755     8523.00000
    19.6886     8277.00000
    19.7017     8407.00000
    19.7149     8717.00000
    19.7280     8908.00000
    19.7411     9078.00000
    19.7543     9463.00000
    19.7674     9680.00000
    19.7805    10257.00000
    19.7937    11017.00000
    19.8068    12040.00000
    19.8199    13664.00000
    19.8330    15962.00000
    19.8462    19781.00000
    19.8593    26691.00000
    19.8724    36562.00000
    19.8856    50435.00000
    19.8987    65623.00000
    19.9118    79693.00000
    19.9250    87887.00000
    19.9381    86604.00000
    19.9512    78943.00000
    19.9643    68041.00000
    19.9775    56765.00000
    19.9906    45212.00000
    20.0037    33581.00000
    20.0169    24190.00000
    20.0300    17642.00000
    20.0431    13957.00000
    20.0563    11695.00000
    20.0694    10476.00000
    20.0825     9996.00000
    20.0957     9590.00000
    20.1088     9194.00000
    20.1219     9008.00000
    20.1350     8707.00000
    20.1482     8523.00000
    20.1613     8279.00000
    20.1744     8340.00000
    20.1876     8244.00000
    20.2007     8101.00000
    20.2138     8245.00000
    20.2270     8196.00000
    20.2401     8214.00000
    20.2532     8099.00000
    20.2663     7828.00000
    20.2795     8038.00000
    20.2926     7823.00000
    20.3057     7942.00000
    20.3189     7843.00000
    20.3320     7858.00000
    20.3451     7727.00000
    20.3583     7713.00000
    20.3714     7669.00000
    20.3845     7505.00000
    20.3976     7808.00000
    20.4108     7699.00000
    20.4239     7720.00000
    20.4370     7838.00000
    20.4502     7622.00000
    20.4633     7692.00000
    20.4764     7856.00000
    20.4896     7721.00000
    20.5027     7651.00000
    20.5158     7522.00000
    20.5290     7694.00000
    20.5421     7550.00000
    20.5552     7628.00000
    20.5683     7599.00000
    20.5815     7741.00000
    20.5946     7783.00000
    20.6077     7759.00000
    20.6209     7664.00000
    20.6340     7640.00000
    20.6471     7584.00000
    20.6603     7649.00000
    20.6734     7544.00000
    20.6865     7647.00000
    20.6996     7556.00000
    20.7128     7595.00000
    20.7259     7609.00000
    20.7390     7774.00000
    20.7522     7645.00000
    20.7653     7503.00000
    20.7784     7645.00000
    20.7916     7603.00000
    20.8047     7623.00000
    20.8178     7608.00000
    20.8309     7618.00000
    20.8441     7621.00000
    20.8572     7633.00000
    20.8703     7851.00000
    20.8835     7826.00000
    20.8966     7664.00000
    20.9097     7637.00000
    20.9229     7698.00000
    20.9360     7575.00000
    20.9491     7523.00000
    20.9623     7562.00000
    20.9754     7694.00000
    20.9885     7663.00000
    21.0016     7752.00000
    21.0148     7538.00000
    21.0279     7608.00000
    21.0410     7426.00000
    21.0542     7641.00000
    21.0673     7647.00000
    21.0804     7542.00000
    21.0936     7723.00000
    21.1067     7477.00000
    21.1198     7559.00000
    21.1329     7436.00000
    21.1461     7417.00000
    21.1592     7697.00000
    21.1723     7532.00000
    21.1855     7499.00000
    21.1986     7624.00000
    21.2117     7525.00000
    21.2249     7672.00000
    21.2380     7583.00000
    21.2511     7482.00000
    21.2642     7494.00000
    21.2774     7521.00000
    21.2905     7644.00000
    21.3036     7578.00000
    21.3168     7730.00000
    21.3299     7759.00000
    21.3430     7575.00000
    21.3562     7502.00000
    21.3693     7572.00000
    21.3824     7818.00000
    21.3956     7531.00000
    21.4087     7547.00000
    21.4218     7613.00000
    21.4349     7796.00000
    21.4481     7489.00000
    21.4612     7564.00000
    21.4743     7641.00000
    21.4875     7827.00000
    21.5006     7816.00000
    21.5137     7776.00000
    21.5269     7525.00000
    21.5400     7437.00000
    21.5531     7376.00000
    21.5662     7422.00000
    21.5794     7536.00000
    21.5925     7536.00000
    21.6056     7476.00000
    21.6188     7585.00000
    21.6319     7642.00000
    21.6450     7582.00000
    21.6582     7469.00000
    21.6713     7543.00000
    21.6844     7761.00000
    21.6975     7730.00000
    21.7107     7579.00000
    21.7238     7635.00000
    21.7369     7573.00000
    21.7501     7612.00000
    21.7632     7681.00000
    21.7763     7578.00000
    21.7895     7530.00000
    21.8026     7571.00000
    21.8157     7702.00000
    21.8288     7727.00000
    21.8420     7736.00000
    21.8551     7707.00000
    21.8682     7465.00000
    21.8814     7609.00000
    21.8945     7790.00000
    21.9076     7726.00000
    21.9208     7508.00000
    21.9339     7706.00000
    21.9470     7484.00000
    21.9602     7717.00000
    21.9733     7730.00000
    21.9864     7690.00000
    21.9995     7681.00000
    22.0127     7657.00000
    22.0258     7714.00000
    22.0389     7664.00000
    22.0521     7730.00000
    22.0652     7723.00000
    22.0783     7458.00000
    22.0915     7448.00000
    22.1046     7759.00000
    22.1177     7830.00000
    22.1308     7795.00000
    22.1440     7606.00000
    22.1571     7694.00000
    22.1702     7536.00000
    22.1834     7471.00000
    22.1965     7535.00000
    22.2096     7358.00000
    22.2228     7303.00000
    22.2359     7530.00000
    22.2490     7470.00000
    22.2621     7401.00000
    22.2753     7374.00000
    22.2884     7558.00000
    22.3015     7594.00000
    22.3147     7632.00000
    22.3278     7626.00000
    22.3409     7757.00000
    22.3541     7733.00000
    22.3672     7576.00000
    22.3803     7583.00000
    22.3935     7679.00000
    22.4066     7825.00000
    22.4197     7785.00000
    22.4328     7805.00000
    22.4460     7832.00000
    22.4591     7838.00000
    22.4722     7725.00000
    22.4854     8038.00000
    22.4985     7820.00000
    22.5116     7973.00000
    22.5248     7914.00000
    22.5379     8163.00000
    22.5510     8429.00000
    22.5641     8614.00000
    22.5773     9098.00000
    22.5904     9850.00000
    22.6035    10956.00000
    22.6167    12971.00000
    22.6298    16399.00000
    22.6429    21574.00000
    22.6561    27897.00000
    22.6692    33079.00000
    22.6823    33679.00000
    22.6954    32013.00000
    22.7086    29144.00000
    22.7217    26158.00000
    22.7348    23170.00000
    22.7480    19882.00000
    22.7611    16227.00000
    22.7742    13190.00000
    22.7874    10692.00000
    22.8005     9314.00000
    22.8136     8609.00000
    22.8268     8352.00000
    22.8399     8177.00000
    22.8530     7999.00000
    22.8661     7829.00000
    22.8793     7873.00000
    22.8924     7815.00000
    22.9055     7654.00000
    22.9187     7509.00000
    22.9318     7730.00000
    22.9449     7645.00000
    22.9581     7689.00000
    22.9712     7690.00000
    22.9843     7556.00000
    22.9974     7562.00000
    23.0106     7635.00000
    23.0237     7603.00000
    23.0368     7638.00000
    23.0500     7633.00000
    23.0631     7639.00000
    23.0762     7396.00000
    23.0894     7494.00000
    23.1025     7487.00000
    23.1156     7594.00000
    23.1287     7602.00000
    23.1419     7567.00000
    23.1550     7526.00000
    23.1681     7551.00000
    23.1813     7543.00000
    23.1944     7582.00000
    23.2075     7578.00000
    23.2207     7635.00000
    23.2338     7566.00000
    23.2469     7526.00000
    23.2601     7602.00000
    23.2732     7547.00000
    23.2863     7770.00000
    23.2994     7802.00000
    23.3126     7711.00000
    23.3257     7668.00000
    23.3388     7724.00000
    23.3520     7721.00000
    23.3651     7697.00000
    23.3782     7793.00000
    23.3914     7654.00000
    23.4045     7827.00000
    23.4176     7759.00000
    23.4307     7717.00000
    23.4439     7746.00000
    23.4570     7650.00000
    23.4701     7595.00000
    23.4833     7722.00000
    23.4964     7602.00000
    23.5095     7655.00000
    23.5227     7606.00000
    23.5358     7680.00000
    23.5489     7915.00000
    23.5620     7757.00000
    23.5752     7926.00000
    23.5883     7668.00000
    23.6014     7797.00000
    23.6146     7747.00000
    23.6277     7967.00000
    23.6408     7926.00000
    23.6540     7805.00000
    23.6671     7912.00000
    23.6802     8083.00000
    23.6933     8306.00000
    23.7065     8421.00000
    23.7196     8672.00000
    23.7327     9092.00000
    23.7459     9963.00000
    23.7590    11639.00000
    23.7721    14100.00000
    23.7853    17820.00000
    23.7984    23487.00000
    23.8115    28382.00000
    23.8247    29987.00000
    23.8378    28129.00000
    23.8509    25187.00000
    23.8640    23372.00000
    23.8772    21868.00000
    23.8903    19609.00000
    23.9034    16444.00000
    23.9166    13740.00000
    23.9297    11191.00000
    23.9428    10217.00000
    23.9560     9144.00000
    23.9691     8762.00000
    23.9822     8789.00000
    23.9953     8640.00000
    24.0085     8466.00000
    24.0216     8601.00000
    24.0347     8514.00000
    24.0479     8676.00000
    24.0610     8777.00000
    24.0741     9101.00000
    24.0873     9356.00000
    24.1004    10149.00000
    24.1135    11522.00000
    24.1266    13716.00000
    24.1398    17673.00000
    24.1529    24352.00000
    24.1660    32009.00000
    24.1792    36458.00000
    24.1923    35014.00000
    24.2054    31069.00000
    24.2186    27763.00000
    24.2317    27006.00000
    24.2448    24192.00000
    24.2580    20167.00000
    24.2711    16418.00000
    24.2842    13232.00000
    24.2973    11077.00000
    24.3105     9540.00000
    24.3236     8880.00000
    24.3367     8644.00000
    24.3499     8568.00000
    24.3630     8239.00000
    24.3761     8096.00000
    24.3893     8259.00000
    24.4024     8103.00000
    24.4155     8093.00000
    24.4286     8264.00000
    24.4418     8130.00000
    24.4549     8158.00000
    24.4680     8018.00000
    24.4812     7935.00000
    24.4943     7874.00000
    24.5074     7762.00000
    24.5206     7755.00000
    24.5337     7687.00000
    24.5468     7701.00000
    24.5599     7495.00000
    24.5731     7646.00000
    24.5862     7680.00000
    24.5993     7462.00000
    24.6125     7544.00000
    24.6256     7575.00000
    24.6387     7557.00000
    24.6519     7618.00000
    24.6650     7650.00000
    24.6781     7429.00000
    24.6913     7610.00000
    24.7044     7404.00000
    24.7175     7540.00000
    24.7306     7445.00000
    24.7438     7603.00000
    24.7569     7643.00000
    24.7700     7521.00000
    24.7832     7562.00000
    24.7963     7541.00000
    24.8094     7460.00000
    24.8226     7405.00000
    24.8357     7386.00000
    24.8488     7481.00000
    24.8619     7442.00000
    24.8751     7577.00000
    24.8882     7486.00000
    24.9013     7407.00000
    24.9145     7539.00000
    24.9276     7658.00000
    24.9407     7467.00000
    24.9539     7503.00000
    24.9670     7644.00000
    24.9801     7425.00000
    24.9932     7405.00000
    25.0064     7488.00000
    25.0195     7442.00000
    25.0326     7379.00000
    25.0458     7458.00000
    25.0589     7323.00000
    25.0720     7417.00000
    25.0852     7472.00000
    25.0983     7440.00000
    25.1114     7490.00000
    25.1246     7520.00000
    25.1377     7619.00000
    25.1508     7407.00000
    25.1639     7438.00000
    25.1771     7589.00000
    25.1902     7334.00000
    25.2033     7542.00000
    25.2165     7410.00000
    25.2296     7396.00000
    25.2427     7464.00000
    25.2559     7460.00000
    25.2690     7541.00000
    25.2821     7606.00000
    25.2952     7566.00000
    25.3084     7651.00000
    25.3215     7680.00000
    25.3346     7598.00000
    25.3478     7721.00000
    25.3609     7670.00000
    25.3740     7487.00000
    25.3872     7510.00000
    25.4003     7690.00000
    25.4134     7451.00000
    25.4265     7361.00000
    25.4397     7385.00000
    25.4528     7363.00000
    25.4659     7379.00000
    25.4791     7315.00000
    25.4922     7377.00000
    25.5053     7514.00000
    25.5185     7463.00000
    25.5316     7356.00000
    25.5447     7410.00000
    25.5579     7310.00000
    25.5710     7418.00000
    25.5841     7522.00000
    25.5972     7697.00000
    25.6104     7419.00000
    25.6235     7398.00000
    25.6366     7529.00000
    25.6498     7475.00000
    25.6629     7595.00000
    25.6760     7548.00000
    25.6892     7391.00000
    25.7023     7351.00000
    25.7154     7491.00000
    25.7285     7587.00000
    25.7417     7344.00000
    25.7548     7307.00000
    25.7679     7347.00000
    25.7811     7413.00000
    25.7942     7368.00000
    25.8073     7469.00000
    25.8205     7427.00000
    25.8336     7313.00000
    25.8467     7303.00000
    25.8598     7498.00000
    25.8730     7543.00000
    25.8861     7605.00000
    25.8992     7446.00000
    25.9124     7443.00000
    25.9255     7392.00000
    25.9386     7379.00000
    25.9518     7458.00000
    25.9649     7513.00000
    25.9780     7429.00000
    25.9911     7507.00000
    26.0043     7448.00000
    26.0174     7447.00000
    26.0305     7516.00000
    26.0437     7425.00000
    26.0568     7384.00000
    26.0699     7538.00000
    26.0831     7388.00000
    26.0962     7383.00000
    26.1093     7385.00000
    26.1225     7416.00000
    26.1356     7464.00000
    26.1487     7416.00000
    26.1618     7471.00000
    26.1750     7488.00000
    26.1881     7539.00000
    26.2012     7391.00000
    26.2144     7234.00000
    26.2275     7592.00000
    26.2406     7195.00000
    26.2538     7288.00000
    26.2669     7361.00000
    26.2800     7164.00000
    26.2931     7147.00000
    26.3063     7331.00000
    26.3194     7242.00000
    26.3325     7285.00000
    26.3457     7256.00000
    26.3588     7107.00000
    26.3719     7182.00000
    26.3851     7407.00000
    26.3982     7428.00000
    26.4113     7271.00000
    26.4244     7226.00000
    26.4376     7345.00000
    26.4507     7398.00000
    26.4638     7116.00000
    26.4770     7253.00000
    26.4901     7365.00000
    26.5032     7381.00000
    26.5164     7255.00000
    26.5295     7306.00000
    26.5426     7352.00000
    26.5558     7268.00000
    26.5689     7219.00000
    26.5820     7276.00000
    26.5951     7239.00000
    26.6083     7244.00000
    26.6214     7274.00000
    26.6345     7198.00000
    26.6477     7207.00000
    26.6608     7245.00000
    26.6739     7290.00000
    26.6871     7216.00000
    26.7002     7277.00000
    26.7133     7462.00000
    26.7264     7388.00000
    26.7396     7244.00000
    26.7527     7261.00000
    26.7658     7162.00000
    26.7790     7367.00000
    26.7921     7361.00000
    26.8052     7339.00000
    26.8184     7152.00000
    26.8315     7218.00000
    26.8446     7097.00000
    26.8577     7136.00000
    26.8709     7317.00000
    26.8840     7234.00000
    26.8971     7379.00000
    26.9103     7208.00000
    26.9234     7071.00000
    26.9365     7119.00000
    26.9497     7197.00000
    26.9628     7138.00000
    26.9759     7133.00000
    26.9891     7153.00000
    27.0022     7196.00000
    27.0153     7497.00000
    27.0284     7055.00000
    27.0416     7214.00000
    27.0547     7151.00000
    27.0678     7345.00000
    27.0810     7254.00000
    27.0941     7303.00000
    27.1072     7420.00000
    27.1204     7521.00000
    27.1335     7435.00000
    27.1466     7475.00000
    27.1597     7634.00000
    27.1729     7386.00000
    27.1860     7424.00000
    27.1991     7547.00000
    27.2123     7438.00000
    27.2254     7454.00000
    27.2385     7465.00000
    27.2517     7471.00000
    27.2648     7369.00000
    27.2779     7345.00000
    27.2910     7417.00000
    27.3042     7404.00000
    27.3173     7632.00000
    27.3304     7481.00000
    27.3436     7531.00000
    27.3567     7609.00000
    27.3698     7528.00000
    27.3830     7707.00000
    27.3961     7748.00000
    27.4092     7537.00000
    27.4224     7368.00000
    27.4355     7593.00000
    27.4486     7379.00000
    27.4617     7358.00000
    27.4749     7335.00000
    27.4880     7426.00000
    27.5011     7554.00000
    27.5143     7604.00000
    27.5274     7440.00000
    27.5405     7347.00000
    27.5537     7562.00000
    27.5668     7439.00000
    27.5799     7533.00000
    27.5930     7463.00000
    27.6062     7512.00000
    27.6193     7625.00000
    27.6324     7398.00000
    27.6456     7571.00000
    27.6587     7622.00000
    27.6718     7435.00000
    27.6850     7599.00000
    27.6981     7562.00000
    27.7112     7625.00000
    27.7243     7738.00000
    27.7375     7709.00000
    27.7506     7719.00000
    27.7637     7864.00000
    27.7769     7733.00000
    27.7900     7999.00000
    27.8031     7951.00000
    27.8163     8364.00000
    27.8294     8463.00000
    27.8425     8335.00000
    27.8556     8587.00000
    27.8688     8801.00000
    27.8819     9040.00000
    27.8950     9179.00000
    27.9082     9460.00000
    27.9213     9621.00000
    27.9344     9972.00000
    27.9476    10691.00000
    27.9607    11141.00000
    27.9738    11728.00000
    27.9870    13658.00000
    28.0001    15361.00000
    28.0132    18094.00000
    28.0263    23066.00000
    28.0395    29920.00000
    28.0526    40602.00000
    28.0657    54670.00000
    28.0789    70877.00000
    28.0920    82451.00000
    28.1051    86704.00000
    28.1183    82914.00000
    28.1314    73780.00000
    28.1445    66236.00000
    28.1576    61035.00000
    28.1708    55335.00000
    28.1839    48261.00000
    28.1970    39905.00000
    28.2102    30842.00000
    28.2233    23172.00000
    28.2364    17798.00000
    28.2496    14388.00000
    28.2627    12446.00000
    28.2758    11355.00000
    28.2889    10244.00000
    28.3021     9839.00000
    28.3152     9550.00000
    28.3283     9391.00000
    28.3415     8886.00000
    28.3546     8659.00000
    28.3677     8399.00000
    28.3809     8298.00000
    28.3940     8098.00000
    28.4071     8184.00000
    28.4203     8222.00000
    28.4334     8208.00000
    28.4465     8021.00000
    28.4596     8264.00000
    28.4728     8214.00000
    28.4859     8562.00000
    28.4990     8748.00000
    28.5122     8967.00000
    28.5253     9072.00000
    28.5384     8579.00000
    28.5516     8356.00000
    28.5647     8442.00000
    28.5778     8545.00000
    28.5909     8560.00000
    28.6041     8388.00000
    28.6172     8198.00000
    28.6303     8192.00000
    28.6435     8110.00000
    28.6566     7882.00000
    28.6697     7786.00000
    28.6829     7796.00000
    28.6960     7766.00000
    28.7091     7784.00000
    28.7222     7843.00000
    28.7354     7881.00000
    28.7485     7748.00000
    28.7616     7717.00000
    28.7748     7783.00000
    28.7879     7776.00000
    28.8010     7658.00000
    28.8142     7615.00000
    28.8273     7638.00000
    28.8404     7966.00000
    28.8536     7816.00000
    28.8667     7859.00000
    28.8798     8080.00000
    28.8929     8127.00000
    28.9061     8456.00000
    28.9192     8476.00000
    28.9323     8758.00000
    28.9455     9122.00000
    28.9586     9797.00000
    28.9717    10889.00000
    28.9849    13170.00000
    28.9980    17690.00000
    29.0111    24671.00000
    29.0242    33965.00000
    29.0374    40525.00000
    29.0505    40158.00000
    29.0636    34519.00000
    29.0768    28477.00000
    29.0899    26023.00000
    29.1030    26440.00000
    29.1162    26159.00000
    29.1293    22998.00000
    29.1424    18568.00000
    29.1555    14621.00000
    29.1687    11912.00000
    29.1818    10151.00000
    29.1949     9485.00000
    29.2081     8918.00000
    29.2212     8896.00000
    29.2343     8878.00000
    29.2475     9111.00000
    29.2606     9508.00000
    29.2737    10023.00000
    29.2869    10529.00000
    29.3000    11076.00000
    29.3131    12050.00000
    29.3262    12740.00000
    29.3394    13488.00000
    29.3525    14039.00000
    29.3656    13377.00000
    29.3788    13121.00000
    29.3919    13612.00000
    29.4050    14459.00000
    29.4182    14985.00000
    29.4313    15208.00000
    29.4444    13978.00000
    29.4575    12301.00000
    29.4707    11447.00000
    29.4838    11028.00000
    29.4969    10473.00000
    29.5101    10553.00000
    29.5232     9680.00000
    29.5363     8970.00000
    29.5495     8341.00000
    29.5626     8000.00000
    29.5757     7748.00000
    29.5888     7473.00000
    29.6020     7547.00000
    29.6151     7470.00000
    29.6282     7486.00000
    29.6414     7359.00000
    29.6545     7293.00000
    29.6676     7166.00000
    29.6808     7161.00000
    29.6939     7105.00000
    29.7070     7258.00000
    29.7201     7408.00000
    29.7333     7159.00000
    29.7464     7164.00000
    29.7595     7249.00000
    29.7727     7333.00000
    29.7858     7183.00000
    29.7989     7247.00000
    29.8121     7146.00000
    29.8252     7451.00000
    29.8383     7349.00000
    29.8515     7248.00000
    29.8646     7143.00000
    29.8777     7136.00000
    29.8908     7054.00000
    29.9040     7038.00000
    29.9171     7203.00000
    29.9302     7172.00000
    29.9434     7098.00000
    29.9565     7052.00000
    29.9696     6952.00000
    29.9828     6881.00000
    29.9959     7057.00000
    30.0090     7138.00000
    30.0221     7010.00000
    30.0353     6877.00000
    30.0484     7086.00000
    30.0615     7234.00000
    30.0747     7099.00000
    30.0878     7107.00000
    30.1009     6942.00000
    30.1141     7067.00000
    30.1272     7007.00000
    30.1403     7023.00000
    30.1535     6850.00000
    30.1666     7099.00000
    30.1797     6941.00000
    30.1928     7104.00000
    30.2060     7232.00000
    30.2191     7000.00000
    30.2322     7108.00000
    30.2454     6977.00000
    30.2585     7129.00000
    30.2716     7220.00000
    30.2848     7059.00000
    30.2979     7009.00000
    30.3110     7043.00000
    30.3241     7173.00000
    30.3373     7118.00000
    30.3504     7073.00000
    30.3635     7141.00000
    30.3767     6999.00000
    30.3898     7085.00000
    30.4029     7271.00000
    30.4161     7001.00000
    30.4292     7095.00000
    30.4423     7076.00000
    30.4554     7005.00000
    30.4686     7127.00000
    30.4817     7049.00000
    30.4948     6927.00000
    30.5080     6974.00000
    30.5211     7252.00000
    30.5342     6869.00000
    30.5474     7074.00000
    30.5605     7106.00000
    30.5736     6978.00000
    30.5868     6950.00000
    30.5999     6956.00000
    30.6130     7184.00000
    30.6261     7248.00000
    30.6393     7022.00000
    30.6524     7053.00000
    30.6655     7147.00000
    30.6787     7020.00000
    30.6918     6899.00000
    30.7049     6955.00000
    30.7181     7004.00000
    30.7312     7073.00000
    30.7443     6897.00000
    30.7574     7013.00000
    30.7706     7020.00000
    30.7837     6931.00000
    30.7968     7013.00000
    30.8100     6974.00000
    30.8231     6933.00000
    30.8362     7071.00000
    30.8494     6980.00000
    30.8625     6988.00000
    30.8756     6907.00000
    30.8887     6879.00000
    30.9019     7019.00000
    30.9150     6982.00000
    30.9281     7112.00000
    30.9413     6971.00000
    30.9544     6963.00000
    30.9675     6990.00000
    30.9807     7023.00000
    30.9938     6901.00000
    31.0069     6804.00000
    31.0200     6886.00000
    31.0332     6996.00000
    31.0463     6816.00000
    31.0594     7023.00000
    31.0726     7104.00000
    31.0857     7036.00000
    31.0988     7057.00000
    31.1120     6956.00000
    31.1251     6862.00000
    31.1382     6882.00000
    31.1514     6814.00000
    31.1645     6987.00000
    31.1776     7072.00000
    31.1907     6849.00000
    31.2039     6969.00000
    31.2170     6768.00000
    31.2301     6889.00000
    31.2433     6934.00000
    31.2564     6877.00000
    31.2695     6882.00000
    31.2827     7028.00000
    31.2958     6960.00000
    31.3089     6742.00000
    31.3220     6738.00000
    31.3352     6837.00000
    31.3483     6957.00000
    31.3614     6890.00000
    31.3746     6971.00000
    31.3877     6992.00000
    31.4008     6915.00000
    31.4140     6817.00000
    31.4271     6963.00000
    31.4402     6723.00000
    31.4533     6876.00000
    31.4665     7019.00000
    31.4796     6884.00000
    31.4927     6813.00000
    31.5059     6827.00000
    31.5190     6917.00000
    31.5321     6879.00000
    31.5453     6911.00000
    31.5584     6942.00000
    31.5715     6738.00000
    31.5847     6901.00000
    31.5978     6938.00000
    31.6109     7073.00000
    31.6240     7020.00000
    31.6372     6716.00000
    31.6503     6976.00000
    31.6634     7083.00000
    31.6766     6964.00000
    31.6897     7034.00000
    31.7028     6929.00000
    31.7160     6948.00000
    31.7291     6862.00000
    31.7422     6844.00000
    31.7553     6829.00000
    31.7685     6696.00000
    31.7816     6852.00000
    31.7947     7019.00000
    31.8079     7020.00000
    31.8210     6848.00000
    31.8341     6961.00000
    31.8473     6781.00000
    31.8604     6946.00000
    31.8735     6851.00000
    31.8866     6926.00000
    31.8998     6989.00000
    31.9129     6831.00000
    31.9260     6839.00000
    31.9392     6891.00000
    31.9523     7093.00000
    31.9654     7077.00000
    31.9786     6808.00000
    31.9917     7095.00000
    32.0048     6828.00000
    32.0180     6892.00000
    32.0311     6868.00000
    32.0442     6831.00000
    32.0573     6929.00000
    32.0705     6928.00000
    32.0836     6776.00000
    32.0967     7060.00000
    32.1099     6731.00000
    32.1230     6785.00000
    32.1361     6860.00000
    32.1493     7066.00000
    32.1624     6870.00000
    32.1755     6779.00000
    32.1886     6869.00000
    32.2018     6877.00000
    32.2149     6999.00000
    32.2280     6723.00000
    32.2412     6906.00000
    32.2543     6928.00000
    32.2674     6861.00000
    32.2806     6728.00000
    32.2937     6946.00000
    32.3068     6868.00000
    32.3199     6867.00000
    32.3331     6789.00000
    32.3462     6648.00000
    32.3593     6836.00000
    32.3725     6891.00000
    32.3856     6876.00000
    32.3987     6970.00000
    32.4119     6945.00000
    32.4250     6976.00000
    32.4381     7131.00000
    32.4512     6898.00000
    32.4644     6922.00000
    32.4775     6902.00000
    32.4906     6957.00000
    32.5038     7013.00000
    32.5169     6993.00000
    32.5300     6942.00000
    32.5432     6935.00000
    32.5563     6914.00000
    32.5694     6869.00000
    32.5826     6995.00000
    32.5957     6898.00000
    32.6088     7026.00000
    32.6219     6773.00000
    32.6351     6714.00000
    32.6482     7037.00000
    32.6613     6894.00000
    32.6745     6914.00000
    32.6876     6801.00000
    32.7007     6949.00000
    32.7139     7075.00000
    32.7270     6961.00000
    32.7401     7021.00000
    32.7532     7051.00000
    32.7664     7022.00000
    32.7795     7231.00000
    32.7926     7076.00000
    32.8058     7123.00000
    32.8189     7166.00000
    32.8320     6994.00000
    32.8452     7156.00000
    32.8583     7196.00000
    32.8714     7225.00000
    32.8845     7389.00000
    32.8977     7382.00000
    32.9108     7386.00000
    32.9239     7609.00000
    32.9371     7734.00000
    32.9502     7811.00000
    32.9633     7940.00000
    32.9765     8203.00000
    32.9896     9074.00000
    33.0027    10548.00000
    33.0159    12838.00000
    33.0290    16325.00000
    33.0421    20424.00000
    33.0552    23264.00000
    33.0684    24681.00000
    33.0815    23888.00000
    33.0946    22712.00000
    33.1078    21007.00000
    33.1209    19324.00000
    33.1340    18814.00000
    33.1472    17982.00000
    33.1603    16468.00000
    33.1734    14946.00000
    33.1865    13508.00000
    33.1997    11746.00000
    33.2128    10379.00000
    33.2259     8972.00000
    33.2391     8380.00000
    33.2522     7924.00000
    33.2653     7626.00000
    33.2785     7401.00000
    33.2916     7369.00000
    33.3047     7290.00000
    33.3178     7137.00000
    33.3310     7079.00000
    33.3441     7049.00000
    33.3572     6992.00000
    33.3704     6958.00000
    33.3835     6995.00000
    33.3966     7029.00000
    33.4098     6913.00000
    33.4229     6911.00000
    33.4360     6856.00000
    33.4492     6956.00000
    33.4623     6935.00000
    33.4754     6945.00000
    33.4885     6789.00000
    33.5017     7081.00000
    33.5148     6941.00000
    33.5279     6764.00000
    33.5411     6973.00000
    33.5542     6809.00000
    33.5673     6892.00000
    33.5805     6928.00000
    33.5936     6754.00000
    33.6067     6887.00000
    33.6198     6901.00000
    33.6330     7009.00000
    33.6461     7086.00000
    33.6592     7063.00000
    33.6724     7074.00000
    33.6855     6920.00000
    33.6986     7095.00000
    33.7118     7148.00000
    33.7249     7280.00000
    33.7380     7199.00000
    33.7511     7514.00000
    33.7643     7703.00000
    33.7774     7847.00000
    33.7905     8481.00000
    33.8037     9306.00000
    33.8168    10325.00000
    33.8299    11753.00000
    33.8431    13584.00000
    33.8562    15035.00000
    33.8693    14995.00000
    33.8825    14548.00000
    33.8956    13072.00000
    33.9087    11798.00000
    33.9218    11851.00000
    33.9350    11571.00000
    33.9481    11641.00000
    33.9612    11301.00000
    33.9744    10494.00000
    33.9875     9952.00000
    34.0006     9339.00000
    34.0138     8485.00000
    34.0269     7951.00000
    34.0400     7796.00000
    34.0531     7719.00000
    34.0663     7696.00000
    34.0794     7529.00000
    34.0925     7632.00000
    34.1057     7536.00000
    34.1188     7430.00000
    34.1319     7109.00000
    34.1451     7308.00000
    34.1582     7174.00000
    34.1713     7226.00000
    34.1844     7195.00000
    34.1976     7216.00000
    34.2107     7198.00000
    34.2238     7360.00000
    34.2370     7796.00000
    34.2501     8043.00000
    34.2632     8925.00000
    34.2764    10025.00000
    34.2895    11873.00000
    34.3026    13063.00000
    34.3158    13556.00000
    34.3289    12783.00000
    34.3420    12138.00000
    34.3551    10871.00000
    34.3683    10300.00000
    34.3814    10309.00000
    34.3945    10357.00000
    34.4077    10297.00000
    34.4208     9751.00000
    34.4339     9004.00000
    34.4471     8215.00000
    34.4602     7619.00000
    34.4733     7203.00000
    34.4864     6984.00000
    34.4996     7050.00000
    34.5127     6782.00000
    34.5258     6771.00000
    34.5390     7049.00000
    34.5521     6984.00000
    34.5652     6879.00000
    34.5784     6680.00000
    34.5915     6842.00000
    34.6046     6906.00000
    34.6177     6735.00000
    34.6309     6838.00000
    34.6440     6766.00000
    34.6571     6693.00000
    34.6703     6661.00000
    34.6834     6772.00000
    34.6965     6728.00000
    34.7097     6651.00000
    34.7228     6818.00000
    34.7359     6832.00000
    34.7491     6781.00000
    34.7622     6495.00000
    34.7753     6706.00000
    34.7884     6621.00000
    34.8016     6591.00000
    34.8147     6651.00000
    34.8278     6686.00000
    34.8410     6883.00000
    34.8541     6741.00000
    34.8672     6813.00000
    34.8804     6831.00000
    34.8935     6925.00000
    34.9066     6820.00000
    34.9197     7014.00000
    34.9329     6856.00000
    34.9460     7122.00000
    34.9591     6993.00000
    34.9723     7046.00000
    34.9854     7380.00000
    34.9985     7467.00000
    35.0117     8074.00000
    35.0248     8739.00000
    35.0379     9824.00000
    35.0510    10857.00000
    35.0642    11707.00000
    35.0773    11602.00000
    35.0904    11249.00000
    35.1036    10425.00000
    35.1167     9896.00000
    35.1298     9463.00000
    35.1430     9623.00000
    35.1561     9501.00000
    35.1692     9232.00000
    35.1824     8833.00000
    35.1955     8498.00000
    35.2086     7985.00000
    35.2217     7605.00000
    35.2349     7664.00000
    35.2480     7785.00000
    35.2611     7737.00000
    35.2743     7523.00000
    35.2874     7438.00000
    35.3005     7312.00000
    35.3137     7288.00000
    35.3268     7010.00000
    35.3399     7078.00000
    35.3530     7272.00000
    35.3662     7099.00000
    35.3793     6937.00000
    35.3924     6950.00000
    35.4056     6792.00000
    35.4187     6872.00000
    35.4318     6669.00000
    35.4450     6705.00000
    35.4581     6626.00000
    35.4712     6553.00000
    35.4843     6578.00000
    35.4975     6419.00000
    35.5106     6427.00000
    35.5237     6753.00000
    35.5369     6584.00000
    35.5500     6650.00000
    35.5631     6848.00000
    35.5763     6700.00000
    35.5894     6579.00000
    35.6025     6546.00000
    35.6156     6740.00000
    35.6288     6608.00000
    35.6419     6719.00000
    35.6550     6727.00000
    35.6682     6653.00000
    35.6813     6590.00000
    35.6944     6584.00000
    35.7076     6709.00000
    35.7207     6599.00000
    35.7338     6618.00000
    35.7470     6700.00000
    35.7601     6513.00000
    35.7732     6804.00000
    35.7863     6746.00000
    35.7995     6496.00000
    35.8126     6616.00000
    35.8257     6515.00000
    35.8389     6668.00000
    35.8520     6862.00000
    35.8651     6629.00000
    35.8783     6565.00000
    35.8914     6758.00000
    35.9045     6523.00000
    35.9176     6708.00000
    35.9308     6671.00000
    35.9439     6594.00000
    35.9570     6633.00000
    35.9702     6483.00000
    35.9833     6699.00000
    35.9964     6646.00000
    36.0096     6485.00000
    36.0227     6660.00000
    36.0358     6593.00000
    36.0489     6645.00000
    36.0621     6698.00000
    36.0752     6580.00000
    36.0883     6663.00000
    36.1015     6588.00000
    36.1146     6476.00000
    36.1277     6485.00000
    36.1409     6632.00000
    36.1540     6480.00000
    36.1671     6524.00000
    36.1802     6610.00000
    36.1934     6446.00000
    36.2065     6511.00000
    36.2196     6592.00000
    36.2328     6514.00000
    36.2459     6582.00000
    36.2590     6629.00000
    36.2722     6538.00000
    36.2853     6564.00000
    36.2984     6553.00000
    36.3116     6634.00000
    36.3247     6705.00000
    36.3378     6828.00000
    36.3509     6880.00000
    36.3641     6701.00000
    36.3772     6718.00000
    36.3903     6786.00000
    36.4035     6836.00000
    36.4166     6654.00000
    36.4297     6946.00000
    36.4429     7213.00000
    36.4560     7727.00000
    36.4691     8524.00000
    36.4822     9204.00000
    36.4954     9901.00000
    36.5085     9911.00000
    36.5216     9221.00000
    36.5348     8670.00000
    36.5479     8104.00000
    36.5610     7956.00000
    36.5742     8306.00000
    36.5873     8419.00000
    36.6004     8347.00000
    36.6135     7961.00000
    36.6267     7571.00000
    36.6398     7277.00000
    36.6529     6996.00000
    36.6661     6870.00000
    36.6792     6753.00000
    36.6923     6662.00000
    36.7055     6641.00000
    36.7186     6618.00000
    36.7317     6486.00000
    36.7449     6543.00000
    36.7580     6471.00000
    36.7711     6483.00000
    36.7842     6653.00000
    36.7974     6639.00000
    36.8105     6631.00000
    36.8236     6570.00000
    36.8368     6466.00000
    36.8499     6516.00000
    36.8630     6642.00000
    36.8762     6530.00000
    36.8893     6582.00000
    36.9024     6563.00000
    36.9155     6560.00000
    36.9287     6735.00000
    36.9418     6379.00000
    36.9549     6576.00000
    36.9681     6717.00000
    36.9812     6620.00000
    36.9943     6429.00000
    37.0075     6662.00000
    37.0206     6706.00000
    37.0337     6582.00000
    37.0468     6569.00000
    37.0600     6546.00000
    37.0731     6603.00000
    37.0862     6421.00000
    37.0994     6569.00000
    37.1125     6722.00000
    37.1256     6550.00000
    37.1388     6541.00000
    37.1519     6569.00000
    37.1650     6560.00000
    37.1782     6528.00000
    37.1913     6245.00000
    37.2044     6569.00000
    37.2175     6734.00000
    37.2307     6655.00000
    37.2438     6545.00000
    37.2569     6661.00000
    37.2701     6641.00000
    37.2832     6646.00000
    37.2963     6461.00000
    37.3095     6563.00000
    37.3226     6418.00000
    37.3357     6440.00000
    37.3488     6714.00000
    37.3620     6524.00000
    37.3751     6540.00000
    37.3882     6473.00000
    37.4014     6594.00000
    37.4145     6501.00000
    37.4276     6649.00000
    37.4408     6489.00000
    37.4539     6568.00000
    37.4670     6375.00000
    37.4801     6667.00000
    37.4933     6604.00000
    37.5064     6423.00000
    37.5195     6546.00000
    37.5327     6533.00000
    37.5458     6514.00000
    37.5589     6651.00000
    37.5721     6559.00000
    37.5852     6629.00000
    37.5983     6718.00000
    37.6115     6604.00000
    37.6246     6778.00000
    37.6377     6730.00000
    37.6508     6834.00000
    37.6640     6860.00000
    37.6771     6873.00000
    37.6902     7410.00000
    37.7034     7427.00000
    37.7165     7685.00000
    37.7296     7771.00000
    37.7428     7583.00000
    37.7559     7647.00000
    37.7690     7416.00000
    37.7821     7440.00000
    37.7953     7748.00000
    37.8084     8236.00000
    37.8215     8397.00000
    37.8347     9130.00000
    37.8478     9792.00000
    37.8609    10771.00000
    37.8741    11881.00000
    37.8872    12953.00000
    37.9003    13501.00000
    37.9134    13873.00000
    37.9266    13374.00000
    37.9397    12816.00000
    37.9528    12298.00000
    37.9660    11559.00000
    37.9791    11315.00000
    37.9922    10823.00000
    38.0054    10433.00000
    38.0185    10075.00000
    38.0316     9808.00000
    38.0448     9056.00000
    38.0579     8581.00000
    38.0710     7869.00000
    38.0841     7480.00000
    38.0973     7198.00000
    38.1104     7027.00000
    38.1235     6953.00000
    38.1367     7038.00000
    38.1498     6979.00000
    38.1629     6796.00000
    38.1761     6813.00000
    38.1892     6917.00000
    38.2023     6867.00000
    38.2154     6873.00000
    38.2286     6589.00000
    38.2417     6606.00000
    38.2548     6671.00000
    38.2680     6746.00000
    38.2811     6725.00000
    38.2942     6648.00000
    38.3074     6622.00000
    38.3205     6633.00000
    38.3336     6475.00000
    38.3467     6478.00000
    38.3599     6641.00000
    38.3730     6490.00000
    38.3861     6374.00000
    38.3993     6557.00000
    38.4124     6558.00000
    38.4255     6372.00000
    38.4387     6395.00000
    38.4518     6393.00000
    38.4649     6547.00000
    38.4781     6536.00000
    38.4912     6521.00000
    38.5043     6359.00000
    38.5174     6456.00000
    38.5306     6350.00000
    38.5437     6481.00000
    38.5568     6569.00000
    38.5700     6435.00000
    38.5831     6543.00000
    38.5962     6622.00000
    38.6094     6642.00000
    38.6225     6611.00000
    38.6356     6549.00000
    38.6487     6551.00000
    38.6619     6387.00000
    38.6750     6547.00000
    38.6881     6603.00000
    38.7013     6550.00000
    38.7144     6497.00000
    38.7275     6615.00000
    38.7407     6388.00000
    38.7538     6421.00000
    38.7669     6518.00000
    38.7800     6488.00000
    38.7932     6435.00000
    38.8063     6431.00000
    38.8194     6593.00000
    38.8326     6572.00000
    38.8457     6429.00000
    38.8588     6407.00000
    38.8720     6382.00000
    38.8851     6517.00000
    38.8982     6626.00000
    38.9114     6442.00000
    38.9245     6380.00000
    38.9376     6272.00000
    38.9507     6523.00000
    38.9639     6455.00000
    38.9770     6550.00000
    38.9901     6435.00000
    39.0033     6630.00000
    39.0164     6545.00000
    39.0295     6543.00000
    39.0427     6403.00000
    39.0558     6463.00000
    39.0689     6488.00000
    39.0820     6598.00000
    39.0952     6370.00000
    39.1083     6451.00000
    39.1214     6586.00000
    39.1346     6369.00000
    39.1477     6508.00000
    39.1608     6321.00000
    39.1740     6595.00000
    39.1871     6507.00000
    39.2002     6682.00000
    39.2133     6550.00000
    39.2265     6647.00000
    39.2396     6667.00000
    39.2527     6842.00000
    39.2659     6878.00000
    39.2790     7162.00000
    39.2921     7769.00000
    39.3053     8414.00000
    39.3184     9160.00000
    39.3315     9722.00000
    39.3446     9548.00000
    39.3578     8899.00000
    39.3709     8371.00000
    39.3840     7865.00000
    39.3972     7691.00000
    39.4103     7850.00000
    39.4234     7857.00000
    39.4366     8004.00000
    39.4497     7906.00000
    39.4628     7603.00000
    39.4760     7317.00000
    39.4891     6964.00000
    39.5022     6877.00000
    39.5153     6758.00000
    39.5285     6631.00000
    39.5416     6526.00000
    39.5547     6550.00000
    39.5679     6424.00000
    39.5810     6688.00000
    39.5941     6480.00000
    39.6073     6462.00000
    39.6204     6632.00000
    39.6335     6440.00000
    39.6466     6489.00000
    39.6598     6523.00000
    39.6729     6447.00000
    39.6860     6576.00000
    39.6992     6476.00000
    39.7123     6183.00000
    39.7254     6294.00000
    39.7386     6455.00000
    39.7517     6316.00000
    39.7648     6515.00000
    39.7779     6472.00000
    39.7911     6420.00000
    39.8042     6484.00000
    39.8173     6557.00000
    39.8305     6550.00000
    39.8436     6439.00000
    39.8567     6391.00000
    39.8699     6415.00000
    39.8830     6462.00000
    39.8961     6546.00000
    39.9092     6550.00000
    39.9224     6577.00000
    39.9355     6600.00000
    39.9486     6346.00000
    39.9618     6384.00000
    39.9749     6521.00000
    39.9880     6480.00000
    40.0012     6563.00000
    40.0143     6430.00000
    40.0274     6437.00000
    40.0406     6521.00000
    40.0537     6493.00000
    40.0668     6483.00000
    40.0799     6389.00000
    40.0931     6489.00000
    40.1062     6374.00000
    40.1193     6746.00000
    40.1325     6387.00000
    40.1456     6500.00000
    40.1587     6376.00000
    40.1719     6638.00000
    40.1850     6700.00000
    40.1981     6584.00000
    40.2112     6895.00000
    40.2244     7023.00000
    40.2375     7095.00000
    40.2506     7116.00000
    40.2638     7100.00000
    40.2769     6942.00000
    40.2900     6956.00000
    40.3032     6813.00000
    40.3163     6802.00000
    40.3294     6744.00000
    40.3425     6870.00000
    40.3557     7038.00000
    40.3688     6862.00000
    40.3819     6887.00000
    40.3951     6841.00000
    40.4082     6802.00000
    40.4213     7136.00000
    40.4345     7176.00000
    40.4476     7527.00000
    40.4607     7729.00000
    40.4739     8244.00000
    40.4870     8456.00000
    40.5001     9108.00000
    40.5132     8997.00000
    40.5264     8602.00000
    40.5395     8543.00000
    40.5526     8022.00000
    40.5658     8021.00000
    40.5789     7918.00000
    40.5920     7871.00000
    40.6052     7954.00000
    40.6183     7740.00000
    40.6314     7737.00000
    40.6445     7450.00000
    40.6577     7160.00000
    40.6708     6997.00000
    40.6839     6887.00000
    40.6971     6630.00000
    40.7102     6764.00000
    40.7233     6499.00000
    40.7365     6558.00000
    40.7496     6310.00000
    40.7627     6617.00000
    40.7758     6521.00000
    40.7890     6458.00000
    40.8021     6593.00000
    40.8152     6462.00000
    40.8284     6420.00000
    40.8415     6678.00000
    40.8546     6318.00000
    40.8678     6281.00000
    40.8809     6370.00000
    40.8940     6453.00000
    40.9072     6543.00000
    40.9203     6328.00000
    40.9334     6540.00000
    40.9465     6503.00000
    40.9597     6679.00000
    40.9728     6456.00000
    40.9859     6487.00000
    40.9991     6517.00000
    41.0122     6563.00000
    41.0253     6458.00000
    41.0385     6407.00000
    41.0516     6459.00000
    41.0647     6603.00000
    41.0778     6663.00000
    41.0910     6569.00000
    41.1041     6582.00000
    41.1172     6687.00000
    41.1304     6829.00000
    41.1435     7110.00000
    41.1566     7239.00000
    41.1698     7481.00000
    41.1829     7912.00000
    41.1960     8116.00000
    41.2091     7925.00000
    41.2223     7829.00000
    41.2354     7515.00000
    41.2485     7446.00000
    41.2617     7398.00000
    41.2748     7674.00000
    41.2879     7960.00000
    41.3011     8528.00000
    41.3142     8787.00000
    41.3273     9142.00000
    41.3405     9693.00000
    41.3536    10432.00000
    41.3667    11249.00000
    41.3798    12022.00000
    41.3930    12360.00000
    41.4061    12230.00000
    41.4192    12108.00000
    41.4324    11186.00000
    41.4455    10546.00000
    41.4586     9931.00000
    41.4718     9665.00000
    41.4849     9673.00000
    41.4980     9504.00000
    41.5111     9380.00000
    41.5243     9042.00000
    41.5374     8564.00000
    41.5505     8248.00000
    41.5637     7643.00000
    41.5768     7190.00000
    41.5899     6926.00000
    41.6031     6955.00000
    41.6162     6841.00000
    41.6293     6788.00000
    41.6424     6592.00000
    41.6556     6611.00000
    41.6687     6527.00000
    41.6818     6601.00000
    41.6950     6656.00000
    41.7081     6446.00000
    41.7212     6437.00000
    41.7344     6552.00000
    41.7475     6463.00000
    41.7606     6336.00000
    41.7738     6351.00000
    41.7869     6372.00000
    41.8000     6474.00000
    41.8131     6358.00000
    41.8263     6368.00000
    41.8394     6438.00000
    41.8525     6585.00000
    41.8657     6407.00000
    41.8788     6178.00000
    41.8919     6430.00000
    41.9051     6467.00000
    41.9182     6524.00000
    41.9313     6514.00000
    41.9444     6476.00000
    41.9576     6430.00000
    41.9707     6427.00000
    41.9838     6432.00000
    41.9970     6439.00000
    42.0101     6592.00000
    42.0232     6645.00000
    42.0364     6308.00000
    42.0495     6510.00000
    42.0626     6437.00000
    42.0757     6267.00000
    42.0889     6270.00000
    42.1020     6518.00000
    42.1151     6289.00000
    42.1283     6438.00000
    42.1414     6481.00000
    42.1545     6482.00000
    42.1677     6209.00000
    42.1808     6461.00000
    42.1939     6377.00000
    42.2071     6364.00000
    42.2202     6478.00000
    42.2333     6381.00000
    42.2464     6420.00000
    42.2596     6470.00000
    42.2727     6588.00000
    42.2858     6621.00000
    42.2990     6373.00000
    42.3121     6488.00000
    42.3252     6385.00000
    42.3384     6410.00000
    42.3515     6368.00000
    42.3646     6340.00000
    42.3777     6331.00000
    42.3909     6578.00000
    42.4040     6373.00000
    42.4171     6260.00000
    42.4303     6321.00000
    42.4434     6386.00000
    42.4565     6318.00000
    42.4697     6329.00000
    42.4828     6230.00000
    42.4959     6367.00000
    42.5090     6621.00000
    42.5222     6358.00000
    42.5353     6418.00000
    42.5484     6423.00000
    42.5616     6496.00000
    42.5747     6350.00000
    42.5878     6482.00000
    42.6010     6326.00000
    42.6141     6320.00000
    42.6272     6331.00000
    42.6404     6260.00000
    42.6535     6446.00000
    42.6666     6373.00000
    42.6797     6173.00000
    42.6929     6239.00000
    42.7060     6408.00000
    42.7191     6425.00000
    42.7323     6314.00000
    42.7454     6301.00000
    42.7585     6367.00000
    42.7717     6528.00000
    42.7848     6251.00000
    42.7979     6368.00000
    42.8110     6401.00000
    42.8242     6441.00000
    42.8373     6506.00000
    42.8504     6333.00000
    42.8636     6361.00000
    42.8767     6466.00000
    42.8898     6468.00000
    42.9030     6316.00000
    42.9161     6186.00000
    42.9292     6362.00000
    42.9423     6409.00000
    42.9555     6231.00000
    42.9686     6258.00000
    42.9817     6246.00000
    42.9949     6465.00000
    43.0080     6513.00000
    43.0211     6291.00000
    43.0343     6202.00000
    43.0474     6292.00000
    43.0605     6125.00000
    43.0736     6365.00000
    43.0868     6517.00000
    43.0999     6461.00000
    43.1130     6238.00000
    43.1262     6322.00000
    43.1393     6338.00000
    43.1524     6224.00000
    43.1656     6256.00000
    43.1787     6326.00000
    43.1918     6325.00000
    43.2050     6303.00000
    43.2181     6324.00000
    43.2312     6340.00000
    43.2443     6309.00000
    43.2575     6393.00000
    43.2706     6288.00000
    43.2837     6464.00000
    43.2969     6393.00000
    43.3100     6415.00000
    43.3231     6300.00000
    43.3363     6332.00000
    43.3494     6381.00000
    43.3625     6209.00000
    43.3756     6341.00000
    43.3888     6222.00000
    43.4019     6327.00000
    43.4150     6290.00000
    43.4282     6292.00000
    43.4413     6318.00000
    43.4544     6385.00000
    43.4676     6361.00000
    43.4807     6451.00000
    43.4938     6561.00000
    43.5069     6223.00000
    43.5201     6493.00000
    43.5332     6393.00000
    43.5463     6450.00000
    43.5595     6304.00000
    43.5726     6275.00000
    43.5857     6382.00000
    43.5989     6487.00000
    43.6120     6572.00000
    43.6251     6539.00000
    43.6383     6687.00000
    43.6514     6586.00000
    43.6645     6702.00000
    43.6776     6905.00000
    43.6908     7060.00000
    43.7039     7087.00000
    43.7170     7350.00000
    43.7302     7450.00000
    43.7433     7667.00000
    43.7564     7818.00000
    43.7696     7750.00000
    43.7827     7707.00000
    43.7958     7515.00000
    43.8089     7222.00000
    43.8221     7086.00000
    43.8352     6969.00000
    43.8483     7043.00000
    43.8615     6985.00000
    43.8746     7159.00000
    43.8877     7076.00000
    43.9009     6978.00000
    43.9140     6656.00000
    43.9271     6580.00000
    43.9402     6538.00000
    43.9534     6535.00000
    43.9665     6432.00000
    43.9796     6579.00000
    43.9928     6354.00000
    44.0059     6470.00000
    44.0190     6410.00000
    44.0322     6238.00000
    44.0453     6389.00000
    44.0584     6459.00000
    44.0715     6440.00000
    44.0847     6376.00000
    44.0978     6180.00000
    44.1109     6366.00000
    44.1241     6409.00000
    44.1372     6402.00000
    44.1503     6229.00000
    44.1635     6336.00000
    44.1766     6343.00000
    44.1897     6541.00000
    44.2029     6474.00000
    44.2160     6513.00000
    44.2291     6630.00000
    44.2422     6441.00000
    44.2554     6672.00000
    44.2685     6500.00000
    44.2816     6537.00000
    44.2948     6305.00000
    44.3079     6379.00000
    44.3210     6503.00000
    44.3342     6337.00000
    44.3473     6572.00000
    44.3604     6566.00000
    44.3735     6448.00000
    44.3867     6320.00000
    44.3998     6522.00000
    44.4129     6489.00000
    44.4261     6476.00000
    44.4392     6551.00000
    44.4523     6421.00000
    44.4655     6417.00000
    44.4786     6506.00000
    44.4917     6363.00000
    44.5048     6428.00000
    44.5180     6417.00000
    44.5311     6369.00000
    44.5442     6479.00000
    44.5574     6701.00000
    44.5705     6691.00000
    44.5836     6730.00000
    44.5968     6792.00000
    44.6099     6733.00000
    44.6230     6741.00000
    44.6362     6842.00000
    44.6493     6752.00000
    44.6624     6850.00000
    44.6755     6775.00000
    44.6887     6991.00000
    44.7018     6869.00000
    44.7149     6974.00000
    44.7281     6867.00000
    44.7412     6899.00000
    44.7543     7063.00000
    44.7675     7337.00000
    44.7806     7592.00000
    44.7937     7701.00000
    44.8068     8073.00000
    44.8200     8907.00000
    44.8331     9920.00000
    44.8462    11069.00000
    44.8594    12504.00000
    44.8725    13278.00000
    44.8856    13041.00000
    44.8988    12497.00000
    44.9119    11612.00000
    44.9250    10233.00000
    44.9381     9520.00000
    44.9513     9476.00000
    44.9644     9691.00000
    44.9775     9951.00000
    44.9907     9951.00000
    45.0038     9801.00000
    45.0169     9465.00000
    45.0301     8718.00000
    45.0432     8264.00000
    45.0563     7563.00000
    45.0695     7396.00000
    45.0826     6978.00000
    45.0957     6862.00000
    45.1088     6718.00000
    45.1220     6511.00000
    45.1351     6484.00000
    45.1482     6469.00000
    45.1614     6717.00000
    45.1745     6530.00000
    45.1876     6368.00000
    45.2008     6426.00000
    45.2139     6487.00000
    45.2270     6362.00000
    45.2401     6273.00000
    45.2533     6545.00000
    45.2664     6422.00000
    45.2795     6485.00000
    45.2927     6394.00000
    45.3058     6425.00000
    45.3189     6381.00000
    45.3321     6312.00000
    45.3452     6345.00000
    45.3583     6283.00000
    45.3714     6334.00000
    45.3846     6204.00000
    45.3977     6172.00000
    45.4108     6467.00000
    45.4240     6267.00000
    45.4371     6279.00000
    45.4502     6231.00000
    45.4634     6314.00000
    45.4765     6422.00000
    45.4896     6349.00000
    45.5028     6161.00000
    45.5159     6153.00000
    45.5290     6242.00000
    45.5421     6307.00000
    45.5553     6494.00000
    45.5684     6380.00000
    45.5815     6289.00000
    45.5947     6340.00000
    45.6078     6432.00000
    45.6209     6412.00000
    45.6341     6174.00000
    45.6472     6206.00000
    45.6603     6180.00000
    45.6734     6204.00000
    45.6866     6270.00000
    45.6997     6183.00000
    45.7128     6362.00000
    45.7260     6343.00000
    45.7391     6283.00000
    45.7522     6407.00000
    45.7654     6426.00000
    45.7785     6402.00000
    45.7916     6388.00000
    45.8047     6568.00000
    45.8179     6305.00000
    45.8310     6371.00000
    45.8441     6419.00000
    45.8573     6497.00000
    45.8704     6230.00000
    45.8835     6343.00000
    45.8967     6236.00000
    45.9098     6287.00000
    45.9229     6308.00000
    45.9361     6494.00000
    45.9492     6421.00000
    45.9623     6317.00000
    45.9754     6225.00000
    45.9886     6549.00000
    46.0017     6546.00000
    46.0148     6464.00000
    46.0280     6551.00000
    46.0411     6659.00000
    46.0542     6596.00000
    46.0674     6709.00000
    46.0805     6562.00000
    46.0936     6583.00000
    46.1067     6773.00000
    46.1199     6812.00000
    46.1330     6982.00000
    46.1461     6680.00000
    46.1593     6858.00000
    46.1724     6926.00000
    46.1855     6963.00000
    46.1987     7019.00000
    46.2118     7283.00000
    46.2249     7552.00000
    46.2380     7969.00000
    46.2512     8486.00000
    46.2643     9477.00000
    46.2774    11353.00000
    46.2906    13931.00000
    46.3037    16554.00000
    46.3168    19506.00000
    46.3300    20195.00000
    46.3431    19842.00000
    46.3562    17937.00000
    46.3694    15956.00000
    46.3825    13747.00000
    46.3956    12266.00000
    46.4087    11833.00000
    46.4219    12405.00000
    46.4350    13435.00000
    46.4481    13869.00000
    46.4613    13446.00000
    46.4744    12660.00000
    46.4875    11582.00000
    46.5007    10163.00000
    46.5138     9162.00000
    46.5269     8030.00000
    46.5400     7540.00000
    46.5532     7295.00000
    46.5663     7053.00000
    46.5794     6694.00000
    46.5926     6837.00000
    46.6057     6559.00000
    46.6188     6597.00000
    46.6320     6746.00000
    46.6451     6406.00000
    46.6582     6523.00000
    46.6713     6665.00000
    46.6845     6810.00000
    46.6976     6485.00000
    46.7107     6394.00000
    46.7239     6439.00000
    46.7370     6576.00000
    46.7501     6466.00000
    46.7633     6400.00000
    46.7764     6500.00000
    46.7895     6324.00000
    46.8027     6303.00000
    46.8158     6285.00000
    46.8289     6269.00000
    46.8420     6394.00000
    46.8552     6377.00000
    46.8683     6300.00000
    46.8814     6181.00000
    46.8946     6291.00000
    46.9077     6433.00000
    46.9208     6454.00000
    46.9340     6379.00000
    46.9471     6378.00000
    46.9602     6309.00000
    46.9733     6345.00000
    46.9865     6583.00000
    46.9996     6389.00000
    47.0127     6354.00000
    47.0259     6473.00000
    47.0390     6335.00000
    47.0521     6530.00000
    47.0653     6333.00000
    47.0784     6192.00000
    47.0915     6355.00000
    47.1046     6392.00000
    47.1178     6317.00000
    47.1309     6349.00000
    47.1440     6542.00000
    47.1572     6273.00000
    47.1703     6242.00000
    47.1834     6422.00000
    47.1966     6437.00000
    47.2097     6367.00000
    47.2228     6322.00000
    47.2359     6403.00000
    47.2491     6342.00000
    47.2622     6336.00000
    47.2753     6350.00000
    47.2885     6437.00000
    47.3016     6630.00000
    47.3147     6496.00000
    47.3279     6302.00000
    47.3410     6181.00000
    47.3541     6173.00000
    47.3673     6380.00000
    47.3804     6351.00000
    47.3935     6395.00000
    47.4066     6556.00000
    47.4198     6535.00000
    47.4329     6364.00000
    47.4460     6553.00000
    47.4592     6416.00000
    47.4723     6605.00000
    47.4854     6600.00000
    47.4986     6569.00000
    47.5117     6525.00000
    47.5248     6656.00000
    47.5379     6585.00000
    47.5511     6519.00000
    47.5642     6734.00000
    47.5773     6750.00000
    47.5905     7010.00000
    47.6036     7244.00000
    47.6167     7206.00000
    47.6299     7876.00000
    47.6430     8956.00000
    47.6561    10007.00000
    47.6692    11491.00000
    47.6824    12370.00000
    47.6955    12621.00000
    47.7086    11950.00000
    47.7218    11111.00000
    47.7349    10868.00000
    47.7480    10844.00000
    47.7612    10602.00000
    47.7743    10708.00000
    47.7874    10798.00000
    47.8005    10936.00000
    47.8137    10765.00000
    47.8268    10208.00000
    47.8399     9501.00000
    47.8531     9122.00000
    47.8662     8533.00000
    47.8793     8500.00000
    47.8925     8385.00000
    47.9056     7891.00000
    47.9187     7671.00000
    47.9319     7277.00000
    47.9450     7038.00000
    47.9581     7051.00000
    47.9712     6793.00000
    47.9844     6903.00000
    47.9975     6897.00000
    48.0106     6902.00000
    48.0238     7007.00000
    48.0369     6852.00000
    48.0500     6699.00000
    48.0632     6634.00000
    48.0763     6638.00000
    48.0894     6615.00000
    48.1025     6811.00000
    48.1157     6846.00000
    48.1288     6735.00000
    48.1419     6594.00000
    48.1551     6724.00000
    48.1682     7046.00000
    48.1813     7027.00000
    48.1945     6925.00000
    48.2076     6917.00000
    48.2207     6995.00000
    48.2338     6974.00000
    48.2470     7109.00000
    48.2601     7259.00000
    48.2732     7184.00000
    48.2864     7511.00000
    48.2995     7837.00000
    48.3126     8100.00000
    48.3258     8523.00000
    48.3389     9081.00000
    48.3520     9881.00000
    48.3652    10974.00000
    48.3783    12292.00000
    48.3914    14075.00000
    48.4045    15763.00000
    48.4177    16641.00000
    48.4308    17112.00000
    48.4439    16759.00000
    48.4571    15576.00000
    48.4702    14387.00000
    48.4833    13011.00000
    48.4965    12298.00000
    48.5096    12101.00000
    48.5227    12347.00000
    48.5358    12096.00000
    48.5490    12344.00000
    48.5621    12498.00000
    48.5752    11942.00000
    48.5884    11148.00000
    48.6015    10211.00000
    48.6146     9478.00000
    48.6278     8468.00000
    48.6409     7948.00000
    48.6540     7628.00000
    48.6671     7668.00000
    48.6803     7299.00000
    48.6934     7192.00000
    48.7065     7156.00000
    48.7197     7188.00000
    48.7328     7461.00000
    48.7459     7493.00000
    48.7591     7602.00000
    48.7722     7824.00000
    48.7853     8314.00000
    48.7985     8322.00000
    48.8116     8085.00000
    48.8247     7973.00000
    48.8378     7668.00000
    48.8510     7554.00000
    48.8641     7738.00000
    48.8772     7714.00000
    48.8904     7747.00000
    48.9035     7918.00000
    48.9166     7757.00000
    48.9298     7841.00000
    48.9429     7537.00000
    48.9560     7391.00000
    48.9691     7254.00000
    48.9823     7212.00000
    48.9954     7289.00000
    49.0085     7123.00000
    49.0217     7009.00000
    49.0348     6981.00000
    49.0479     6974.00000
    49.0611     6994.00000
    49.0742     6824.00000
    49.0873     6716.00000
    49.1004     6685.00000
    49.1136     6666.00000
    49.1267     6756.00000
    49.1398     6756.00000
    49.1530     6607.00000
    49.1661     6765.00000
    49.1792     6749.00000
    49.1924     6870.00000
    49.2055     6799.00000
    49.2186     6574.00000
    49.2318     6903.00000
    49.2449     6602.00000
    49.2580     6921.00000
    49.2711     7057.00000
    49.2843     7145.00000
    49.2974     7226.00000
    49.3105     7326.00000
    49.3237     7333.00000
    49.3368     7416.00000
    49.3499     7797.00000
    49.3631     8082.00000
    49.3762     8213.00000
    49.3893     8869.00000
    49.4024     9884.00000
    49.4156    11253.00000
    49.4287    12678.00000
    49.4418    14345.00000
    49.4550    15873.00000
    49.4681    16435.00000
    49.4812    16128.00000
    49.4944    15515.00000
    49.5075    14109.00000
    49.5206    13565.00000
    49.5337    13364.00000
    49.5469    13557.00000
    49.5600    14146.00000
    49.5731    14011.00000
    49.5863    13988.00000
    49.5994    13513.00000
    49.6125    12528.00000
    49.6257    11575.00000
    49.6388    10865.00000
    49.6519    10343.00000
    49.6651     9790.00000
    49.6782     9362.00000
    49.6913     9031.00000
    49.7044     8594.00000
    49.7176     8298.00000
    49.7307     7853.00000
    49.7438     7360.00000
    49.7570     7200.00000
    49.7701     7085.00000
    49.7832     6912.00000
    49.7964     6930.00000
    49.8095     6796.00000
    49.8226     6764.00000
    49.8357     6938.00000
    49.8489     6929.00000
    49.8620     6980.00000
    49.8751     6964.00000
    49.8883     6931.00000
    49.9014     7074.00000
    49.9145     7170.00000
    49.9277     7197.00000
    49.9408     7209.00000
    49.9539     7297.00000
    49.9670     7483.00000
    49.9802     7860.00000
    49.9933     7971.00000
    50.0064     8403.00000
    50.0196     9284.00000
    50.0327    10283.00000
    50.0458    11914.00000
    50.0590    14312.00000
    50.0721    16566.00000
    50.0852    18606.00000
    50.0984    19854.00000
    50.1115    18740.00000
    50.1246    16862.00000
    50.1377    14659.00000
    50.1509    12970.00000
    50.1640    11837.00000
    50.1771    11467.00000
    50.1903    11719.00000
    50.2034    12433.00000
    50.2165    13417.00000
    50.2297    13432.00000
    50.2428    13040.00000
    50.2559    12071.00000
    50.2690    10694.00000
    50.2822     9714.00000
    50.2953     8696.00000
    50.3084     8142.00000
    50.3216     7857.00000
    50.3347     7204.00000
    50.3478     7068.00000
    50.3610     6883.00000
    50.3741     6817.00000
    50.3872     6946.00000
    50.4003     6589.00000
    50.4135     6713.00000
    50.4266     6623.00000
    50.4397     6601.00000
    50.4529     6688.00000
    50.4660     6583.00000
    50.4791     6530.00000
    50.4923     6519.00000
    50.5054     6485.00000
    50.5185     6494.00000
    50.5317     6662.00000
    50.5448     6505.00000
    50.5579     6599.00000
    50.5710     6460.00000
    50.5842     6460.00000
    50.5973     6321.00000
    50.6104     6561.00000
    50.6236     6420.00000
    50.6367     6535.00000
    50.6498     6566.00000
    50.6630     6724.00000
    50.6761     6520.00000
    50.6892     6647.00000
    50.7023     6948.00000
    50.7155     7040.00000
    50.7286     7580.00000
    50.7417     8003.00000
    50.7549     8340.00000
    50.7680     8442.00000
    50.7811     8270.00000
    50.7943     8310.00000
    50.8074     8167.00000
    50.8205     8046.00000
    50.8336     7795.00000
    50.8468     7767.00000
    50.8599     7808.00000
    50.8730     7740.00000
    50.8862     7733.00000
    50.8993     7705.00000
    50.9124     7925.00000
    50.9256     7695.00000
    50.9387     7659.00000
    50.9518     7486.00000
    50.9649     7707.00000
    50.9781     7829.00000
    50.9912     8000.00000
    51.0043     8360.00000
    51.0175     8327.00000
    51.0306     8702.00000
    51.0437     8795.00000
    51.0569     8967.00000
    51.0700     8506.00000
    51.0831     8428.00000
    51.0963     8232.00000
    51.1094     7858.00000
    51.1225     7641.00000
    51.1356     7542.00000
    51.1488     7254.00000
    51.1619     7654.00000
    51.1750     7553.00000
    51.1882     7907.00000
    51.2013     7600.00000
    51.2144     7637.00000
    51.2276     7269.00000
    51.2407     7315.00000
    51.2538     6986.00000
    51.2669     6928.00000
    51.2801     6879.00000
    51.2932     6504.00000
    51.3063     6399.00000
    51.3195     6488.00000
    51.3326     6627.00000
    51.3457     6593.00000
    51.3589     6341.00000
    51.3720     6499.00000
    51.3851     6414.00000
    51.3982     6437.00000
    51.4114     6499.00000
    51.4245     6565.00000
    51.4376     6492.00000
    51.4508     6498.00000
    51.4639     6391.00000
    51.4770     6384.00000
    51.4902     6266.00000
    51.5033     6455.00000
    51.5164     6291.00000
    51.5296     6334.00000
    51.5427     6464.00000
    51.5558     6587.00000
    51.5689     6485.00000
    51.5821     6408.00000
    51.5952     6386.00000
    51.6083     6588.00000
    51.6215     6766.00000
    51.6346     6477.00000
    51.6477     6602.00000
    51.6609     6536.00000
    51.6740     6718.00000
    51.6871     6727.00000
    51.7002     7124.00000
    51.7134     7077.00000
    51.7265     7419.00000
    51.7396     8028.00000
    51.7528     8779.00000
    51.7659    10116.00000
    51.7790    11855.00000
    51.7922    13697.00000
    51.8053    14455.00000
    51.8184    13432.00000
    51.8315    11603.00000
    51.8447    10027.00000
    51.8578     9258.00000
    51.8709     8390.00000
    51.8841     8518.00000
    51.8972     8708.00000
    51.9103     9328.00000
    51.9235    10034.00000
    51.9366    10746.00000
    51.9497    10985.00000
    51.9628    10301.00000
    51.9760     9634.00000
    51.9891     9294.00000
    52.0022     9194.00000
    52.0154     8904.00000
    52.0285     8732.00000
    52.0416     8368.00000
    52.0548     7989.00000
    52.0679     7643.00000
    52.0810     7668.00000
    52.0942     7352.00000
    52.1073     7671.00000
    52.1204     7987.00000
    52.1335     8324.00000
    52.1467     8392.00000
    52.1598     8410.00000
    52.1729     8279.00000
    52.1861     7738.00000
    52.1992     7328.00000
    52.2123     7114.00000
    52.2255     6875.00000
    52.2386     6910.00000
    52.2517     6990.00000
    52.2648     6976.00000
    52.2780     6927.00000
    52.2911     7019.00000
    52.3042     6855.00000
    52.3174     6845.00000
    52.3305     6841.00000
    52.3436     6593.00000
    52.3568     6496.00000
    52.3699     6388.00000
    52.3830     6473.00000
    52.3961     6322.00000
    52.4093     6536.00000
    52.4224     6392.00000
    52.4355     6182.00000
    52.4487     6415.00000
    52.4618     6509.00000
    52.4749     6385.00000
    52.4881     6351.00000
    52.5012     6403.00000
    52.5143     6485.00000
    52.5275     6469.00000
    52.5406     6441.00000
    52.5537     6469.00000
    52.5668     6427.00000
    52.5800     6582.00000
    52.5931     6365.00000
    52.6062     6259.00000
    52.6194     6446.00000
    52.6325     6606.00000
    52.6456     6771.00000
    52.6588     7211.00000
    52.6719     7443.00000
    52.6850     7830.00000
    52.6981     8062.00000
    52.7113     7965.00000
    52.7244     7487.00000
    52.7375     7106.00000
    52.7507     6722.00000
    52.7638     6687.00000
    52.7769     6658.00000
    52.7901     6590.00000
    52.8032     6719.00000
    52.8163     7083.00000
    52.8294     7348.00000
    52.8426     7111.00000
    52.8557     7046.00000
    52.8688     6844.00000
    52.8820     6715.00000
    52.8951     6512.00000
    52.9082     6222.00000
    52.9214     6301.00000
    52.9345     6537.00000
    52.9476     6292.00000
    52.9608     6210.00000
    52.9739     6294.00000
    52.9870     6332.00000
    53.0001     6334.00000
    53.0133     6214.00000
    53.0264     6366.00000
    53.0395     6173.00000
    53.0527     6175.00000
    53.0658     6193.00000
    53.0789     6354.00000
    53.0921     6519.00000
    53.1052     6231.00000
    53.1183     6319.00000
    53.1314     6387.00000
    53.1446     6084.00000
    53.1577     6257.00000
    53.1708     6513.00000
    53.1840     6316.00000
    53.1971     6415.00000
    53.2102     6286.00000
    53.2234     6219.00000
    53.2365     6098.00000
    53.2496     6326.00000
    53.2627     6064.00000
    53.2759     6470.00000
    53.2890     6397.00000
    53.3021     5944.00000
    53.3153     6100.00000
    53.3284     6070.00000
    53.3415     6064.00000
    53.3547     6234.00000
    53.3678     6091.00000
    53.3809     6389.00000
    53.3941     6283.00000
    53.4072     6192.00000
    53.4203     6284.00000
    53.4334     6381.00000
    53.4466     6410.00000
    53.4597     6405.00000
    53.4728     6558.00000
    53.4860     6400.00000
    53.4991     6408.00000
    53.5122     6332.00000
    53.5254     6429.00000
    53.5385     6269.00000
    53.5516     6390.00000
    53.5647     6057.00000
    53.5779     6144.00000
    53.5910     6259.00000
    53.6041     6327.00000
    53.6173     6259.00000
    53.6304     6357.00000
    53.6435     6185.00000
    53.6567     6305.00000
    53.6698     6372.00000
    53.6829     6168.00000
    53.6960     6264.00000
    53.7092     6367.00000
    53.7223     6091.00000
    53.7354     6239.00000
    53.7486     6227.00000
    53.7617     6396.00000
    53.7748     6142.00000
    53.7880     6305.00000
    53.8011     6263.00000
    53.8142     6123.00000
    53.8274     6139.00000
    53.8405     6173.00000
    53.8536     6183.00000
    53.8667     6294.00000
    53.8799     6113.00000
    53.8930     6327.00000
    53.9061     6322.00000
    53.9193     6192.00000
    53.9324     6130.00000
    53.9455     6306.00000
    53.9587     6159.00000
    53.9718     6132.00000
    53.9849     6186.00000
    53.9980     6131.00000
    54.0112     6190.00000
    54.0243     6201.00000
    54.0374     6263.00000
    54.0506     6176.00000
    54.0637     6148.00000
    54.0768     6314.00000
    54.0900     6371.00000
    54.1031     6303.00000
    54.1162     6396.00000
    54.1293     6393.00000
    54.1425     6402.00000
    54.1556     6421.00000
    54.1687     6385.00000
    54.1819     6221.00000
    54.1950     6119.00000
    54.2081     6152.00000
    54.2213     6288.00000
    54.2344     6227.00000
    54.2475     6283.00000
    54.2607     6259.00000
    54.2738     6113.00000
    54.2869     6363.00000
    54.3000     6342.00000
    54.3132     6244.00000
    54.3263     6386.00000
    54.3394     6277.00000
    54.3526     6146.00000
    54.3657     6167.00000
    54.3788     6199.00000
    54.3920     6275.00000
    54.4051     6126.00000
    54.4182     6036.00000
    54.4313     6006.00000
    54.4445     6117.00000
    54.4576     6225.00000
    54.4707     6317.00000
    54.4839     6111.00000
    54.4970     6038.00000
    54.5101     6251.00000
    54.5233     6286.00000
    54.5364     6295.00000
    54.5495     6232.00000
    54.5626     6199.00000
    54.5758     6182.00000
    54.5889     6239.00000
    54.6020     6078.00000
    54.6152     6244.00000
    54.6283     6284.00000
    54.6414     6139.00000
    54.6546     6252.00000
    54.6677     6147.00000
    54.6808     6223.00000
    54.6940     6194.00000
    54.7071     6186.00000
    54.7202     6106.00000
    54.7333     6066.00000
    54.7465     6124.00000
    54.7596     6190.00000
    54.7727     6060.00000
    54.7859     6185.00000
    54.7990     6119.00000
    54.8121     6238.00000
    54.8253     6255.00000
    54.8384     6291.00000
    54.8515     6207.00000
    54.8646     6102.00000
    54.8778     6180.00000
    54.8909     6168.00000
    54.9040     6044.00000
    54.9172     6359.00000
    54.9303     6323.00000
    54.9434     6137.00000
    54.9566     6319.00000
    54.9697     6181.00000
    54.9828     6386.00000
    54.9959     6212.00000
    55.0091     6230.00000
    55.0222     6360.00000
    55.0353     6263.00000
    55.0485     6339.00000
    55.0616     6332.00000
    55.0747     6251.00000
    55.0879     6138.00000
    55.1010     6220.00000
    55.1141     6286.00000
    55.1272     6173.00000
    55.1404     6082.00000
    55.1535     6261.00000
    55.1666     6117.00000
    55.1798     6281.00000
    55.1929     6263.00000
    55.2060     6271.00000
    55.2192     6149.00000
    55.2323     6344.00000
    55.2454     6196.00000
    55.2586     6157.00000
    55.2717     6179.00000
    55.2848     6163.00000
    55.2979     6180.00000
    55.3111     6281.00000
    55.3242     6415.00000
    55.3373     6277.00000
    55.3505     6243.00000
    55.3636     6293.00000
    55.3767     6265.00000
    55.3899     6395.00000
    55.4030     6292.00000
    55.4161     6314.00000
    55.4292     6246.00000
    55.4424     6236.00000
    55.4555     6405.00000
    55.4686     6434.00000
    55.4818     6500.00000
    55.4949     6597.00000
    55.5080     6697.00000
    55.5212     7188.00000
    55.5343     7664.00000
    55.5474     8020.00000
    55.5605     8316.00000
    55.5737     8262.00000
    55.5868     7726.00000
    55.5999     7591.00000
    55.6131     7108.00000
    55.6262     6879.00000
    55.6393     6600.00000
    55.6525     6675.00000
    55.6656     6654.00000
    55.6787     7003.00000
    55.6918     7339.00000
    55.7050     7189.00000
    55.7181     7506.00000
    55.7312     7028.00000
    55.7444     7030.00000
    55.7575     6757.00000
    55.7706     6774.00000
    55.7838     6708.00000
    55.7969     6481.00000
    55.8100     6491.00000
    55.8232     6457.00000
    55.8363     6443.00000
    55.8494     6481.00000
    55.8625     6516.00000
    55.8757     6698.00000
    55.8888     6672.00000
    55.9019     6782.00000
    55.9151     6691.00000
    55.9282     6425.00000
    55.9413     6750.00000
    55.9545     6774.00000
    55.9676     6884.00000
    55.9807     6960.00000
    55.9938     7299.00000
    56.0070     7586.00000
    56.0201     8039.00000
    56.0332     8372.00000
    56.0464     8599.00000
    56.0595     9342.00000
    56.0726     9853.00000
    56.0858    10790.00000
    56.0989    11214.00000
    56.1120    12032.00000
    56.1251    12319.00000
    56.1383    12018.00000
    56.1514    11392.00000
    56.1645    10626.00000
    56.1777    10108.00000
    56.1908     9318.00000
    56.2039     9069.00000
    56.2171     8886.00000
    56.2302     9007.00000
    56.2433     9147.00000
    56.2565     9178.00000
    56.2696     9374.00000
    56.2827     9370.00000
    56.2958     9080.00000
    56.3090     8783.00000
    56.3221     8417.00000
    56.3352     7805.00000
    56.3484     7466.00000
    56.3615     7219.00000
    56.3746     7213.00000
    56.3878     7149.00000
    56.4009     7208.00000
    56.4140     7179.00000
    56.4271     7189.00000
    56.4403     7187.00000
    56.4534     7190.00000
    56.4665     7038.00000
    56.4797     7021.00000
    56.4928     6952.00000
    56.5059     6879.00000
    56.5191     6538.00000
    56.5322     6818.00000
    56.5453     6791.00000
    56.5584     7183.00000
    56.5716     7011.00000
    56.5847     7269.00000
    56.5978     7332.00000
    56.6110     7891.00000
    56.6241     8363.00000
    56.6372     8812.00000
    56.6504     9444.00000
    56.6635     9704.00000
    56.6766     9205.00000
    56.6898     8743.00000
    56.7029     8146.00000
    56.7160     7643.00000
    56.7291     7425.00000
    56.7423     7385.00000
    56.7554     7098.00000
    56.7685     7355.00000
    56.7817     7582.00000
    56.7948     7778.00000
    56.8079     7914.00000
    56.8211     8179.00000
    56.8342     8264.00000
    56.8473     8053.00000
    56.8604     7770.00000
    56.8736     7514.00000
    56.8867     7443.00000
    56.8998     7353.00000
    56.9130     7621.00000
    56.9261     7807.00000
    56.9392     8285.00000
    56.9524     9073.00000
    56.9655     9711.00000
    56.9786    10117.00000
    56.9917    10292.00000
    57.0049    10242.00000
    57.0180     9573.00000
    57.0311     8614.00000
    57.0443     8000.00000
    57.0574     7754.00000
    57.0705     7295.00000
    57.0837     7329.00000
    57.0968     7632.00000
    57.1099     7835.00000
    57.1231     8276.00000
    57.1362     8342.00000
    57.1493     8243.00000
    57.1624     8153.00000
    57.1756     7727.00000
    57.1887     7343.00000
    57.2018     7406.00000
    57.2150     7021.00000
    57.2281     6842.00000
    57.2412     6978.00000
    57.2544     7041.00000
    57.2675     7197.00000
    57.2806     7008.00000
    57.2937     6999.00000
    57.3069     6941.00000
    57.3200     7061.00000
    57.3331     6837.00000
    57.3463     6647.00000
    57.3594     6779.00000
    57.3725     6887.00000
    57.3857     6622.00000
    57.3988     6615.00000
    57.4119     6739.00000
    57.4250     6627.00000
    57.4382     6661.00000
    57.4513     6683.00000
    57.4644     6777.00000
    57.4776     6618.00000
    57.4907     6557.00000
    57.5038     6716.00000
    57.5170     6540.00000
    57.5301     6427.00000
    57.5432     6545.00000
    57.5564     6213.00000
    57.5695     6334.00000
    57.5826     6345.00000
    57.5957     6201.00000
    57.6089     6472.00000
    57.6220     6216.00000
    57.6351     6173.00000
    57.6483     6310.00000
    57.6614     6242.00000
    57.6745     6477.00000
    57.6877     6381.00000
    57.7008     6250.00000
    57.7139     6407.00000
    57.7270     6400.00000
    57.7402     6245.00000
    57.7533     6115.00000
    57.7664     6386.00000
    57.7796     6437.00000
    57.7927     6401.00000
    57.8058     6280.00000
    57.8190     6474.00000
    57.8321     6340.00000
    57.8452     6485.00000
    57.8583     6553.00000
    57.8715     6431.00000
    57.8846     6501.00000
    57.8977     6768.00000
    57.9109     6913.00000
    57.9240     7015.00000
    57.9371     7282.00000
    57.9503     7302.00000
    57.9634     7368.00000
    57.9765     7546.00000
    57.9897     7542.00000
    58.0028     7687.00000
    58.0159     7863.00000
    58.0290     8095.00000
    58.0422     8547.00000
    58.0553     8848.00000
    58.0684     9344.00000
    58.0816    10006.00000
    58.0947    10748.00000
    58.1078    11430.00000
    58.1210    11784.00000
    58.1341    12000.00000
    58.1472    11680.00000
    58.1603    11123.00000
    58.1735    10271.00000
    58.1866     9736.00000
    58.1997     9265.00000
    58.2129     8905.00000
    58.2260     8633.00000
    58.2391     8736.00000
    58.2523     8806.00000
    58.2654     8933.00000
    58.2785     8998.00000
    58.2916     9211.00000
    58.3048     8935.00000
    58.3179     8648.00000
    58.3310     8202.00000
    58.3442     7641.00000
    58.3573     7387.00000
    58.3704     7098.00000
    58.3836     7035.00000
    58.3967     6694.00000
    58.4098     6603.00000
    58.4230     6632.00000
    58.4361     6446.00000
    58.4492     6365.00000
    58.4623     6405.00000
    58.4755     6312.00000
    58.4886     6443.00000
    58.5017     6376.00000
    58.5149     6302.00000
    58.5280     6189.00000
    58.5411     6316.00000
    58.5543     6378.00000
    58.5674     6262.00000
    58.5805     6060.00000
    58.5936     6305.00000
    58.6068     6251.00000
    58.6199     6043.00000
    58.6330     6250.00000
    58.6462     6306.00000
    58.6593     6221.00000
    58.6724     6348.00000
    58.6856     6336.00000
    58.6987     6263.00000
    58.7118     6311.00000
    58.7249     6254.00000
    58.7381     6497.00000
    58.7512     6454.00000
    58.7643     6429.00000
    58.7775     6410.00000
    58.7906     6516.00000
    58.8037     6484.00000
    58.8169     6637.00000
    58.8300     6560.00000
    58.8431     6575.00000
    58.8562     6687.00000
    58.8694     6729.00000
    58.8825     6958.00000
    58.8956     7025.00000
    58.9088     7061.00000
    58.9219     7061.00000
    58.9350     7226.00000
    58.9482     7247.00000
    58.9613     7313.00000
    58.9744     7522.00000
    58.9876     7598.00000
    59.0007     7700.00000
    59.0138     8073.00000
    59.0269     8114.00000
    59.0401     8089.00000
    59.0532     8434.00000
    59.0663     8743.00000
    59.0795     8855.00000
    59.0926     9024.00000
    59.1057     9204.00000
    59.1189     9209.00000
    59.1320     9032.00000
    59.1451     8541.00000
    59.1582     8339.00000
    59.1714     8133.00000
    59.1845     8183.00000
    59.1976     8213.00000
    59.2108     8385.00000
    59.2239     8488.00000
    59.2370     9085.00000
    59.2502     9597.00000
    59.2633    10201.00000
    59.2764    10791.00000
    59.2895    10925.00000
    59.3027    10881.00000
    59.3158    10711.00000
    59.3289    10564.00000
    59.3421    10243.00000
    59.3552     9984.00000
    59.3683     9845.00000
    59.3815     9486.00000
    59.3946     9208.00000
    59.4077     8798.00000
    59.4208     8819.00000
    59.4340     8852.00000
    59.4471     8844.00000
    59.4602     8864.00000
    59.4734     8836.00000
    59.4865     8695.00000
    59.4996     8711.00000
    59.5128     8522.00000
    59.5259     8631.00000
    59.5390     8790.00000
    59.5522     8594.00000
    59.5653     8654.00000
    59.5784     9201.00000
    59.5915     9337.00000
    59.6047     9600.00000
    59.6178    10100.00000
    59.6309    10196.00000
    59.6441     9888.00000
    59.6572     9566.00000
    59.6703     8788.00000
    59.6835     8388.00000
    59.6966     7772.00000
    59.7097     7586.00000
    59.7228     7528.00000
    59.7360     7552.00000
    59.7491     7742.00000
    59.7622     7787.00000
    59.7754     8166.00000
    59.7885     8044.00000
    59.8016     7950.00000
    59.8148     7950.00000
    59.8279     7663.00000
    59.8410     7414.00000
    59.8541     7222.00000
    59.8673     6904.00000
    59.8804     6768.00000
    59.8935     6746.00000
    59.9067     6407.00000
    59.9198     6553.00000
    59.9329     6525.00000
    59.9461     6586.00000
    59.9592     6397.00000
    59.9723     6685.00000
    59.9855     6585.00000
    59.9986     6499.00000
    60.0117     6577.00000
    60.0248     6710.00000
    60.0380     6752.00000
    60.0511     6721.00000
    60.0642     6889.00000
    60.0774     7189.00000
    60.0905     7547.00000
    60.1036     8037.00000
    60.1168     8665.00000
    60.1299     9578.00000
    60.1430    10585.00000
    60.1561    11860.00000
    60.1693    12278.00000
    60.1824    12125.00000
    60.1955    11554.00000
    60.2087    10733.00000
    60.2218     9814.00000
    60.2349     9009.00000
    60.2481     8400.00000
    60.2612     8123.00000
    60.2743     8137.00000
    60.2874     8451.00000
    60.3006     8501.00000
    60.3137     9202.00000
    60.3268     9160.00000
    60.3400     9232.00000
    60.3531     9166.00000
    60.3662     8824.00000
    60.3794     8220.00000
    60.3925     8028.00000
    60.4056     7544.00000
    60.4188     7053.00000
    60.4319     6829.00000
    60.4450     6615.00000
    60.4581     6457.00000
    60.4713     6428.00000
    60.4844     6471.00000
    60.4975     6216.00000
    60.5107     6378.00000
    60.5238     6199.00000
    60.5369     6342.00000
    60.5501     6379.00000
    60.5632     6209.00000
    60.5763     6306.00000
    60.5894     6311.00000
    60.6026     6248.00000
    60.6157     6242.00000
    60.6288     6288.00000
    60.6420     6259.00000
    60.6551     6272.00000
    60.6682     6205.00000
    60.6814     6239.00000
    60.6945     6163.00000
    60.7076     6328.00000
    60.7207     6275.00000
    60.7339     6273.00000
    60.7470     6197.00000
    60.7601     6534.00000
    60.7733     6436.00000
    60.7864     6454.00000
    60.7995     6677.00000
    60.8127     6840.00000
    60.8258     7074.00000
    60.8389     7148.00000
    60.8521     7411.00000
    60.8652     7994.00000
    60.8783     8493.00000
    60.8914     8694.00000
    60.9046     9010.00000
    60.9177     8836.00000
    60.9308     8589.00000
    60.9440     7909.00000
    60.9571     7446.00000
    60.9702     7199.00000
    60.9834     7100.00000
    60.9965     7042.00000
    61.0096     7102.00000
    61.0227     7246.00000
    61.0359     7394.00000
    61.0490     7581.00000
    61.0621     7998.00000
    61.0753     7926.00000
    61.0884     7857.00000
    61.1015     7797.00000
    61.1147     7254.00000
    61.1278     7103.00000
    61.1409     6863.00000
    61.1540     6689.00000
    61.1672     6565.00000
    61.1803     6361.00000
    61.1934     6286.00000
    61.2066     6419.00000
    61.2197     6432.00000
    61.2328     6431.00000
    61.2460     6458.00000
    61.2591     6511.00000
    61.2722     6489.00000
    61.2854     6492.00000
    61.2985     6635.00000
    61.3116     6457.00000
    61.3247     6490.00000
    61.3379     6569.00000
    61.3510     6417.00000
    61.3641     6228.00000
    61.3773     6508.00000
    61.3904     6583.00000
    61.4035     6448.00000
    61.4167     6568.00000
    61.4298     6440.00000
    61.4429     6636.00000
    61.4560     6825.00000
    61.4692     6887.00000
    61.4823     7031.00000
    61.4954     7218.00000
    61.5086     7463.00000
    61.5217     8101.00000
    61.5348     8627.00000
    61.5480     9228.00000
    61.5611    10108.00000
    61.5742    10727.00000
    61.5873    11168.00000
    61.6005    11505.00000
    61.6136    11560.00000
    61.6267    11399.00000
    61.6399    11410.00000
    61.6530    11478.00000
    61.6661    11535.00000
    61.6793    11778.00000
    61.6924    11714.00000
    61.7055    12051.00000
    61.7187    12177.00000
    61.7318    11855.00000
    61.7449    11496.00000
    61.7580    11239.00000
    61.7712    10518.00000
    61.7843    10250.00000
    61.7974     9804.00000
    61.8106     9455.00000
    61.8237     9109.00000
    61.8368     9172.00000
    61.8500     9060.00000
    61.8631     8663.00000
    61.8762     8877.00000
    61.8893     8597.00000
    61.9025     8321.00000
    61.9156     8082.00000
    61.9287     7558.00000
    61.9419     7124.00000
    61.9550     6982.00000
    61.9681     6785.00000
    61.9813     6547.00000
    61.9944     6358.00000
    62.0075     6410.00000
    62.0206     6399.00000
    62.0338     6310.00000
    62.0469     6319.00000
    62.0600     6310.00000
    62.0732     6270.00000
    62.0863     6150.00000
    62.0994     6176.00000
    62.1126     6173.00000
    62.1257     6120.00000
    62.1388     6371.00000
    62.1520     6293.00000
    62.1651     6224.00000
    62.1782     6154.00000
    62.1913     6091.00000
    62.2045     6185.00000
    62.2176     6092.00000
    62.2307     6063.00000
    62.2439     6047.00000
    62.2570     6027.00000
    62.2701     6039.00000
    62.2833     6190.00000
    62.2964     6118.00000
    62.3095     6039.00000
    62.3226     6080.00000
    62.3358     6174.00000
    62.3489     6184.00000
    62.3620     6030.00000
    62.3752     6030.00000
    62.3883     6039.00000
    62.4014     5989.00000
    62.4146     5905.00000
    62.4277     5879.00000
    62.4408     6012.00000
    62.4539     6066.00000
    62.4671     6162.00000
    62.4802     6036.00000
    62.4933     6085.00000
    62.5065     5994.00000
    62.5196     6003.00000
    62.5327     6000.00000
    62.5459     5943.00000
    62.5590     6009.00000
    62.5721     6058.00000
    62.5852     5970.00000
    62.5984     5970.00000
    62.6115     5929.00000
    62.6246     6133.00000
    62.6378     6182.00000
    62.6509     6221.00000
    62.6640     6133.00000
    62.6772     6134.00000
    62.6903     6049.00000
    62.7034     6122.00000
    62.7166     6018.00000
    62.7297     5865.00000
    62.7428     5954.00000
    62.7559     6029.00000
    62.7691     6021.00000
    62.7822     6029.00000
    62.7953     6045.00000
    62.8085     5989.00000
    62.8216     6059.00000
    62.8347     6085.00000
    62.8479     6129.00000
    62.8610     5861.00000
    62.8741     6212.00000
    62.8872     6022.00000
    62.9004     6176.00000
    62.9135     6071.00000
    62.9266     6108.00000
    62.9398     6006.00000
    62.9529     6123.00000
    62.9660     5910.00000
    62.9792     6141.00000
    62.9923     6160.00000
    63.0054     6175.00000
    63.0185     6099.00000
    63.0317     6012.00000
    63.0448     6065.00000
    63.0579     6046.00000
    63.0711     6068.00000
    63.0842     6135.00000
    63.0973     5993.00000
    63.1105     6010.00000
    63.1236     5987.00000
    63.1367     5913.00000
    63.1499     6036.00000
    63.1630     5956.00000
    63.1761     5900.00000
    63.1892     5890.00000
    63.2024     5953.00000
    63.2155     6056.00000
    63.2286     5932.00000
    63.2418     6051.00000
    63.2549     5971.00000
    63.2680     6152.00000
    63.2812     5949.00000
    63.2943     6182.00000
    63.3074     6141.00000
    63.3205     6211.00000
    63.3337     6100.00000
    63.3468     6021.00000
    63.3599     6000.00000
    63.3731     6053.00000
    63.3862     6076.00000
    63.3993     6048.00000
    63.4125     6177.00000
    63.4256     6019.00000
    63.4387     6203.00000
    63.4518     6136.00000
    63.4650     6116.00000
    63.4781     6092.00000
    63.4912     6174.00000
    63.5044     6248.00000
    63.5175     6428.00000
    63.5306     6264.00000
    63.5438     6443.00000
    63.5569     6453.00000
    63.5700     6563.00000
    63.5831     6568.00000
    63.5963     6731.00000
    63.6094     6877.00000
    63.6225     7225.00000
    63.6357     7924.00000
    63.6488     8390.00000
    63.6619     8521.00000
    63.6751     8493.00000
    63.6882     8714.00000
    63.7013     8582.00000
    63.7145     8457.00000
    63.7276     8230.00000
    63.7407     7979.00000
    63.7538     7707.00000
    63.7670     7480.00000
    63.7801     7323.00000
    63.7932     7343.00000
    63.8064     7105.00000
    63.8195     7391.00000
    63.8326     7298.00000
    63.8458     7503.00000
    63.8589     7518.00000
    63.8720     7608.00000
    63.8851     7525.00000
    63.8983     7349.00000
    63.9114     7042.00000
    63.9245     6950.00000
    63.9377     6789.00000
    63.9508     6765.00000
    63.9639     6632.00000
    63.9771     6417.00000
    63.9902     6434.00000
    64.0033     6288.00000
    64.0164     6263.00000
    64.0296     6335.00000
    64.0427     6139.00000
    64.0558     6226.00000
    64.0690     6149.00000
    64.0821     6247.00000
    64.0952     6152.00000
    64.1084     6264.00000
    64.1215     6049.00000
    64.1346     6031.00000
    64.1478     6010.00000
    64.1609     6194.00000
    64.1740     6091.00000
    64.1871     6199.00000
    64.2003     6137.00000
    64.2134     6109.00000
    64.2265     5970.00000
    64.2397     6009.00000
    64.2528     5845.00000
    64.2659     6026.00000
    64.2791     6112.00000
    64.2922     6039.00000
    64.3053     5991.00000
    64.3184     5919.00000
    64.3316     5907.00000
    64.3447     5939.00000
    64.3578     5972.00000
    64.3710     5994.00000
    64.3841     5893.00000
    64.3972     5858.00000
    64.4104     6169.00000
    64.4235     6190.00000
    64.4366     6120.00000
    64.4498     5985.00000
    64.4629     6047.00000
    64.4760     6053.00000
    64.4891     5932.00000
    64.5023     5984.00000
    64.5154     6029.00000
    64.5285     6077.00000
    64.5417     6030.00000
    64.5548     5865.00000
    64.5679     5892.00000
    64.5811     5932.00000
    64.5942     6028.00000
    64.6073     6235.00000
    64.6204     5925.00000
    64.6336     6136.00000
    64.6467     6284.00000
    64.6598     6087.00000
    64.6730     6163.00000
    64.6861     6150.00000
    64.6992     6362.00000
    64.7124     6343.00000
    64.7255     6411.00000
    64.7386     6582.00000
    64.7517     6723.00000
    64.7649     6825.00000
    64.7780     7101.00000
    64.7911     6975.00000
    64.8043     7114.00000
    64.8174     7045.00000
    64.8305     7084.00000
    64.8437     7059.00000
    64.8568     6892.00000
    64.8699     6616.00000
    64.8830     6646.00000
    64.8962     6441.00000
    64.9093     6403.00000
    64.9224     6535.00000
    64.9356     6689.00000
    64.9487     6630.00000
    64.9618     6593.00000
    64.9750     6646.00000
    64.9881     6571.00000
    65.0012     6605.00000
    65.0144     6641.00000
    65.0275     6616.00000
    65.0406     6391.00000
    65.0537     6306.00000
    65.0669     6510.00000
    65.0800     6178.00000
    65.0931     6205.00000
    65.1063     6328.00000
    65.1194     6034.00000
    65.1325     6001.00000
    65.1457     5991.00000
    65.1588     5976.00000
    65.1719     6017.00000
    65.1850     5838.00000
    65.1982     6001.00000
    65.2113     5937.00000
    65.2244     5859.00000
    65.2376     6063.00000
    65.2507     6061.00000
    65.2638     5947.00000
    65.2770     6026.00000
    65.2901     6057.00000
    65.3032     5939.00000
    65.3163     5889.00000
    65.3295     6101.00000
    65.3426     5871.00000
    65.3557     6004.00000
    65.3689     5870.00000
    65.3820     5832.00000
    65.3951     5967.00000
    65.4083     6033.00000
    65.4214     5953.00000
    65.4345     6008.00000
    65.4476     6098.00000
    65.4608     6048.00000
    65.4739     5959.00000
    65.4870     5987.00000
    65.5002     5926.00000
    65.5133     5966.00000
    65.5264     6066.00000
    65.5396     6139.00000
    65.5527     5907.00000
    65.5658     6049.00000
    65.5790     6046.00000
    65.5921     6145.00000
    65.6052     6000.00000
    65.6183     5916.00000
    65.6315     6160.00000
    65.6446     6054.00000
    65.6577     6219.00000
    65.6709     6032.00000
    65.6840     5952.00000
    65.6971     6114.00000
    65.7103     6034.00000
    65.7234     5931.00000
    65.7365     5960.00000
    65.7496     6060.00000
    65.7628     6046.00000
    65.7759     6094.00000
    65.7890     6120.00000
    65.8022     6093.00000
    65.8153     6166.00000
    65.8284     6142.00000
    65.8416     6207.00000
    65.8547     6049.00000
    65.8678     6146.00000
    65.8810     6014.00000
    65.8941     6010.00000
    65.9072     5919.00000
    65.9203     5922.00000
    65.9335     5958.00000
    65.9466     5905.00000
    65.9597     5852.00000
    65.9729     5975.00000
    65.9860     5914.00000
    65.9991     5992.00000
    66.0123     5881.00000
    66.0254     6052.00000
    66.0385     5874.00000
    66.0516     5953.00000
    66.0648     6066.00000
    66.0779     5919.00000
    66.0910     5863.00000
    66.1042     5942.00000
    66.1173     5932.00000
    66.1304     5913.00000
    66.1436     6058.00000
    66.1567     5864.00000
    66.1698     5936.00000
    66.1829     5937.00000
    66.1961     5941.00000
    66.2092     5801.00000
    66.2223     5651.00000
    66.2355     6036.00000
    66.2486     5836.00000
    66.2617     5990.00000
    66.2749     5933.00000
    66.2880     5914.00000
    66.3011     5902.00000
    66.3142     5880.00000
    66.3274     5985.00000
    66.3405     5986.00000
    66.3536     5973.00000
    66.3668     5744.00000
    66.3799     6008.00000
    66.3930     5806.00000
    66.4062     5815.00000
    66.4193     5876.00000
    66.4324     5816.00000
    66.4455     6012.00000
    66.4587     6151.00000
    66.4718     6109.00000
    66.4849     6132.00000
    66.4981     6092.00000
    66.5112     5909.00000
    66.5243     5907.00000
    66.5375     5968.00000
    66.5506     5905.00000
    66.5637     5957.00000
    66.5769     6184.00000
    66.5900     6061.00000
    66.6031     6118.00000
    66.6162     6015.00000
    66.6294     5942.00000
    66.6425     6037.00000
    66.6556     6217.00000
    66.6688     6340.00000
    66.6819     6020.00000
    66.6950     6162.00000
    66.7082     6167.00000
    66.7213     5849.00000
    66.7344     6056.00000
    66.7476     6090.00000
    66.7607     5866.00000
    66.7738     6197.00000
    66.7869     6172.00000
    66.8001     5935.00000
    66.8132     6128.00000
    66.8263     6182.00000
    66.8395     5941.00000
    66.8526     5955.00000
    66.8657     5966.00000
    66.8789     6183.00000
    66.8920     6037.00000
    66.9051     5954.00000
    66.9182     5844.00000
    66.9314     6014.00000
    66.9445     5859.00000
    66.9576     5908.00000
    66.9708     5976.00000
    66.9839     5955.00000
    66.9970     5992.00000
    67.0102     6007.00000
    67.0233     5896.00000
    67.0364     6008.00000
    67.0495     5851.00000
    67.0627     5998.00000
    67.0758     5881.00000
    67.0889     5777.00000
    67.1021     5963.00000
    67.1152     5931.00000
    67.1283     5962.00000
    67.1415     5943.00000
    67.1546     5956.00000
    67.1677     6047.00000
    67.1808     6072.00000
    67.1940     6018.00000
    67.2071     5726.00000
    67.2202     5919.00000
    67.2334     5853.00000
    67.2465     6042.00000
    67.2596     6008.00000
    67.2728     5987.00000
    67.2859     5981.00000
    67.2990     5821.00000
    67.3121     5883.00000
    67.3253     5861.00000
    67.3384     5934.00000
    67.3515     5980.00000
    67.3647     5897.00000
    67.3778     6115.00000
    67.3909     5963.00000
    67.4041     6098.00000
    67.4172     6067.00000
    67.4303     6109.00000
    67.4435     6159.00000
    67.4566     6010.00000
    67.4697     5877.00000
    67.4828     6108.00000
    67.4960     6024.00000
    67.5091     5924.00000
    67.5222     5826.00000
    67.5354     5819.00000
    67.5485     5796.00000
    67.5616     5921.00000
    67.5748     6057.00000
    67.5879     6003.00000
    67.6010     6235.00000
    67.6142     5841.00000
    67.6273     6064.00000
    67.6404     5865.00000
    67.6535     6151.00000
    67.6667     6098.00000
    67.6798     6058.00000
    67.6929     6007.00000
    67.7061     5859.00000
    67.7192     5873.00000
    67.7323     5813.00000
    67.7455     5878.00000
    67.7586     5737.00000
    67.7717     5803.00000
    67.7848     5899.00000
    67.7980     6049.00000
    67.8111     6058.00000
    67.8242     5824.00000
    67.8374     5866.00000
    67.8505     5714.00000
    67.8636     5804.00000
    67.8768     5960.00000
    67.8899     5685.00000
    67.9030     5962.00000
    67.9161     5914.00000
    67.9293     5841.00000
    67.9424     6054.00000
    67.9555     6061.00000
    67.9687     6018.00000
    67.9818     6090.00000
    67.9949     5946.00000
    68.0081     5979.00000
    68.0212     6065.00000
    68.0343     6039.00000
    68.0474     5997.00000
    68.0606     5891.00000
    68.0737     5838.00000
    68.0868     5999.00000
    68.1000     6103.00000
    68.1131     6150.00000
    68.1262     5915.00000
    68.1394     6150.00000
    68.1525     6016.00000
    68.1656     5971.00000
    68.1787     6053.00000
    68.1919     6023.00000
    68.2050     5959.00000
    68.2181     5894.00000
    68.2313     5833.00000
    68.2444     6000.00000
    68.2575     6169.00000
    68.2707     5857.00000
    68.2838     5914.00000
    68.2969     5939.00000
    68.3101     6109.00000
    68.3232     5995.00000
    68.3363     5858.00000
    68.3494     5868.00000
    68.3626     5932.00000
    68.3757     5995.00000
    68.3888     6042.00000
    68.4020     6012.00000
    68.4151     6018.00000
    68.4282     6139.00000
    68.4414     5999.00000
    68.4545     5950.00000
    68.4676     6005.00000
    68.4807     5913.00000
    68.4939     6054.00000
    68.5070     5850.00000
    68.5201     5916.00000
    68.5333     5955.00000
    68.5464     5890.00000
    68.5595     5849.00000
    68.5727     5985.00000
    68.5858     6131.00000
    68.5989     6139.00000
    68.6120     5894.00000
    68.6252     6060.00000
    68.6383     6014.00000
    68.6514     5939.00000
    68.6646     5829.00000
    68.6777     5764.00000
    68.6908     5912.00000
    68.7040     6141.00000
    68.7171     5800.00000
    68.7302     5961.00000
    68.7434     5873.00000
    68.7565     5920.00000
    68.7696     5922.00000
    68.7827     5908.00000
    68.7959     5811.00000
    68.8090     5942.00000
    68.8221     5861.00000
    68.8353     5898.00000
    68.8484     6026.00000
    68.8615     5915.00000
    68.8747     5973.00000
    68.8878     6076.00000
    68.9009     5901.00000
    68.9140     5954.00000
    68.9272     5878.00000
    68.9403     5912.00000
    68.9534     5957.00000
    68.9666     6016.00000
    68.9797     5974.00000
    68.9928     5806.00000
    69.0060     6169.00000
    69.0191     5894.00000
    69.0322     5896.00000
    69.0453     5947.00000
    69.0585     6000.00000
    69.0716     5890.00000
    69.0847     6039.00000
    69.0979     5984.00000
    69.1110     5988.00000
    69.1241     5972.00000
    69.1373     5873.00000
    69.1504     5954.00000
    69.1635     6032.00000
    69.1767     5988.00000
    69.1898     6236.00000
    69.2029     6082.00000
    69.2160     6267.00000
    69.2292     6233.00000
    69.2423     6421.00000
    69.2554     6426.00000
    69.2686     6451.00000
    69.2817     6601.00000
    69.2948     6750.00000
    69.3080     7039.00000
    69.3211     6902.00000
    69.3342     7307.00000
    69.3473     7550.00000
    69.3605     8040.00000
    69.3736     8421.00000
    69.3867     8519.00000
    69.3999     8511.00000
    69.4130     8480.00000
    69.4261     8394.00000
    69.4393     8107.00000
    69.4524     8138.00000
    69.4655     7903.00000
    69.4786     7795.00000
    69.4918     7719.00000
    69.5049     7700.00000
    69.5180     7473.00000
    69.5312     7404.00000
    69.5443     7216.00000
    69.5574     7330.00000
    69.5706     7355.00000
    69.5837     7374.00000
    69.5968     7626.00000
    69.6099     7528.00000
    69.6231     7444.00000
    69.6362     7579.00000
    69.6493     7496.00000
    69.6625     7508.00000
    69.6756     7706.00000
    69.6887     7665.00000
    69.7019     7537.00000
    69.7150     7524.00000
    69.7281     7374.00000
    69.7413     7035.00000
    69.7544     6755.00000
    69.7675     6610.00000
    69.7806     6652.00000
    69.7938     6635.00000
    69.8069     6603.00000
    69.8200     6632.00000
    69.8332     6936.00000
    69.8463     7261.00000
    69.8594     7598.00000
    69.8726     7973.00000
    69.8857     8179.00000
    69.8988     8648.00000
    69.9119     8924.00000
    69.9251     9071.00000
    69.9382     9000.00000
    69.9513     8812.00000
    69.9645     8228.00000
    69.9776     8124.00000
    69.9907     7772.00000
    70.0039     7427.00000
    70.0170     7228.00000
    70.0301     6801.00000
    70.0433     6866.00000
    70.0564     6888.00000
    70.0695     6771.00000
    70.0826     6978.00000
    70.0958     7073.00000
    70.1089     7319.00000
    70.1220     7319.00000
    70.1352     7239.00000
    70.1483     7293.00000
    70.1614     7251.00000
    70.1746     6930.00000
    70.1877     6910.00000
    70.2008     6659.00000
    70.2139     6556.00000
    70.2271     6405.00000
    70.2402     6208.00000
    70.2533     6010.00000
    70.2665     6035.00000
    70.2796     6075.00000
    70.2927     6060.00000
    70.3059     6057.00000
    70.3190     5975.00000
    70.3321     5990.00000
    70.3452     6097.00000
    70.3584     6010.00000
    70.3715     5959.00000
    70.3846     6087.00000
    70.3978     5998.00000
    70.4109     5905.00000
    70.4240     5873.00000
    70.4372     5791.00000
    70.4503     5863.00000
    70.4634     5849.00000
    70.4765     5938.00000
    70.4897     5855.00000
    70.5028     5831.00000
    70.5159     5855.00000
    70.5291     6015.00000
    70.5422     6040.00000
    70.5553     5950.00000
    70.5685     6019.00000
    70.5816     6118.00000
    70.5947     6045.00000
    70.6078     5993.00000
    70.6210     6008.00000
    70.6341     6137.00000
    70.6472     6115.00000
    70.6604     6046.00000
    70.6735     6054.00000
    70.6866     5945.00000
    70.6998     6033.00000
    70.7129     6166.00000
    70.7260     6070.00000
    70.7392     6125.00000
    70.7523     6201.00000
    70.7654     6106.00000
    70.7785     6109.00000
    70.7917     6118.00000
    70.8048     6239.00000
    70.8179     6179.00000
    70.8311     6178.00000
    70.8442     6111.00000
    70.8573     6032.00000
    70.8705     6102.00000
    70.8836     6028.00000
    70.8967     6064.00000
    70.9099     6114.00000
    70.9230     6129.00000
    70.9361     6262.00000
    70.9492     6272.00000
    70.9624     6444.00000
    70.9755     6454.00000
    70.9886     6643.00000
    71.0018     6653.00000
    71.0149     6648.00000
    71.0280     6764.00000
    71.0412     6596.00000
    71.0543     6598.00000
    71.0674     6626.00000
    71.0805     6525.00000
    71.0937     6533.00000
    71.1068     6311.00000
    71.1199     6299.00000
    71.1331     6348.00000
    71.1462     6225.00000
    71.1593     6205.00000
    71.1725     6224.00000
    71.1856     6420.00000
    71.1987     6330.00000
    71.2118     6440.00000
    71.2250     6341.00000
    71.2381     6472.00000
    71.2512     6366.00000
    71.2644     6395.00000
    71.2775     6509.00000
    71.2906     6281.00000
    71.3038     6309.00000
    71.3169     6281.00000
    71.3300     6183.00000
    71.3431     6205.00000
    71.3563     6108.00000
    71.3694     6175.00000
    71.3825     6039.00000
    71.3957     6175.00000
    71.4088     6145.00000
    71.4219     6142.00000
    71.4351     6119.00000
    71.4482     6093.00000
    71.4613     6297.00000
    71.4744     6390.00000
    71.4876     6003.00000
    71.5007     6098.00000
    71.5138     6060.00000
    71.5270     6139.00000
    71.5401     6137.00000
    71.5532     6032.00000
    71.5664     6058.00000
    71.5795     6110.00000
    71.5926     6140.00000
    71.6058     6200.00000
    71.6189     5991.00000
    71.6320     6139.00000
    71.6451     6078.00000
    71.6583     6065.00000
    71.6714     6264.00000
    71.6845     6001.00000
    71.6977     5959.00000
    71.7108     5884.00000
    71.7239     5981.00000
    71.7371     5899.00000
    71.7502     6025.00000
    71.7633     5997.00000
    71.7764     6024.00000
    71.7896     5833.00000
    71.8027     5978.00000
    71.8158     5891.00000
    71.8290     5927.00000
    71.8421     6065.00000
    71.8552     5910.00000
    71.8684     6044.00000
    71.8815     5867.00000
    71.8946     5905.00000
    71.9078     5949.00000
    71.9209     6039.00000
    71.9340     5982.00000
    71.9471     6046.00000
    71.9603     5956.00000
    71.9734     6018.00000
    71.9865     6084.00000
    71.9997     6199.00000
    72.0128     6176.00000
    72.0259     6255.00000
    72.0391     6324.00000
    72.0522     6348.00000
    72.0653     6513.00000
    72.0784     6565.00000
    72.0916     6585.00000
    72.1047     6567.00000
    72.1178     6644.00000
    72.1310     6852.00000
    72.1441     6739.00000
    72.1572     6620.00000
    72.1704     6635.00000
    72.1835     6660.00000
    72.1966     6604.00000
    72.2097     6653.00000
    72.2229     6837.00000
    72.2360     6710.00000
    72.2491     6867.00000
    72.2623     7084.00000
    72.2754     7542.00000
    72.2885     7481.00000
    72.3017     7877.00000
    72.3148     8216.00000
    72.3279     8261.00000
    72.3410     8321.00000
    72.3542     8352.00000
    72.3673     8278.00000
    72.3804     8024.00000
    72.3936     7916.00000
    72.4067     7506.00000
    72.4198     7349.00000
    72.4330     7114.00000
    72.4461     6748.00000
    72.4592     6859.00000
    72.4724     6790.00000
    72.4855     6668.00000
    72.4986     6870.00000
    72.5117     7115.00000
    72.5249     7137.00000
    72.5380     7100.00000
    72.5511     7133.00000
    72.5643     6805.00000
    72.5774     7022.00000
    72.5905     7004.00000
    72.6037     6786.00000
    72.6168     6541.00000
    72.6299     6563.00000
    72.6430     6516.00000
    72.6562     6204.00000
    72.6693     6075.00000
    72.6824     6150.00000
    72.6956     6082.00000
    72.7087     6131.00000
    72.7218     6109.00000
    72.7350     6019.00000
    72.7481     6081.00000
    72.7612     5933.00000
    72.7743     6000.00000
    72.7875     6053.00000
    72.8006     6056.00000
    72.8137     5912.00000
    72.8269     5940.00000
    72.8400     6022.00000
    72.8531     6026.00000
    72.8663     6101.00000
    72.8794     6175.00000
    72.8925     6175.00000
    72.9057     6321.00000
    72.9188     6527.00000
    72.9319     6500.00000
    72.9450     6478.00000
    72.9582     6448.00000
    72.9713     6378.00000
    72.9844     6204.00000
    72.9976     6020.00000
    73.0107     6137.00000
    73.0238     6222.00000
    73.0370     6033.00000
    73.0501     6047.00000
    73.0632     6189.00000
    73.0763     6006.00000
    73.0895     6166.00000
    73.1026     6102.00000
    73.1157     6293.00000
    73.1289     6268.00000
    73.1420     6389.00000
    73.1551     6083.00000
    73.1683     6125.00000
    73.1814     5984.00000
    73.1945     5939.00000
    73.2076     5907.00000
    73.2208     5934.00000
    73.2339     5956.00000
    73.2470     6077.00000
    73.2602     5853.00000
    73.2733     5855.00000
    73.2864     5937.00000
    73.2996     5942.00000
    73.3127     5889.00000
    73.3258     6008.00000
    73.3390     5987.00000
    73.3521     6112.00000
    73.3652     6041.00000
    73.3783     6048.00000
    73.3915     5929.00000
    73.4046     5903.00000
    73.4177     6078.00000
    73.4309     6053.00000
    73.4440     6086.00000
    73.4571     6000.00000
    73.4703     6223.00000
    73.4834     5980.00000
    73.4965     6150.00000
    73.5096     6270.00000
    73.5228     6120.00000
    73.5359     6046.00000
    73.5490     5911.00000
    73.5622     5982.00000
    73.5753     5934.00000
    73.5884     5940.00000
    73.6016     6101.00000
    73.6147     5901.00000
    73.6278     6098.00000
    73.6409     6129.00000
    73.6541     6150.00000
    73.6672     6079.00000
    73.6803     6112.00000
    73.6935     6357.00000
    73.7066     6342.00000
    73.7197     6179.00000
    73.7329     6331.00000
    73.7460     6288.00000
    73.7591     6325.00000
    73.7722     6565.00000
    73.7854     6759.00000
    73.7985     6840.00000
    73.8116     7112.00000
    73.8248     7116.00000
    73.8379     7281.00000
    73.8510     7457.00000
    73.8642     7403.00000
    73.8773     7433.00000
    73.8904     7283.00000
    73.9035     7202.00000
    73.9167     7074.00000
    73.9298     6743.00000
    73.9429     6553.00000
    73.9561     6512.00000
    73.9692     6480.00000
    73.9823     6382.00000
    73.9955     6239.00000
    74.0086     6505.00000
    74.0217     6428.00000
    74.0349     6575.00000
    74.0480     6792.00000
    74.0611     6623.00000
    74.0742     6656.00000
    74.0874     6522.00000
    74.1005     6612.00000
    74.1136     6584.00000
    74.1268     6516.00000
    74.1399     6479.00000
    74.1530     6571.00000
    74.1662     6288.00000
    74.1793     6159.00000
    74.1924     6102.00000
    74.2056     5998.00000
    74.2187     6113.00000
    74.2318     5947.00000
    74.2449     5967.00000
    74.2581     5947.00000
    74.2712     5939.00000
    74.2843     6179.00000
    74.2975     6133.00000
    74.3106     6128.00000
    74.3237     6178.00000
    74.3369     6290.00000
    74.3500     6157.00000
    74.3631     6276.00000
    74.3762     6183.00000
    74.3894     5953.00000
    74.4025     6097.00000
    74.4156     6216.00000
    74.4288     6184.00000
    74.4419     6073.00000
    74.4550     6228.00000
    74.4682     6395.00000
    74.4813     6204.00000
    74.4944     6021.00000
    74.5075     6224.00000
    74.5207     6105.00000
    74.5338     6227.00000
    74.5469     6406.00000
    74.5601     6426.00000
    74.5732     6600.00000
    74.5863     6577.00000
    74.5995     6822.00000
    74.6126     7006.00000
    74.6257     7090.00000
    74.6388     6932.00000
    74.6520     6886.00000
    74.6651     6769.00000
    74.6782     6683.00000
    74.6914     7003.00000
    74.7045     7075.00000
    74.7176     7355.00000
    74.7308     7498.00000
    74.7439     7791.00000
    74.7570     7827.00000
    74.7701     7887.00000
    74.7833     7870.00000
    74.7964     7750.00000
    74.8095     7554.00000
    74.8227     7424.00000
    74.8358     7010.00000
    74.8489     6948.00000
    74.8621     6703.00000
    74.8752     6763.00000
    74.8883     6394.00000
    74.9015     6585.00000
    74.9146     6589.00000
    74.9277     6629.00000
    74.9408     6734.00000
    74.9540     6576.00000
    74.9671     6776.00000
    74.9802     6935.00000
    74.9934     6866.00000
    75.0065     6680.00000
    75.0196     6483.00000
    75.0328     6435.00000
    75.0459     6464.00000
    75.0590     6320.00000
    75.0722     6182.00000
    75.0853     6009.00000
    75.0984     6001.00000
    75.1115     5830.00000
    75.1247     6132.00000
    75.1378     6244.00000
    75.1509     6094.00000
    75.1641     6165.00000
    75.1772     6196.00000
    75.1903     6022.00000
    75.2035     6187.00000
    75.2166     5849.00000
    75.2297     5952.00000
    75.2428     6032.00000
    75.2560     5936.00000
    75.2691     5943.00000
    75.2822     5874.00000
    75.2954     5836.00000
    75.3085     5861.00000
    75.3216     5934.00000
    75.3348     5889.00000
    75.3479     5964.00000
    75.3610     5900.00000
    75.3741     5939.00000
    75.3873     5728.00000
    75.4004     5971.00000
    75.4135     5914.00000
    75.4267     5879.00000
    75.4398     5885.00000
    75.4529     5814.00000
    75.4661     5837.00000
    75.4792     5758.00000
    75.4923     5677.00000
    75.5054     5770.00000
    75.5186     5757.00000
    75.5317     5854.00000
    75.5448     5948.00000
    75.5580     5850.00000
    75.5711     5956.00000
    75.5842     5758.00000
    75.5974     5871.00000
    75.6105     5941.00000
    75.6236     5725.00000
    75.6367     5831.00000
    75.6499     5930.00000
    75.6630     5890.00000
    75.6761     5858.00000
    75.6893     5864.00000
    75.7024     5754.00000
    75.7155     5791.00000
    75.7287     5755.00000
    75.7418     5813.00000
    75.7549     5745.00000
    75.7681     5812.00000
    75.7812     5889.00000
    75.7943     5898.00000
    75.8074     5824.00000
    75.8206     5968.00000
    75.8337     5881.00000
    75.8468     5795.00000
    75.8600     5865.00000
    75.8731     6016.00000
    75.8862     5807.00000
    75.8994     5996.00000
    75.9125     5833.00000
    75.9256     5994.00000
    75.9387     5913.00000
    75.9519     5997.00000
    75.9650     5746.00000
    75.9781     5989.00000
    75.9913     5988.00000
    76.0044     5960.00000
    76.0175     5818.00000
    76.0307     6048.00000
    76.0438     5887.00000
    76.0569     6088.00000
    76.0701     6113.00000
    76.0832     6188.00000
    76.0963     5882.00000
    76.1094     6054.00000
    76.1226     6135.00000
    76.1357     6024.00000
    76.1488     5933.00000
    76.1620     5841.00000
    76.1751     5953.00000
    76.1882     5865.00000
    76.2014     5861.00000
    76.2145     5871.00000
    76.2276     5828.00000
    76.2407     5818.00000
    76.2539     5880.00000
    76.2670     5910.00000
    76.2801     6106.00000
    76.2933     5960.00000
    76.3064     5889.00000
    76.3195     5900.00000
    76.3327     5952.00000
    76.3458     6068.00000
    76.3589     6175.00000
    76.3720     6210.00000
    76.3852     5939.00000
    76.3983     5807.00000
    76.4114     5875.00000
    76.4246     6091.00000
    76.4377     6158.00000
    76.4508     5898.00000
    76.4640     5905.00000
    76.4771     5952.00000
    76.4902     5942.00000
    76.5033     6061.00000
    76.5165     6046.00000
    76.5296     6033.00000
    76.5427     6125.00000
    76.5559     6247.00000
    76.5690     6241.00000
    76.5821     6146.00000
    76.5953     6154.00000
    76.6084     6182.00000
    76.6215     6052.00000
    76.6347     6071.00000
    76.6478     5874.00000
    76.6609     6002.00000
    76.6740     5951.00000
    76.6872     5911.00000
    76.7003     5879.00000
    76.7134     5874.00000
    76.7266     5870.00000
    76.7397     5906.00000
    76.7528     6070.00000
    76.7660     6106.00000
    76.7791     6034.00000
    76.7922     6050.00000
    76.8053     6045.00000
    76.8185     5979.00000
    76.8316     5937.00000
    76.8447     6012.00000
    76.8579     6190.00000
    76.8710     5999.00000
    76.8841     6041.00000
    76.8973     6020.00000
    76.9104     5956.00000
    76.9235     5915.00000
    76.9366     5908.00000
    76.9498     5944.00000
    76.9629     5765.00000
    76.9760     5988.00000
    76.9892     5929.00000
    77.0023     6087.00000
    77.0154     6173.00000
    77.0286     6280.00000
    77.0417     6367.00000
    77.0548     6216.00000
    77.0679     6468.00000
    77.0811     6669.00000
    77.0942     6923.00000
    77.1073     7049.00000
    77.1205     7209.00000
    77.1336     7426.00000
    77.1467     7296.00000
    77.1599     7287.00000
    77.1730     7003.00000
    77.1861     7037.00000
    77.1993     6716.00000
    77.2124     6917.00000
    77.2255     6984.00000
    77.2386     7029.00000
    77.2518     7094.00000
    77.2649     7196.00000
    77.2780     7285.00000
    77.2912     7569.00000
    77.3043     7556.00000
    77.3174     7417.00000
    77.3306     7430.00000
    77.3437     7462.00000
    77.3568     7332.00000
    77.3699     6925.00000
    77.3831     6960.00000
    77.3962     6819.00000
    77.4093     6734.00000
    77.4225     6552.00000
    77.4356     6387.00000
    77.4487     6489.00000
    77.4619     6653.00000
    77.4750     6627.00000
    77.4881     6871.00000
    77.5013     6846.00000
    77.5144     6824.00000
    77.5275     7168.00000
    77.5406     7235.00000
    77.5538     7395.00000
    77.5669     7360.00000
    77.5800     7609.00000
    77.5932     7573.00000
    77.6063     7278.00000
    77.6194     7091.00000
    77.6326     6638.00000
    77.6457     6595.00000
    77.6588     6535.00000
    77.6719     6259.00000
    77.6851     6275.00000
    77.6982     6116.00000
    77.7113     6033.00000
    77.7245     6143.00000
    77.7376     6080.00000
    77.7507     6368.00000
    77.7639     6277.00000
    77.7770     6211.00000
    77.7901     6380.00000
    77.8032     6608.00000
    77.8164     6739.00000
    77.8295     6414.00000
    77.8426     6514.00000
    77.8558     6455.00000
    77.8689     6506.00000
    77.8820     6485.00000
    77.8952     6369.00000
    77.9083     6388.00000
    77.9214     6511.00000
    77.9345     6503.00000
    77.9477     6372.00000
    77.9608     6270.00000
    77.9739     6173.00000
    77.9871     5992.00000
    78.0002     6016.00000
    78.0133     6095.00000
    78.0265     5822.00000
    78.0396     5795.00000
    78.0527     5953.00000
    78.0658     5936.00000
    78.0790     5845.00000
    78.0921     5876.00000
    78.1052     5920.00000
    78.1184     6007.00000
    78.1315     6170.00000
    78.1446     6175.00000
    78.1578     5957.00000
    78.1709     5905.00000
    78.1840     5976.00000
    78.1972     6069.00000
    78.2103     6079.00000
    78.2234     5731.00000
    78.2365     5849.00000
    78.2497     5844.00000
    78.2628     5822.00000
    78.2759     5844.00000
    78.2891     5829.00000
    78.3022     5746.00000
    78.3153     5784.00000
    78.3285     5672.00000
    78.3416     5765.00000
    78.3547     5908.00000
    78.3679     5791.00000
    78.3810     5799.00000
    78.3941     5773.00000
    78.4072     5800.00000
    78.4204     5734.00000
    78.4335     5825.00000
    78.4466     5843.00000
    78.4598     5774.00000
    78.4729     5855.00000
    78.4860     5739.00000
    78.4992     5823.00000
    78.5123     5884.00000
    78.5254     5890.00000
    78.5385     5801.00000
    78.5517     5794.00000
    78.5648     5913.00000
    78.5779     5853.00000
    78.5911     5787.00000
    78.6042     5760.00000
    78.6173     5669.00000
    78.6305     5730.00000
    78.6436     5901.00000
    78.6567     5796.00000
    78.6698     5722.00000
    78.6830     5811.00000
    78.6961     5765.00000
    78.7092     5777.00000
    78.7224     5820.00000
    78.7355     5838.00000
    78.7486     5692.00000
    78.7618     5891.00000
    78.7749     5874.00000
    78.7880     5800.00000
    78.8011     5852.00000
    78.8143     5804.00000
    78.8274     5888.00000
    78.8405     6036.00000
    78.8537     5956.00000
    78.8668     5854.00000
    78.8799     5869.00000
    78.8931     5959.00000
    78.9062     6005.00000
    78.9193     6097.00000
    78.9324     6014.00000
    78.9456     5970.00000
    78.9587     6119.00000
    78.9718     6225.00000
    78.9850     6087.00000
    78.9981     6010.00000
    79.0112     5932.00000
    79.0244     6024.00000
    79.0375     6084.00000
    79.0506     6033.00000
    79.0638     5974.00000
    79.0769     6060.00000
    79.0900     6055.00000
    79.1031     6033.00000
    79.1163     5921.00000
    79.1294     6035.00000
    79.1425     6029.00000
    79.1557     6175.00000
    79.1688     6117.00000
    79.1819     5826.00000
    79.1951     6029.00000
    79.2082     6107.00000
    79.2213     6136.00000
    79.2345     6173.00000
    79.2476     6126.00000
    79.2607     6021.00000
    79.2738     5959.00000
    79.2870     5990.00000
    79.3001     6081.00000
    79.3132     6183.00000
    79.3264     6271.00000
    79.3395     6021.00000
    79.3526     6077.00000
    79.3658     6180.00000
    79.3789     6126.00000
    79.3920     6069.00000
    79.4051     5921.00000
    79.4183     6258.00000
    79.4314     6001.00000
    79.4445     6253.00000
    79.4577     6292.00000
    79.4708     6238.00000
    79.4839     6243.00000
    79.4971     6408.00000
    79.5102     6367.00000
    79.5233     6569.00000
    79.5364     6308.00000
    79.5496     6635.00000
    79.5627     6634.00000
    79.5758     6814.00000
    79.5890     6789.00000
    79.6021     6854.00000
    79.6152     6965.00000
    79.6284     6997.00000
    79.6415     6942.00000
    79.6546     6821.00000
    79.6677     6896.00000
    79.6809     6668.00000
    79.6940     6374.00000
    79.7071     6379.00000
    79.7203     6279.00000
    79.7334     6428.00000
    79.7465     6389.00000
    79.7597     6543.00000
    79.7728     6419.00000
    79.7859     6466.00000
    79.7990     6581.00000
    79.8122     6596.00000
    79.8253     6778.00000
    79.8384     6695.00000
    79.8516     6826.00000
    79.8647     6795.00000
    79.8778     6911.00000
    79.8910     6805.00000
    79.9041     6931.00000
    79.9172     6842.00000
    79.9304     6972.00000
    79.9435     6937.00000
    79.9566     6893.00000
    79.9697     6769.00000
    79.9829     7015.00000
    79.9960     7103.00000
    80.0091     7018.00000
    80.0223     7203.00000
    80.0354     7050.00000
    80.0485     7125.00000
    80.0617     6900.00000
    80.0748     6922.00000
    80.0879     7070.00000
    80.1010     6954.00000
    80.1142     6705.00000
    80.1273     6750.00000
    80.1404     6631.00000
    80.1536     6526.00000
    80.1667     6445.00000
    80.1798     6310.00000
    80.1930     6537.00000
    80.2061     6513.00000
    80.2192     6538.00000
    80.2323     6439.00000
    80.2455     6570.00000
    80.2586     6559.00000
    80.2717     6300.00000
    80.2849     6578.00000
    80.2980     6366.00000
    80.3111     6411.00000
    80.3243     6280.00000
    80.3374     6234.00000
    80.3505     6189.00000
    80.3637     6190.00000
    80.3768     6066.00000
    80.3899     6203.00000
    80.4030     6048.00000
    80.4162     6080.00000
    80.4293     6153.00000
    80.4424     6132.00000
    80.4556     5941.00000
    80.4687     6062.00000
    80.4818     5957.00000
    80.4950     6048.00000
    80.5081     5952.00000
    80.5212     5921.00000
    80.5343     6157.00000
    80.5475     6179.00000
    80.5606     6226.00000
    80.5737     6256.00000
    80.5869     6150.00000
    80.6000     6094.00000
    80.6131     6276.00000
    80.6263     6070.00000
    80.6394     6246.00000
    80.6525     6279.00000
    80.6656     6247.00000
    80.6788     6205.00000
    80.6919     6138.00000
    80.7050     5870.00000
    80.7182     6147.00000
    80.7313     5877.00000
    80.7444     5822.00000
    80.7576     5855.00000
    80.7707     5849.00000
    80.7838     5974.00000
    80.7970     5953.00000
    80.8101     6028.00000
    80.8232     6044.00000
    80.8363     5906.00000
    80.8495     6104.00000
    80.8626     6106.00000
    80.8757     6234.00000
    80.8889     5887.00000
    80.9020     6029.00000
    80.9151     6077.00000
    80.9283     6102.00000
    80.9414     6035.00000
    80.9545     6026.00000
    80.9676     6031.00000
    80.9808     5970.00000
    80.9939     6043.00000
    81.0070     6147.00000
    81.0202     6059.00000
    81.0333     6036.00000
    81.0464     6078.00000
    81.0596     6225.00000
    81.0727     6465.00000
    81.0858     6689.00000
    81.0989     6768.00000
    81.1121     6742.00000
    81.1252     6684.00000
    81.1383     6628.00000
    81.1515     6430.00000
    81.1646     6534.00000
    81.1777     6394.00000
    81.1909     6233.00000
    81.2040     6338.00000
    81.2171     6366.00000
    81.2302     6330.00000
    81.2434     6453.00000
    81.2565     6215.00000
    81.2696     6282.00000
    81.2828     6422.00000
    81.2959     6477.00000
    81.3090     6395.00000
    81.3222     6534.00000
    81.3353     6639.00000
    81.3484     6750.00000
    81.3616     6869.00000
    81.3747     6865.00000
    81.3878     6955.00000
    81.4009     6979.00000
    81.4141     6905.00000
    81.4272     7014.00000
    81.4403     6777.00000
    81.4535     6615.00000
    81.4666     6588.00000
    81.4797     6439.00000
    81.4929     6468.00000
    81.5060     6346.00000
    81.5191     6197.00000
    81.5322     6293.00000
    81.5454     6370.00000
    81.5585     6251.00000
    81.5716     6339.00000
    81.5848     6475.00000
    81.5979     6414.00000
    81.6110     6325.00000
    81.6242     6346.00000
    81.6373     6377.00000
    81.6504     6243.00000
    81.6636     6442.00000
    81.6767     6409.00000
    81.6898     6483.00000
    81.7029     6284.00000
    81.7161     6506.00000
    81.7292     6271.00000
    81.7423     6367.00000
    81.7555     6204.00000
    81.7686     6407.00000
    81.7817     6333.00000
    81.7949     6362.00000
    81.8080     6536.00000
    81.8211     6583.00000
    81.8342     6731.00000
    81.8474     6713.00000
    81.8605     6800.00000
    81.8736     6748.00000
    81.8868     6958.00000
    81.8999     6875.00000
    81.9130     6859.00000
    81.9262     6714.00000
    81.9393     6687.00000
    81.9524     6802.00000
    81.9655     6597.00000
    81.9787     6448.00000
    81.9918     6460.00000
    82.0049     6511.00000
    82.0181     6376.00000
    82.0312     6380.00000
    82.0443     6352.00000
    82.0575     6323.00000
    82.0706     6405.00000
    82.0837     6239.00000
    82.0968     6294.00000
    82.1100     6360.00000
    82.1231     6214.00000
    82.1362     6456.00000
    82.1494     6255.00000
    82.1625     6261.00000
    82.1756     6303.00000
    82.1888     6306.00000
    82.2019     6191.00000
    82.2150     6233.00000
    82.2281     6056.00000
    82.2413     5955.00000
    82.2544     5960.00000
    82.2675     6021.00000
    82.2807     5980.00000
    82.2938     5830.00000
    82.3069     5921.00000
    82.3201     5803.00000
    82.3332     5919.00000
    82.3463     5785.00000
    82.3595     5825.00000
    82.3726     5710.00000
    82.3857     5940.00000
    82.3988     6008.00000
    82.4120     6047.00000
    82.4251     5932.00000
    82.4382     5983.00000
    82.4514     5848.00000
    82.4645     5873.00000
    82.4776     5953.00000
    82.4908     5900.00000
    82.5039     6059.00000
    82.5170     5924.00000
    82.5302     5901.00000
    82.5433     5917.00000
    82.5564     5906.00000
    82.5695     5811.00000
    82.5827     5988.00000
    82.5958     5945.00000
    82.6089     5899.00000
    82.6221     5819.00000
    82.6352     6000.00000
    82.6483     5903.00000
    82.6615     6036.00000
    82.6746     5857.00000
    82.6877     5917.00000
    82.7008     5898.00000
    82.7140     5829.00000
    82.7271     5830.00000
    82.7402     5966.00000
    82.7534     6062.00000
    82.7665     6015.00000
    82.7796     5996.00000
    82.7928     5982.00000
    82.8059     6065.00000
    82.8190     6195.00000
    82.8321     6134.00000
    82.8453     6301.00000
    82.8584     6351.00000
    82.8715     6188.00000
    82.8847     6239.00000
    82.8978     6236.00000
    82.9109     6293.00000
    82.9241     6242.00000
    82.9372     6206.00000
    82.9503     6237.00000
    82.9634     6298.00000
    82.9766     6330.00000
    82.9897     6437.00000
    83.0028     6200.00000
    83.0160     6180.00000
    83.0291     6144.00000
    83.0422     6164.00000
    83.0554     6028.00000
    83.0685     6215.00000
    83.0816     6197.00000
    83.0947     6211.00000
    83.1079     6233.00000
    83.1210     6200.00000
    83.1341     6376.00000
    83.1473     6272.00000
    83.1604     6415.00000
    83.1735     6503.00000
    83.1867     6616.00000
    83.1998     6726.00000
    83.2129     6730.00000
    83.2261     7010.00000
    83.2392     7023.00000
    83.2523     6894.00000
    83.2654     6978.00000
    83.2786     6792.00000
    83.2917     6752.00000
    83.3048     6569.00000
    83.3180     6631.00000
    83.3311     6505.00000
    83.3442     6323.00000
    83.3574     6080.00000
    83.3705     6059.00000
    83.3836     6027.00000
    83.3967     6223.00000
    83.4099     5997.00000
    83.4230     5939.00000
    83.4361     6033.00000
    83.4493     6300.00000
    83.4624     6087.00000
    83.4755     6120.00000
    83.4887     6451.00000
    83.5018     6418.00000
    83.5149     6290.00000
    83.5281     6251.00000
    83.5412     6280.00000
    83.5543     6163.00000
    83.5674     6112.00000
    83.5806     6079.00000
    83.5937     5990.00000
    83.6068     5988.00000
    83.6200     6001.00000
    83.6331     5864.00000
    83.6462     5864.00000
    83.6594     5935.00000
    83.6725     5737.00000
    83.6856     5860.00000
    83.6987     5863.00000
    83.7119     5896.00000
    83.7250     6009.00000
    83.7381     5954.00000
    83.7513     5762.00000
    83.7644     5952.00000
    83.7775     5994.00000
    83.7907     5975.00000
    83.8038     5942.00000
    83.8169     5845.00000
    83.8300     5842.00000
    83.8432     5730.00000
    83.8563     5858.00000
    83.8694     5824.00000
    83.8826     5724.00000
    83.8957     5751.00000
    83.9088     5808.00000
    83.9220     5788.00000
    83.9351     5727.00000
    83.9482     5789.00000
    83.9613     5682.00000
    83.9745     5573.00000
    83.9876     5696.00000
    84.0007     5905.00000
    84.0139     5776.00000
    84.0270     5885.00000
    84.0401     5976.00000
    84.0533     5627.00000
    84.0664     5740.00000
    84.0795     5754.00000
    84.0927     5866.00000
    84.1058     5674.00000
    84.1189     5733.00000
    84.1320     5857.00000
    84.1452     5735.00000
    84.1583     5669.00000
    84.1714     5600.00000
    84.1846     5789.00000
    84.1977     5756.00000
    84.2108     5726.00000
    84.2240     5731.00000
    84.2371     5772.00000
    84.2502     5837.00000
    84.2633     5928.00000
    84.2765     5812.00000
    84.2896     5841.00000
    84.3027     5738.00000
    84.3159     5877.00000
    84.3290     5771.00000
    84.3421     5723.00000
    84.3553     5894.00000
    84.3684     5606.00000
    84.3815     5847.00000
    84.3946     5688.00000
    84.4078     5643.00000
    84.4209     5896.00000
    84.4340     5892.00000
    84.4472     5817.00000
    84.4603     5776.00000
    84.4734     5689.00000
    84.4866     5910.00000
    84.4997     5968.00000
    84.5128     5721.00000
    84.5260     5759.00000
    84.5391     5783.00000
    84.5522     5684.00000
    84.5653     5664.00000
    84.5785     5960.00000
    84.5916     5955.00000
    84.6047     5865.00000
    84.6179     6013.00000
    84.6310     5962.00000
    84.6441     5871.00000
    84.6573     5937.00000
    84.6704     6037.00000
    84.6835     6033.00000
    84.6966     5917.00000
    84.7098     5853.00000
    84.7229     5941.00000
    84.7360     5640.00000
    84.7492     5698.00000
    84.7623     5776.00000
    84.7754     5798.00000
    84.7886     5888.00000
    84.8017     5901.00000
    84.8148     5755.00000
    84.8279     5815.00000
    84.8411     5721.00000
    84.8542     5834.00000
    84.8673     5756.00000
    84.8805     5707.00000
    84.8936     5824.00000
    84.9067     5898.00000
    84.9199     5942.00000
    84.9330     5976.00000
    84.9461     5980.00000
    84.9593     5804.00000
    84.9724     5946.00000
    84.9855     5863.00000
    84.9986     5876.00000
    85.0118     5841.00000
    85.0249     5764.00000
    85.0380     5793.00000
    85.0512     5728.00000
    85.0643     5831.00000
    85.0774     5882.00000
    85.0906     6040.00000
    85.1037     6078.00000
    85.1168     6237.00000
    85.1299     6051.00000
    85.1431     6069.00000
    85.1562     6305.00000
    85.1693     6187.00000
    85.1825     6326.00000
    85.1956     6425.00000
    85.2087     6416.00000
    85.2219     6512.00000
    85.2350     6396.00000
    85.2481     6543.00000
    85.2612     6393.00000
    85.2744     6187.00000
    85.2875     6097.00000
    85.3006     5971.00000
    85.3138     6002.00000
    85.3269     5993.00000
    85.3400     6064.00000
    85.3532     5970.00000
    85.3663     5874.00000
    85.3794     5912.00000
    85.3925     5770.00000
    85.4057     5915.00000
    85.4188     6073.00000
    85.4319     6121.00000
    85.4451     5977.00000
    85.4582     6068.00000
    85.4713     6110.00000
    85.4845     6276.00000
    85.4976     6154.00000
    85.5107     6283.00000
    85.5238     5995.00000
    85.5370     6042.00000
    85.5501     6010.00000
    85.5632     6042.00000
    85.5764     6113.00000
    85.5895     5851.00000
    85.6026     6029.00000
    85.6158     5920.00000
    85.6289     5944.00000
    85.6420     6069.00000
    85.6552     5999.00000
    85.6683     5836.00000
    85.6814     5805.00000
    85.6945     5844.00000
    85.7077     5827.00000
    85.7208     5743.00000
    85.7339     5711.00000
    85.7471     5718.00000
    85.7602     5920.00000
    85.7733     5896.00000
    85.7865     5834.00000
    85.7996     5893.00000
    85.8127     5934.00000
    85.8259     5767.00000
    85.8390     5911.00000
    85.8521     6014.00000
    85.8652     5946.00000
    85.8784     5762.00000
    85.8915     5818.00000
    85.9046     5986.00000
    85.9178     5954.00000
    85.9309     5928.00000
    85.9440     5929.00000
    85.9572     6014.00000
    85.9703     6158.00000
    85.9834     6128.00000
    85.9965     6056.00000
    86.0097     6180.00000
    86.0228     6058.00000
    86.0359     5932.00000
    86.0491     5961.00000
    86.0622     5603.00000
    86.0753     5819.00000
    86.0885     5776.00000
    86.1016     5845.00000
    86.1147     5680.00000
    86.1278     5729.00000
    86.1410     5770.00000
    86.1541     5918.00000
    86.1672     5903.00000
    86.1804     5953.00000
    86.1935     5682.00000
    86.2066     5850.00000
    86.2198     5932.00000
    86.2329     5855.00000
    86.2460     5983.00000
    86.2591     5871.00000
    86.2723     5933.00000
    86.2854     5863.00000
    86.2985     5883.00000
    86.3117     5784.00000
    86.3248     5878.00000
    86.3379     5797.00000
    86.3511     5857.00000
    86.3642     5875.00000
    86.3773     5739.00000
    86.3904     5857.00000
    86.4036     5799.00000
    86.4167     5778.00000
    86.4298     5920.00000
    86.4430     5792.00000
    86.4561     5607.00000
    86.4692     5788.00000
    86.4824     5751.00000
    86.4955     5790.00000
    86.5086     5833.00000
    86.5218     5824.00000
    86.5349     5698.00000
    86.5480     5736.00000
    86.5611     5831.00000
    86.5743     5575.00000
    86.5874     5773.00000
    86.6005     5827.00000
    86.6137     5836.00000
    86.6268     5669.00000
    86.6399     5720.00000
    86.6531     5991.00000
    86.6662     5846.00000
    86.6793     5873.00000
    86.6925     5959.00000
    86.7056     5834.00000
    86.7187     5687.00000
    86.7318     5896.00000
    86.7450     5707.00000
    86.7581     5832.00000
    86.7712     5833.00000
    86.7844     5779.00000
    86.7975     5844.00000
    86.8106     5846.00000
    86.8238     5939.00000
    86.8369     5977.00000
    86.8500     5903.00000
    86.8631     5926.00000
    86.8763     6096.00000
    86.8894     6084.00000
    86.9025     6228.00000
    86.9157     6331.00000
    86.9288     6427.00000
    86.9419     6544.00000
    86.9551     6580.00000
    86.9682     6672.00000
    86.9813     6753.00000
    86.9944     6731.00000
    87.0076     6510.00000
    87.0207     6657.00000
    87.0338     6534.00000
    87.0470     6486.00000
    87.0601     6403.00000
    87.0732     6156.00000
    87.0864     6309.00000
    87.0995     6275.00000
    87.1126     6095.00000
    87.1257     6208.00000
    87.1389     6079.00000
    87.1520     6188.00000
    87.1651     6070.00000
    87.1783     6234.00000
    87.1914     6269.00000
    87.2045     6333.00000
    87.2177     6332.00000
    87.2308     6516.00000
    87.2439     6559.00000
    87.2570     6560.00000
    87.2702     6609.00000
    87.2833     6725.00000
    87.2964     6694.00000
    87.3096     6839.00000
    87.3227     6935.00000
    87.3358     6977.00000
    87.3490     6708.00000
    87.3621     6677.00000
    87.3752     6282.00000
    87.3884     6306.00000
    87.4015     6322.00000
    87.4146     6218.00000
    87.4277     6219.00000
    87.4409     6044.00000
    87.4540     6143.00000
    87.4671     6151.00000
    87.4803     5954.00000
    87.4934     6122.00000
    87.5065     6028.00000
    87.5197     6248.00000
    87.5328     6182.00000
    87.5459     6442.00000
    87.5590     6418.00000
    87.5722     6476.00000
    87.5853     6495.00000
    87.5984     6837.00000
    87.6116     6756.00000
    87.6247     6759.00000
    87.6378     6739.00000
    87.6510     6710.00000
    87.6641     6766.00000
    87.6772     6648.00000
    87.6904     6698.00000
    87.7035     6650.00000
    87.7166     6523.00000
    87.7297     6169.00000
    87.7429     6159.00000
    87.7560     6231.00000
    87.7691     6015.00000
    87.7823     6073.00000
    87.7954     6198.00000
    87.8085     6179.00000
    87.8217     6123.00000
    87.8348     5919.00000
    87.8479     5920.00000
    87.8610     6092.00000
    87.8742     6088.00000
    87.8873     6184.00000
    87.9004     6283.00000
    87.9136     6257.00000
    87.9267     6243.00000
    87.9398     6215.00000
    87.9530     6157.00000
    87.9661     6130.00000
    87.9792     6211.00000
    87.9923     6014.00000
    88.0055     6106.00000
    88.0186     6066.00000
    88.0317     6002.00000
    88.0449     5989.00000
    88.0580     5905.00000
    88.0711     5853.00000
    88.0843     5922.00000
    88.0974     6022.00000
    88.1105     5951.00000
    88.1236     6017.00000
    88.1368     5916.00000
    88.1499     6046.00000
    88.1630     6227.00000
    88.1762     5837.00000
    88.1893     5890.00000
    88.2024     5919.00000
    88.2156     5964.00000
    88.2287     6027.00000
    88.2418     5924.00000
    88.2550     6042.00000
    88.2681     6011.00000
    88.2812     5998.00000
    88.2943     6044.00000
    88.3075     6007.00000
    88.3206     5869.00000
    88.3337     5864.00000
    88.3469     5841.00000
    88.3600     5820.00000
    88.3731     5781.00000
    88.3863     5880.00000
    88.3994     6013.00000
    88.4125     5994.00000
    88.4256     6015.00000
    88.4388     5821.00000
    88.4519     6012.00000
    88.4650     6158.00000
    88.4782     6115.00000
    88.4913     5894.00000
    88.5044     6055.00000
    88.5176     6152.00000
    88.5307     6165.00000
    88.5438     5926.00000
    88.5569     6109.00000
    88.5701     5992.00000
    88.5832     6023.00000
    88.5963     6251.00000
    88.6095     6257.00000
    88.6226     6226.00000
    88.6357     6564.00000
    88.6489     6557.00000
    88.6620     6541.00000
    88.6751     6690.00000
    88.6882     6620.00000
    88.7014     6477.00000
    88.7145     6429.00000
    88.7276     6298.00000
    88.7408     6193.00000
    88.7539     6241.00000
    88.7670     6331.00000
    88.7802     6315.00000
    88.7933     6064.00000
    88.8064     6238.00000
    88.8196     6206.00000
    88.8327     6204.00000
    88.8458     6202.00000
    88.8589     6274.00000
    88.8721     6398.00000
    88.8852     6435.00000
    88.8983     6617.00000
    88.9115     6645.00000
    88.9246     6844.00000
    88.9377     6713.00000
    88.9509     6694.00000
    88.9640     6617.00000
    88.9771     6566.00000
    88.9902     6386.00000
    89.0034     6246.00000
    89.0165     6136.00000
    89.0296     6241.00000
    89.0428     6145.00000
    89.0559     6174.00000
    89.0690     6103.00000
    89.0822     6138.00000
    89.0953     6101.00000
    89.1084     6044.00000
    89.1216     6042.00000
    89.1347     6217.00000
    89.1478     6138.00000
    89.1609     6021.00000
    89.1741     6245.00000
    89.1872     6329.00000
    89.2003     6443.00000
    89.2135     6459.00000
    89.2266     6520.00000
    89.2397     6436.00000
    89.2529     6401.00000
    89.2660     6381.00000
    89.2791     6325.00000
    89.2922     6529.00000
    89.3054     6299.00000
    89.3185     6171.00000
    89.3316     6133.00000
    89.3448     6203.00000
    89.3579     6386.00000
    89.3710     6191.00000
    89.3842     6223.00000
    89.3973     6122.00000
    89.4104     6186.00000
    89.4235     6323.00000
    89.4367     6172.00000
    89.4498     6340.00000
    89.4629     6303.00000
    89.4761     6430.00000
    89.4892     6273.00000
    89.5023     6450.00000
    89.5155     6298.00000
    89.5286     6301.00000
    89.5417     6354.00000
    89.5548     6500.00000
    89.5680     6664.00000
    89.5811     6632.00000
    89.5942     6607.00000
    89.6074     6462.00000
    89.6205     6495.00000
    89.6336     6568.00000
    89.6468     6421.00000
    89.6599     6195.00000
    89.6730     6188.00000
    89.6861     6133.00000
    89.6993     6276.00000
    89.7124     6169.00000
    89.7255     6327.00000
    89.7387     6065.00000
    89.7518     6160.00000
    89.7649     6128.00000
    89.7781     6134.00000
    89.7912     6146.00000
    89.8043     6148.00000
    89.8175     6247.00000
    89.8306     6219.00000
    89.8437     6139.00000
    89.8568     6322.00000
    89.8700     6476.00000
    89.8831     6470.00000
    89.8962     6304.00000
    89.9094     6580.00000
    89.9225     6666.00000
    89.9356     6692.00000
    89.9488     6785.00000
    89.9619     6940.00000
    89.9750     6985.00000
    89.9882     7399.00000
    90.0013     7215.00000
    90.0144     7062.00000
    90.0275     6965.00000
    90.0407     6799.00000
    90.0538     6820.00000
    90.0669     6683.00000
    90.0801     6599.00000
    90.0932     6545.00000
    90.1063     6435.00000
    90.1195     6321.00000
    90.1326     6167.00000
    90.1457     6112.00000
    90.1588     6117.00000
    90.1720     6031.00000
    90.1851     5981.00000
    90.1982     6062.00000
    90.2114     6128.00000
    90.2245     6303.00000
    90.2376     6190.00000
    90.2508     6385.00000
    90.2639     6460.00000
    90.2770     6528.00000
    90.2901     6569.00000
    90.3033     6249.00000
    90.3164     6316.00000
    90.3295     6295.00000
    90.3427     6019.00000
    90.3558     6085.00000
    90.3689     6179.00000
    90.3821     6067.00000
    90.3952     5979.00000
    90.4083     5820.00000
    90.4214     5797.00000
    90.4346     5993.00000
    90.4477     5752.00000
    90.4608     5863.00000
    90.4740     5728.00000
    90.4871     5714.00000
    90.5002     5835.00000
    90.5134     5684.00000
    90.5265     5802.00000
    90.5396     5848.00000
    90.5527     5818.00000
    90.5659     5793.00000
    90.5790     5793.00000
    90.5921     5776.00000
    90.6053     5709.00000
    90.6184     5914.00000
    90.6315     5821.00000
    90.6447     5756.00000
    90.6578     5666.00000
    90.6709     5738.00000
    90.6841     5526.00000
    90.6972     5596.00000
    90.7103     5656.00000
    90.7234     5956.00000
    90.7366     5652.00000
    90.7497     5660.00000
    90.7628     5845.00000
    90.7760     5760.00000
    90.7891     5807.00000
    90.8022     5698.00000
    90.8154     5717.00000
    90.8285     5751.00000
    90.8416     5782.00000
    90.8548     5721.00000
    90.8679     5667.00000
    90.8810     5696.00000
    90.8941     5837.00000
    90.9073     5811.00000
    90.9204     5728.00000
    90.9335     5721.00000
    90.9467     5722.00000
    90.9598     5788.00000
    90.9729     5746.00000
    90.9861     5636.00000
    90.9992     5624.00000
    91.0123     5871.00000
    91.0254     5804.00000
    91.0386     5901.00000
    91.0517     5960.00000
    91.0648     5775.00000
    91.0780     5682.00000
    91.0911     5919.00000
    91.1042     5795.00000
    91.1174     5758.00000
    91.1305     5679.00000
    91.1436     5658.00000
    91.1567     5796.00000
    91.1699     5709.00000
    91.1830     5807.00000
    91.1961     5741.00000
    91.2093     5608.00000
    91.2224     5922.00000
    91.2355     5736.00000
    91.2487     5738.00000
    91.2618     5708.00000
    91.2749     5743.00000
    91.2880     5787.00000
    91.3012     5895.00000
    91.3143     5747.00000
    91.3274     5758.00000
    91.3406     5806.00000
    91.3537     5760.00000
    91.3668     6048.00000
    91.3800     5711.00000
    91.3931     5742.00000
    91.4062     5786.00000
    91.4193     5656.00000
    91.4325     5762.00000
    91.4456     5773.00000
    91.4587     5887.00000
    91.4719     5613.00000
    91.4850     5747.00000
    91.4981     5814.00000
    91.5113     5785.00000
    91.5244     5820.00000
    91.5375     5768.00000
    91.5507     5712.00000
    91.5638     5886.00000
    91.5769     6020.00000
    91.5900     5946.00000
    91.6032     5739.00000
    91.6163     5747.00000
    91.6294     5715.00000
    91.6426     5721.00000
    91.6557     5814.00000
    91.6688     5929.00000
    91.6820     5897.00000
    91.6951     5910.00000
    91.7082     5787.00000
    91.7213     5772.00000
    91.7345     5735.00000
    91.7476     5836.00000
    91.7607     5916.00000
    91.7739     6030.00000
    91.7870     5946.00000
    91.8001     5997.00000
    91.8133     6024.00000
    91.8264     6021.00000
    91.8395     6016.00000
    91.8526     5982.00000
    91.8658     6002.00000
    91.8789     6164.00000
    91.8920     6141.00000
    91.9052     6075.00000
    91.9183     6038.00000
    91.9314     5977.00000
    91.9446     6079.00000
    91.9577     6046.00000
    91.9708     6027.00000
    91.9840     6019.00000
    91.9971     5938.00000
    92.0102     6009.00000
    92.0233     6195.00000
    92.0365     6093.00000
    92.0496     5875.00000
    92.0627     5808.00000
    92.0759     5928.00000
    92.0890     5966.00000
    92.1021     6025.00000
    92.1153     5943.00000
    92.1284     5922.00000
    92.1415     5935.00000
    92.1546     6009.00000
    92.1678     5978.00000
    92.1809     6184.00000
    92.1940     6083.00000
    92.2072     6199.00000
    92.2203     6321.00000
    92.2334     6093.00000
    92.2466     6188.00000
    92.2597     6243.00000
    92.2728     6291.00000
    92.2859     6210.00000
    92.2991     6131.00000
    92.3122     6276.00000
    92.3253     6350.00000
    92.3385     6340.00000
    92.3516     6307.00000
    92.3647     6180.00000
    92.3779     6313.00000
    92.3910     6200.00000
    92.4041     6350.00000
    92.4173     6237.00000
    92.4304     6190.00000
    92.4435     6204.00000
    92.4566     6313.00000
    92.4698     6379.00000
    92.4829     6413.00000
    92.4960     6476.00000
    92.5092     6472.00000
    92.5223     6650.00000
    92.5354     6707.00000
    92.5486     6696.00000
    92.5617     6895.00000
    92.5748     6755.00000
    92.5879     6957.00000
    92.6011     7048.00000
    92.6142     6977.00000
    92.6273     7016.00000
    92.6405     7058.00000
    92.6536     6953.00000
    92.6667     6702.00000
    92.6799     6776.00000
    92.6930     6716.00000
    92.7061     6578.00000
    92.7192     6510.00000
    92.7324     6482.00000
    92.7455     6619.00000
    92.7586     6486.00000
    92.7718     6440.00000
    92.7849     6315.00000
    92.7980     6470.00000
    92.8112     6348.00000
    92.8243     6246.00000
    92.8374     6449.00000
    92.8505     6463.00000
    92.8637     6203.00000
    92.8768     6387.00000
    92.8899     6457.00000
    92.9031     6379.00000
    92.9162     6226.00000
    92.9293     6261.00000
    92.9425     6301.00000
    92.9556     6162.00000
    92.9687     6146.00000
    92.9819     6130.00000
    92.9950     6270.00000
    93.0081     6119.00000
    93.0212     6095.00000
    93.0344     5961.00000
    93.0475     5980.00000
    93.0606     6103.00000
    93.0738     6047.00000
    93.0869     5923.00000
    93.1000     5995.00000
    93.1132     6023.00000
    93.1263     6009.00000
    93.1394     5819.00000
    93.1525     6012.00000
    93.1657     5817.00000
    93.1788     5761.00000
    93.1919     5702.00000
    93.2051     5754.00000
    93.2182     5766.00000
    93.2313     5822.00000
    93.2445     5858.00000
    93.2576     5756.00000
    93.2707     5718.00000
    93.2839     5764.00000
    93.2970     5584.00000
    93.3101     5800.00000
    93.3232     5870.00000
    93.3364     5734.00000
    93.3495     5784.00000
    93.3626     5823.00000
    93.3758     5826.00000
    93.3889     5832.00000
    93.4020     5860.00000
    93.4152     5896.00000
    93.4283     5892.00000
    93.4414     5775.00000
    93.4545     5738.00000
    93.4677     5870.00000
    93.4808     5858.00000
    93.4939     5769.00000
    93.5071     5968.00000
    93.5202     5996.00000
    93.5333     5972.00000
    93.5465     6054.00000
    93.5596     5930.00000
    93.5727     5787.00000
    93.5858     5889.00000
    93.5990     6093.00000
    93.6121     5878.00000
    93.6252     6036.00000
    93.6384     5999.00000
    93.6515     6105.00000
    93.6646     5791.00000
    93.6778     5879.00000
    93.6909     6134.00000
    93.7040     5886.00000
    93.7171     5768.00000
    93.7303     5806.00000
    93.7434     5768.00000
    93.7565     5831.00000
    93.7697     5735.00000
    93.7828     5661.00000
    93.7959     5838.00000
    93.8091     5935.00000
    93.8222     5794.00000
    93.8353     5843.00000
    93.8484     5773.00000
    93.8616     5778.00000
    93.8747     5919.00000
    93.8878     5762.00000
    93.9010     5727.00000
    93.9141     5706.00000
    93.9272     5819.00000
    93.9404     5785.00000
    93.9535     5802.00000
    93.9666     5936.00000
    93.9798     5779.00000
    93.9929     5824.00000
    94.0060     5835.00000
    94.0191     5721.00000
    94.0323     5795.00000
    94.0454     5852.00000
    94.0585     5787.00000
    94.0717     5764.00000
    94.0848     5808.00000
    94.0979     5645.00000
    94.1111     5792.00000
    94.1242     5744.00000
    94.1373     5765.00000
    94.1505     5835.00000
    94.1636     5690.00000
    94.1767     5708.00000
    94.1898     5760.00000
    94.2030     5772.00000
    94.2161     5705.00000
    94.2292     5788.00000
    94.2424     5826.00000
    94.2555     5702.00000
    94.2686     5931.00000
    94.2818     5760.00000
    94.2949     5766.00000
    94.3080     5751.00000
    94.3211     5784.00000
    94.3343     5815.00000
    94.3474     5832.00000
    94.3605     5880.00000
    94.3737     5912.00000
    94.3868     5917.00000
    94.3999     6086.00000
    94.4131     5919.00000
    94.4262     6187.00000
    94.4393     6329.00000
    94.4524     6312.00000
    94.4656     6299.00000
    94.4787     6226.00000
    94.4918     6216.00000
    94.5050     6339.00000
    94.5181     6226.00000
    94.5312     6253.00000
    94.5444     6479.00000
    94.5575     6304.00000
    94.5706     6287.00000
    94.5837     6190.00000
    94.5969     6097.00000
    94.6100     6125.00000
    94.6231     6056.00000
    94.6363     5979.00000
    94.6494     5973.00000
    94.6625     5726.00000
    94.6757     5846.00000
    94.6888     6138.00000
    94.7019     5840.00000
    94.7150     6058.00000
    94.7282     6085.00000
    94.7413     6031.00000
    94.7544     5846.00000
    94.7676     5960.00000
    94.7807     6059.00000
    94.7938     5995.00000
    94.8070     6024.00000
    94.8201     6015.00000
    94.8332     6120.00000
    94.8464     6169.00000
    94.8595     6048.00000
    94.8726     6054.00000
    94.8857     6141.00000
    94.8989     5836.00000
    94.9120     5882.00000
    94.9251     5860.00000
    94.9383     5526.00000
    94.9514     5926.00000
    94.9645     5910.00000
    94.9777     5754.00000
    94.9908     5801.00000
    95.0039     5688.00000
    95.0170     5740.00000
    95.0302     5649.00000
    95.0433     5746.00000
    95.0564     5724.00000
    95.0696     5629.00000
    95.0827     5808.00000
    95.0958     5939.00000
    95.1090     5763.00000
    95.1221     5844.00000
    95.1352     5750.00000
    95.1484     5826.00000
    95.1615     5829.00000
    95.1746     5841.00000
    95.1877     5961.00000
    95.2009     5963.00000
    95.2140     5986.00000
    95.2271     5888.00000
    95.2403     5935.00000
    95.2534     5986.00000
    95.2665     6020.00000
    95.2797     6068.00000
    95.2928     6160.00000
    95.3059     6238.00000
    95.3190     6156.00000
    95.3322     6219.00000
    95.3453     6134.00000
    95.3584     6194.00000
    95.3716     6279.00000
    95.3847     6260.00000
    95.3978     6182.00000
    95.4110     6307.00000
    95.4241     6249.00000
    95.4372     6212.00000
    95.4503     6202.00000
    95.4635     6274.00000
    95.4766     6219.00000
    95.4897     6279.00000
    95.5029     6333.00000
    95.5160     6276.00000
    95.5291     6279.00000
    95.5423     6280.00000
    95.5554     6273.00000
    95.5685     6200.00000
    95.5816     6076.00000
    95.5948     6219.00000
    95.6079     6325.00000
    95.6210     6211.00000
    95.6342     6248.00000
    95.6473     6335.00000
    95.6604     6293.00000
    95.6736     6351.00000
    95.6867     6304.00000
    95.6998     6500.00000
    95.7130     6470.00000
    95.7261     6462.00000
    95.7392     6627.00000
    95.7523     6647.00000
    95.7655     6539.00000
    95.7786     6559.00000
    95.7917     6375.00000
    95.8049     6709.00000
    95.8180     6598.00000
    95.8311     6723.00000
    95.8443     6711.00000
    95.8574     6747.00000
    95.8705     6734.00000
    95.8836     6551.00000
    95.8968     6369.00000
    95.9099     6390.00000
    95.9230     6324.00000
    95.9362     6071.00000
    95.9493     6054.00000
    95.9624     5937.00000
    95.9756     5751.00000
    95.9887     6012.00000
    96.0018     6092.00000
    96.0149     6066.00000
    96.0281     5981.00000
    96.0412     5960.00000
    96.0543     6081.00000
    96.0675     5978.00000
    96.0806     6118.00000
    96.0937     5988.00000
    96.1069     6061.00000
    96.1200     5988.00000
    96.1331     6150.00000
    96.1463     6087.00000
    96.1594     6198.00000
    96.1725     5952.00000
    96.1856     6087.00000
    96.1988     6201.00000
    96.2119     6144.00000
    96.2250     6339.00000
    96.2382     6094.00000
    96.2513     6142.00000
    96.2644     6329.00000
    96.2776     6136.00000
    96.2907     6103.00000
    96.3038     6269.00000
    96.3169     6226.00000
    96.3301     6167.00000
    96.3432     6271.00000
    96.3563     6223.00000
    96.3695     6124.00000
    96.3826     6258.00000
    96.3957     6208.00000
    96.4089     6161.00000
    96.4220     6075.00000
    96.4351     5966.00000
    96.4482     5879.00000
    96.4614     5960.00000
    96.4745     5979.00000
    96.4876     5913.00000
    96.5008     5863.00000
    96.5139     5956.00000
    96.5270     5881.00000
    96.5402     5903.00000
    96.5533     5984.00000
    96.5664     6034.00000
    96.5796     5900.00000
    96.5927     5847.00000
    96.6058     5867.00000
    96.6189     5922.00000
    96.6321     6159.00000
    96.6452     5964.00000
    96.6583     5984.00000
    96.6715     5802.00000
    96.6846     5920.00000
    96.6977     5985.00000
    96.7109     5838.00000
    96.7240     5891.00000
    96.7371     5823.00000
    96.7502     6012.00000
    96.7634     5793.00000
    96.7765     5960.00000
    96.7896     5871.00000
    96.8028     5808.00000
    96.8159     5855.00000
    96.8290     5588.00000
    96.8422     5737.00000
    96.8553     5727.00000
    96.8684     5596.00000
    96.8815     5722.00000
    96.8947     5721.00000
    96.9078     5725.00000
    96.9209     5701.00000
    96.9341     5789.00000
    96.9472     5733.00000
    96.9603     5546.00000
    96.9735     5623.00000
    96.9866     5566.00000
    96.9997     5579.00000
    97.0128     5578.00000
    97.0260     5681.00000
    97.0391     5647.00000
    97.0522     5635.00000
    97.0654     5755.00000
    97.0785     5573.00000
    97.0916     5633.00000
    97.1048     5828.00000
    97.1179     5768.00000
    97.1310     5584.00000
    97.1442     5674.00000
    97.1573     5703.00000
    97.1704     5722.00000
    97.1835     5718.00000
    97.1967     5731.00000
    97.2098     5766.00000
    97.2229     5741.00000
    97.2361     5699.00000
    97.2492     5662.00000
    97.2623     5790.00000
    97.2755     5548.00000
    97.2886     5668.00000
    97.3017     5619.00000
    97.3148     5643.00000
    97.3280     5648.00000
    97.3411     5834.00000
    97.3542     5838.00000
    97.3674     5920.00000
    97.3805     5877.00000
    97.3936     5666.00000
    97.4068     5600.00000
    97.4199     5706.00000
    97.4330     5715.00000
    97.4462     5733.00000
    97.4593     5762.00000
    97.4724     5763.00000
    97.4855     5887.00000
    97.4987     5783.00000
    97.5118     5940.00000
    97.5249     5863.00000
    97.5381     5726.00000
    97.5512     5825.00000
    97.5643     5786.00000
    97.5775     5909.00000
    97.5906     5996.00000
    97.6037     5921.00000
    97.6168     6131.00000
    97.6300     6053.00000
    97.6431     6128.00000
    97.6562     6170.00000
    97.6694     6172.00000
    97.6825     6185.00000
    97.6956     6139.00000
    97.7088     6269.00000
    97.7219     6263.00000
    97.7350     6284.00000
    97.7481     6071.00000
    97.7613     6174.00000
    97.7744     6182.00000
    97.7875     6210.00000
    97.8007     6361.00000
    97.8138     6227.00000
    97.8269     6421.00000
    97.8401     6163.00000
    97.8532     6363.00000
    97.8663     6207.00000
    97.8794     6098.00000
    97.8926     6045.00000
    97.9057     6053.00000
    97.9188     6133.00000
    97.9320     6073.00000
    97.9451     6016.00000
    97.9582     5946.00000
    97.9714     5894.00000
    97.9845     5898.00000
    97.9976     5714.00000
    98.0107     5917.00000
    98.0239     5898.00000
    98.0370     5925.00000
    98.0501     5918.00000
    98.0633     5979.00000
    98.0764     5970.00000
    98.0895     5867.00000
    98.1027     6004.00000
    98.1158     6047.00000
    98.1289     5888.00000
    98.1421     6024.00000
    98.1552     6199.00000
    98.1683     6033.00000
    98.1814     6145.00000
    98.1946     6169.00000
    98.2077     6024.00000
    98.2208     6115.00000
    98.2340     5822.00000
    98.2471     5954.00000
    98.2602     6133.00000
    98.2734     5921.00000
    98.2865     5829.00000
    98.2996     6063.00000
    98.3128     6011.00000
    98.3259     5793.00000
    98.3390     5898.00000
    98.3521     5833.00000
    98.3653     5916.00000
    98.3784     5754.00000
    98.3915     5826.00000
    98.4047     5794.00000
    98.4178     5716.00000
    98.4309     5686.00000
    98.4441     5752.00000
    98.4572     5708.00000
    98.4703     5786.00000
    98.4834     5748.00000
    98.4966     5644.00000
    98.5097     5851.00000
    98.5228     5819.00000
    98.5360     5753.00000
    98.5491     5631.00000
    98.5622     5847.00000
    98.5754     5820.00000
    98.5885     5872.00000
    98.6016     5763.00000
    98.6147     5656.00000
    98.6279     5776.00000
    98.6410     5906.00000
    98.6541     5876.00000
    98.6673     5784.00000
    98.6804     5816.00000
    98.6935     5817.00000
    98.7067     5824.00000
    98.7198     5622.00000
    98.7329     5758.00000
    98.7460     5970.00000
    98.7592     5694.00000
    98.7723     5847.00000
    98.7854     5919.00000
    98.7986     5839.00000
    98.8117     5884.00000
    98.8248     5880.00000
    98.8380     6125.00000
    98.8511     5788.00000
    98.8642     6004.00000
    98.8773     6046.00000
    98.8905     5946.00000
    98.9036     6005.00000
    98.9167     6092.00000
    98.9299     6008.00000
    98.9430     6012.00000
    98.9561     6042.00000
    98.9693     6241.00000
    98.9824     6211.00000
    98.9955     5983.00000
    99.0087     6053.00000
    99.0218     6041.00000
    99.0349     5930.00000
    99.0480     6001.00000
    99.0612     5843.00000
    99.0743     6048.00000
    99.0874     5900.00000
    99.1006     5792.00000
    99.1137     5879.00000
    99.1268     5777.00000
    99.1400     5681.00000
    99.1531     5721.00000
    99.1662     5874.00000
    99.1793     5929.00000
    99.1925     5861.00000
    99.2056     5838.00000
    99.2187     5886.00000
    99.2319     5878.00000
    99.2450     5917.00000
    99.2581     5846.00000
    99.2713     5914.00000
    99.2844     5949.00000
    99.2975     6243.00000
    99.3107     6059.00000
    99.3238     6294.00000
    99.3369     6135.00000
    99.3500     6091.00000
    99.3632     6093.00000
    99.3763     5950.00000
    99.3894     6034.00000
    99.4026     5932.00000
    99.4157     5868.00000
    99.4288     6019.00000
    99.4420     6001.00000
    99.4551     5873.00000
    99.4682     5752.00000
    99.4813     5829.00000
    99.4945     5755.00000
    99.5076     5684.00000
    99.5207     5672.00000
    99.5339     5772.00000
    99.5470     5760.00000
    99.5601     5741.00000
    99.5733     5617.00000
    99.5864     5793.00000
    99.5995     5822.00000
    99.6126     5818.00000
    99.6258     5857.00000
    99.6389     5695.00000
    99.6520     5801.00000
    99.6652     5891.00000
    99.6783     5874.00000
    99.6914     5719.00000
    99.7046     5774.00000
    99.7177     5672.00000
    99.7308     5714.00000
    99.7439     5765.00000
    99.7571     5723.00000
    99.7702     5670.00000
    99.7833     5730.00000
    99.7965     5664.00000
    99.8096     5579.00000
    99.8227     5699.00000
    99.8359     5646.00000
    99.8490     5655.00000
    99.8621     5713.00000
    99.8753     5602.00000
    99.8884     5633.00000
    99.9015     5638.00000
    99.9146     5703.00000
    99.9278     5776.00000
    99.9409     5756.00000
    99.9540     5604.00000
    99.9672     5777.00000
    99.9803     5663.00000
    99.9934     5708.00000
