! Initial file:   D:\ZAKARY_OUAIL\MA_THESE\Deuxième_année_de_thèse\DRX\Affinement_DRX\Fullprof\Thermodiff3-nuit_NaNbO2F2\270°C\NaNbO2F2-Lent_270°C.xrdml
! Initial format:  58
! WAVE (A):      1.54060     1.54060     1.00000
! REM : data have been multiplied by     1.0000
! X_data : 2 Theta (deg.)                                                                                                                                                                                                                                                  
! Y_data : Intensity (arb. units)                                                                                                                                                                                                                                          
!     X         Y
!--------------------------------------------------------------------------------
    10.0116     7473.00000
    10.0247     7509.00000
    10.0379     7596.00000
    10.0510     7420.00000
    10.0641     7556.00000
    10.0772     7458.00000
    10.0904     7493.00000
    10.1035     7641.00000
    10.1166     7581.00000
    10.1298     7575.00000
    10.1429     7634.00000
    10.1560     7759.00000
    10.1692     7609.00000
    10.1823     7539.00000
    10.1954     7720.00000
    10.2086     7895.00000
    10.2217     7498.00000
    10.2348     7429.00000
    10.2479     7636.00000
    10.2611     7626.00000
    10.2742     7519.00000
    10.2873     7675.00000
    10.3005     7512.00000
    10.3136     7470.00000
    10.3267     7444.00000
    10.3399     7569.00000
    10.3530     7501.00000
    10.3661     7440.00000
    10.3792     7542.00000
    10.3924     7483.00000
    10.4055     7536.00000
    10.4186     7639.00000
    10.4318     7355.00000
    10.4449     7415.00000
    10.4580     7569.00000
    10.4712     7649.00000
    10.4843     7694.00000
    10.4974     7625.00000
    10.5105     7504.00000
    10.5237     7441.00000
    10.5368     7600.00000
    10.5499     7597.00000
    10.5631     7569.00000
    10.5762     7604.00000
    10.5893     7514.00000
    10.6025     7467.00000
    10.6156     7498.00000
    10.6287     7475.00000
    10.6418     7467.00000
    10.6550     7464.00000
    10.6681     7483.00000
    10.6812     7584.00000
    10.6944     7701.00000
    10.7075     7451.00000
    10.7206     7719.00000
    10.7338     7588.00000
    10.7469     7509.00000
    10.7600     7633.00000
    10.7732     7707.00000
    10.7863     7529.00000
    10.7994     7536.00000
    10.8125     7647.00000
    10.8257     7596.00000
    10.8388     7674.00000
    10.8519     7805.00000
    10.8651     7810.00000
    10.8782     8104.00000
    10.8913     8020.00000
    10.9045     8042.00000
    10.9176     7965.00000
    10.9307     7877.00000
    10.9438     8115.00000
    10.9570     8161.00000
    10.9701     8249.00000
    10.9832     8176.00000
    10.9964     8290.00000
    11.0095     8343.00000
    11.0226     8506.00000
    11.0358     8478.00000
    11.0489     8581.00000
    11.0620     9088.00000
    11.0751     9194.00000
    11.0883     9620.00000
    11.1014    10026.00000
    11.1145    10851.00000
    11.1277    12012.00000
    11.1408    13557.00000
    11.1539    15682.00000
    11.1671    19151.00000
    11.1802    23856.00000
    11.1933    31133.00000
    11.2065    44947.00000
    11.2196    61934.00000
    11.2327    76733.00000
    11.2458    82811.00000
    11.2590    76688.00000
    11.2721    64144.00000
    11.2852    47693.00000
    11.2984    32575.00000
    11.3115    21405.00000
    11.3246    14976.00000
    11.3378    11385.00000
    11.3509     9878.00000
    11.3640     9172.00000
    11.3771     8869.00000
    11.3903     8713.00000
    11.4034     8353.00000
    11.4165     8353.00000
    11.4297     8359.00000
    11.4428     7998.00000
    11.4559     8004.00000
    11.4691     7812.00000
    11.4822     7995.00000
    11.4953     7723.00000
    11.5084     7635.00000
    11.5216     7676.00000
    11.5347     7732.00000
    11.5478     7727.00000
    11.5610     7777.00000
    11.5741     7666.00000
    11.5872     7509.00000
    11.6004     7607.00000
    11.6135     7475.00000
    11.6266     7663.00000
    11.6398     7509.00000
    11.6529     7793.00000
    11.6660     7648.00000
    11.6791     7576.00000
    11.6923     7580.00000
    11.7054     7554.00000
    11.7185     7708.00000
    11.7317     7773.00000
    11.7448     7782.00000
    11.7579     7900.00000
    11.7711     7936.00000
    11.7842     8061.00000
    11.7973     8094.00000
    11.8104     7895.00000
    11.8236     7991.00000
    11.8367     7881.00000
    11.8498     7982.00000
    11.8630     7804.00000
    11.8761     7989.00000
    11.8892     7758.00000
    11.9024     7785.00000
    11.9155     7977.00000
    11.9286     7810.00000
    11.9417     7953.00000
    11.9549     7850.00000
    11.9680     7820.00000
    11.9811     7869.00000
    11.9943     7729.00000
    12.0074     7960.00000
    12.0205     7777.00000
    12.0337     7746.00000
    12.0468     7668.00000
    12.0599     7929.00000
    12.0731     7966.00000
    12.0862     7974.00000
    12.0993     7975.00000
    12.1124     7993.00000
    12.1256     7907.00000
    12.1387     7932.00000
    12.1518     7971.00000
    12.1650     8004.00000
    12.1781     8007.00000
    12.1912     7945.00000
    12.2044     8187.00000
    12.2175     8149.00000
    12.2306     7893.00000
    12.2437     8113.00000
    12.2569     8088.00000
    12.2700     7953.00000
    12.2831     8016.00000
    12.2963     8315.00000
    12.3094     7910.00000
    12.3225     7964.00000
    12.3357     8004.00000
    12.3488     7976.00000
    12.3619     7985.00000
    12.3750     7900.00000
    12.3882     8115.00000
    12.4013     8039.00000
    12.4144     8065.00000
    12.4276     7951.00000
    12.4407     8009.00000
    12.4538     8090.00000
    12.4670     8022.00000
    12.4801     8218.00000
    12.4932     7927.00000
    12.5063     7872.00000
    12.5195     7922.00000
    12.5326     8016.00000
    12.5457     7899.00000
    12.5589     8151.00000
    12.5720     8002.00000
    12.5851     8016.00000
    12.5983     8026.00000
    12.6114     7905.00000
    12.6245     7856.00000
    12.6377     7775.00000
    12.6508     7977.00000
    12.6639     7867.00000
    12.6770     7995.00000
    12.6902     7888.00000
    12.7033     8117.00000
    12.7164     7974.00000
    12.7296     8071.00000
    12.7427     8123.00000
    12.7558     7977.00000
    12.7690     7886.00000
    12.7821     7842.00000
    12.7952     7880.00000
    12.8083     8006.00000
    12.8215     8030.00000
    12.8346     7973.00000
    12.8477     7976.00000
    12.8609     7952.00000
    12.8740     7950.00000
    12.8871     7995.00000
    12.9003     7841.00000
    12.9134     7939.00000
    12.9265     7796.00000
    12.9396     7992.00000
    12.9528     7934.00000
    12.9659     7892.00000
    12.9790     7848.00000
    12.9922     7816.00000
    13.0053     7757.00000
    13.0184     7782.00000
    13.0316     8087.00000
    13.0447     8056.00000
    13.0578     7954.00000
    13.0710     7756.00000
    13.0841     7897.00000
    13.0972     8006.00000
    13.1103     8074.00000
    13.1235     7748.00000
    13.1366     8089.00000
    13.1497     8131.00000
    13.1629     8005.00000
    13.1760     7854.00000
    13.1891     7835.00000
    13.2023     8163.00000
    13.2154     7758.00000
    13.2285     7652.00000
    13.2416     7965.00000
    13.2548     7967.00000
    13.2679     7921.00000
    13.2810     7717.00000
    13.2942     7958.00000
    13.3073     7937.00000
    13.3204     7828.00000
    13.3336     7904.00000
    13.3467     7733.00000
    13.3598     7728.00000
    13.3729     7728.00000
    13.3861     7832.00000
    13.3992     7678.00000
    13.4123     7711.00000
    13.4255     7886.00000
    13.4386     7675.00000
    13.4517     7842.00000
    13.4649     7861.00000
    13.4780     7709.00000
    13.4911     7639.00000
    13.5043     7750.00000
    13.5174     7598.00000
    13.5305     7707.00000
    13.5436     7719.00000
    13.5568     7747.00000
    13.5699     7812.00000
    13.5830     7777.00000
    13.5962     7804.00000
    13.6093     7836.00000
    13.6224     7738.00000
    13.6356     7901.00000
    13.6487     7770.00000
    13.6618     7936.00000
    13.6749     7984.00000
    13.6881     8027.00000
    13.7012     8212.00000
    13.7143     7961.00000
    13.7275     8071.00000
    13.7406     7959.00000
    13.7537     7826.00000
    13.7669     7977.00000
    13.7800     7652.00000
    13.7931     7762.00000
    13.8062     7627.00000
    13.8194     7801.00000
    13.8325     7774.00000
    13.8456     7672.00000
    13.8588     7902.00000
    13.8719     7901.00000
    13.8850     7860.00000
    13.8982     7729.00000
    13.9113     7701.00000
    13.9244     7859.00000
    13.9376     7734.00000
    13.9507     7808.00000
    13.9638     7662.00000
    13.9769     7753.00000
    13.9901     7766.00000
    14.0032     7795.00000
    14.0163     7928.00000
    14.0295     7689.00000
    14.0426     7778.00000
    14.0557     7725.00000
    14.0689     7899.00000
    14.0820     7868.00000
    14.0951     7899.00000
    14.1082     8021.00000
    14.1214     7998.00000
    14.1345     7804.00000
    14.1476     7852.00000
    14.1608     7789.00000
    14.1739     7765.00000
    14.1870     7816.00000
    14.2002     7735.00000
    14.2133     7950.00000
    14.2264     7718.00000
    14.2395     7730.00000
    14.2527     7874.00000
    14.2658     7921.00000
    14.2789     7780.00000
    14.2921     7739.00000
    14.3052     7898.00000
    14.3183     7758.00000
    14.3315     7755.00000
    14.3446     7683.00000
    14.3577     7885.00000
    14.3708     7915.00000
    14.3840     7824.00000
    14.3971     7727.00000
    14.4102     7995.00000
    14.4234     7999.00000
    14.4365     8003.00000
    14.4496     8149.00000
    14.4628     8362.00000
    14.4759     8589.00000
    14.4890     8868.00000
    14.5022     9111.00000
    14.5153     9423.00000
    14.5284     9390.00000
    14.5415     9489.00000
    14.5547     9525.00000
    14.5678     9084.00000
    14.5809     8816.00000
    14.5941     8394.00000
    14.6072     8292.00000
    14.6203     8339.00000
    14.6335     8139.00000
    14.6466     7807.00000
    14.6597     7712.00000
    14.6728     7708.00000
    14.6860     7982.00000
    14.6991     7818.00000
    14.7122     7745.00000
    14.7254     7765.00000
    14.7385     7724.00000
    14.7516     7840.00000
    14.7648     7909.00000
    14.7779     7487.00000
    14.7910     7685.00000
    14.8041     7766.00000
    14.8173     7479.00000
    14.8304     7661.00000
    14.8435     7752.00000
    14.8567     7757.00000
    14.8698     7565.00000
    14.8829     7625.00000
    14.8961     7639.00000
    14.9092     7896.00000
    14.9223     7701.00000
    14.9355     7567.00000
    14.9486     7663.00000
    14.9617     7588.00000
    14.9748     7637.00000
    14.9880     7856.00000
    15.0011     7750.00000
    15.0142     7746.00000
    15.0274     7794.00000
    15.0405     7663.00000
    15.0536     7856.00000
    15.0668     7616.00000
    15.0799     7728.00000
    15.0930     7810.00000
    15.1061     7726.00000
    15.1193     7786.00000
    15.1324     7689.00000
    15.1455     7638.00000
    15.1587     7740.00000
    15.1718     7670.00000
    15.1849     7527.00000
    15.1981     7653.00000
    15.2112     7539.00000
    15.2243     7625.00000
    15.2374     7647.00000
    15.2506     7589.00000
    15.2637     7540.00000
    15.2768     7499.00000
    15.2900     7629.00000
    15.3031     7582.00000
    15.3162     7634.00000
    15.3294     7502.00000
    15.3425     7574.00000
    15.3556     7742.00000
    15.3688     7620.00000
    15.3819     7495.00000
    15.3950     7649.00000
    15.4081     7671.00000
    15.4213     7640.00000
    15.4344     7502.00000
    15.4475     7552.00000
    15.4607     7514.00000
    15.4738     7583.00000
    15.4869     7607.00000
    15.5001     7522.00000
    15.5132     7551.00000
    15.5263     7546.00000
    15.5394     7563.00000
    15.5526     7506.00000
    15.5657     7606.00000
    15.5788     7634.00000
    15.5920     7579.00000
    15.6051     7596.00000
    15.6182     7481.00000
    15.6314     7629.00000
    15.6445     7585.00000
    15.6576     7557.00000
    15.6707     7615.00000
    15.6839     7467.00000
    15.6970     7718.00000
    15.7101     7624.00000
    15.7233     7764.00000
    15.7364     7764.00000
    15.7495     7499.00000
    15.7627     7681.00000
    15.7758     7624.00000
    15.7889     7517.00000
    15.8021     7406.00000
    15.8152     7676.00000
    15.8283     7530.00000
    15.8414     7640.00000
    15.8546     7872.00000
    15.8677     7533.00000
    15.8808     7467.00000
    15.8940     7447.00000
    15.9071     7522.00000
    15.9202     7818.00000
    15.9334     7770.00000
    15.9465     7755.00000
    15.9596     7474.00000
    15.9727     7795.00000
    15.9859     7702.00000
    15.9990     7617.00000
    16.0121     7628.00000
    16.0253     7613.00000
    16.0384     7669.00000
    16.0515     7644.00000
    16.0647     7692.00000
    16.0778     7573.00000
    16.0909     7436.00000
    16.1040     7540.00000
    16.1172     7557.00000
    16.1303     7635.00000
    16.1434     7524.00000
    16.1566     7609.00000
    16.1697     7540.00000
    16.1828     7653.00000
    16.1960     7550.00000
    16.2091     7506.00000
    16.2222     7699.00000
    16.2353     7571.00000
    16.2485     7521.00000
    16.2616     7574.00000
    16.2747     7401.00000
    16.2879     7568.00000
    16.3010     7586.00000
    16.3141     7596.00000
    16.3273     7556.00000
    16.3404     7448.00000
    16.3535     7572.00000
    16.3667     7651.00000
    16.3798     7745.00000
    16.3929     7487.00000
    16.4060     7521.00000
    16.4192     7754.00000
    16.4323     7724.00000
    16.4454     7447.00000
    16.4586     7662.00000
    16.4717     7747.00000
    16.4848     7617.00000
    16.4980     7652.00000
    16.5111     7530.00000
    16.5242     7626.00000
    16.5373     7389.00000
    16.5505     7654.00000
    16.5636     7688.00000
    16.5767     7420.00000
    16.5899     7530.00000
    16.6030     7568.00000
    16.6161     7523.00000
    16.6293     7486.00000
    16.6424     7581.00000
    16.6555     7369.00000
    16.6686     7637.00000
    16.6818     7519.00000
    16.6949     7446.00000
    16.7080     7441.00000
    16.7212     7603.00000
    16.7343     7591.00000
    16.7474     7847.00000
    16.7606     7885.00000
    16.7737     8068.00000
    16.7868     8020.00000
    16.8000     7951.00000
    16.8131     8192.00000
    16.8262     8016.00000
    16.8393     7974.00000
    16.8525     7860.00000
    16.8656     7737.00000
    16.8787     7610.00000
    16.8919     7608.00000
    16.9050     7592.00000
    16.9181     7488.00000
    16.9313     7625.00000
    16.9444     7686.00000
    16.9575     7508.00000
    16.9706     7441.00000
    16.9838     7542.00000
    16.9969     7559.00000
    17.0100     7346.00000
    17.0232     7544.00000
    17.0363     7424.00000
    17.0494     7532.00000
    17.0626     7447.00000
    17.0757     7624.00000
    17.0888     7564.00000
    17.1019     7521.00000
    17.1151     7378.00000
    17.1282     7422.00000
    17.1413     7538.00000
    17.1545     7449.00000
    17.1676     7487.00000
    17.1807     7430.00000
    17.1939     7456.00000
    17.2070     7512.00000
    17.2201     7491.00000
    17.2333     7481.00000
    17.2464     7542.00000
    17.2595     7442.00000
    17.2726     7388.00000
    17.2858     7431.00000
    17.2989     7505.00000
    17.3120     7460.00000
    17.3252     7419.00000
    17.3383     7210.00000
    17.3514     7477.00000
    17.3646     7328.00000
    17.3777     7260.00000
    17.3908     7192.00000
    17.4039     7213.00000
    17.4171     7355.00000
    17.4302     7372.00000
    17.4433     7296.00000
    17.4565     7520.00000
    17.4696     7238.00000
    17.4827     7180.00000
    17.4959     7373.00000
    17.5090     7149.00000
    17.5221     7279.00000
    17.5352     7337.00000
    17.5484     7551.00000
    17.5615     7198.00000
    17.5746     7392.00000
    17.5878     7304.00000
    17.6009     7155.00000
    17.6140     7278.00000
    17.6272     7449.00000
    17.6403     7330.00000
    17.6534     7453.00000
    17.6666     7300.00000
    17.6797     7395.00000
    17.6928     7379.00000
    17.7059     7368.00000
    17.7191     7306.00000
    17.7322     7211.00000
    17.7453     7317.00000
    17.7585     7321.00000
    17.7716     7248.00000
    17.7847     7182.00000
    17.7979     7374.00000
    17.8110     7494.00000
    17.8241     7525.00000
    17.8372     7262.00000
    17.8504     7259.00000
    17.8635     7557.00000
    17.8766     7610.00000
    17.8898     7512.00000
    17.9029     7447.00000
    17.9160     7423.00000
    17.9292     7365.00000
    17.9423     7356.00000
    17.9554     7208.00000
    17.9685     7223.00000
    17.9817     7455.00000
    17.9948     7199.00000
    18.0079     7320.00000
    18.0211     7204.00000
    18.0342     7324.00000
    18.0473     7434.00000
    18.0605     7367.00000
    18.0736     7338.00000
    18.0867     7250.00000
    18.0998     7385.00000
    18.1130     7247.00000
    18.1261     7262.00000
    18.1392     7261.00000
    18.1524     7364.00000
    18.1655     7267.00000
    18.1786     7333.00000
    18.1918     7231.00000
    18.2049     7262.00000
    18.2180     7458.00000
    18.2312     7214.00000
    18.2443     7365.00000
    18.2574     7077.00000
    18.2705     7241.00000
    18.2837     7288.00000
    18.2968     7186.00000
    18.3099     7268.00000
    18.3231     7224.00000
    18.3362     7349.00000
    18.3493     7289.00000
    18.3625     7201.00000
    18.3756     7200.00000
    18.3887     7048.00000
    18.4018     7034.00000
    18.4150     7093.00000
    18.4281     7092.00000
    18.4412     7197.00000
    18.4544     7277.00000
    18.4675     7134.00000
    18.4806     7132.00000
    18.4938     7137.00000
    18.5069     7244.00000
    18.5200     7290.00000
    18.5331     7277.00000
    18.5463     7144.00000
    18.5594     7074.00000
    18.5725     7576.00000
    18.5857     7335.00000
    18.5988     7192.00000
    18.6119     7262.00000
    18.6251     7132.00000
    18.6382     7293.00000
    18.6513     7290.00000
    18.6645     7090.00000
    18.6776     7276.00000
    18.6907     7175.00000
    18.7038     7248.00000
    18.7170     7297.00000
    18.7301     7235.00000
    18.7432     7103.00000
    18.7564     7197.00000
    18.7695     7193.00000
    18.7826     7188.00000
    18.7958     7098.00000
    18.8089     7192.00000
    18.8220     7123.00000
    18.8351     7226.00000
    18.8483     7237.00000
    18.8614     7048.00000
    18.8745     7228.00000
    18.8877     7320.00000
    18.9008     7269.00000
    18.9139     7231.00000
    18.9271     7212.00000
    18.9402     7113.00000
    18.9533     7212.00000
    18.9664     7196.00000
    18.9796     7215.00000
    18.9927     7085.00000
    19.0058     7160.00000
    19.0190     7227.00000
    19.0321     7078.00000
    19.0452     7244.00000
    19.0584     7229.00000
    19.0715     7241.00000
    19.0846     7187.00000
    19.0978     7201.00000
    19.1109     7387.00000
    19.1240     7584.00000
    19.1371     7554.00000
    19.1503     7751.00000
    19.1634     7725.00000
    19.1765     7819.00000
    19.1897     7694.00000
    19.2028     7762.00000
    19.2159     7662.00000
    19.2291     7671.00000
    19.2422     7867.00000
    19.2553     7571.00000
    19.2684     7571.00000
    19.2816     7504.00000
    19.2947     7550.00000
    19.3078     7465.00000
    19.3210     7714.00000
    19.3341     7788.00000
    19.3472     7616.00000
    19.3604     7657.00000
    19.3735     7515.00000
    19.3866     7615.00000
    19.3997     7381.00000
    19.4129     7542.00000
    19.4260     7499.00000
    19.4391     7517.00000
    19.4523     7842.00000
    19.4654     7687.00000
    19.4785     7662.00000
    19.4917     7872.00000
    19.5048     7836.00000
    19.5179     7865.00000
    19.5311     7866.00000
    19.5442     8216.00000
    19.5573     8043.00000
    19.5704     8240.00000
    19.5836     8191.00000
    19.5967     8465.00000
    19.6098     8567.00000
    19.6230     8505.00000
    19.6361     8699.00000
    19.6492     9089.00000
    19.6624     9615.00000
    19.6755    10076.00000
    19.6886    10927.00000
    19.7017    12451.00000
    19.7149    15143.00000
    19.7280    18333.00000
    19.7411    24164.00000
    19.7543    33743.00000
    19.7674    48002.00000
    19.7805    64535.00000
    19.7937    82855.00000
    19.8068    97559.00000
    19.8199    98937.00000
    19.8330    90502.00000
    19.8462    76552.00000
    19.8593    64811.00000
    19.8724    51382.00000
    19.8856    38551.00000
    19.8987    26466.00000
    19.9118    18387.00000
    19.9250    14059.00000
    19.9381    11660.00000
    19.9512    10521.00000
    19.9643     9847.00000
    19.9775     9417.00000
    19.9906     9017.00000
    20.0037     8851.00000
    20.0169     8758.00000
    20.0300     8566.00000
    20.0431     8367.00000
    20.0563     8231.00000
    20.0694     8225.00000
    20.0825     8105.00000
    20.0957     7692.00000
    20.1088     7878.00000
    20.1219     7837.00000
    20.1350     7896.00000
    20.1482     7907.00000
    20.1613     7893.00000
    20.1744     7791.00000
    20.1876     7712.00000
    20.2007     7653.00000
    20.2138     7656.00000
    20.2270     7608.00000
    20.2401     7838.00000
    20.2532     7571.00000
    20.2663     7611.00000
    20.2795     7383.00000
    20.2926     7317.00000
    20.3057     7585.00000
    20.3189     7511.00000
    20.3320     7591.00000
    20.3451     7539.00000
    20.3583     7677.00000
    20.3714     7482.00000
    20.3845     7555.00000
    20.3976     7533.00000
    20.4108     7428.00000
    20.4239     7426.00000
    20.4370     7355.00000
    20.4502     7437.00000
    20.4633     7506.00000
    20.4764     7453.00000
    20.4896     7381.00000
    20.5027     7302.00000
    20.5158     7442.00000
    20.5290     7317.00000
    20.5421     7420.00000
    20.5552     7411.00000
    20.5683     7465.00000
    20.5815     7398.00000
    20.5946     7443.00000
    20.6077     7413.00000
    20.6209     7638.00000
    20.6340     7640.00000
    20.6471     7493.00000
    20.6603     7419.00000
    20.6734     7355.00000
    20.6865     7432.00000
    20.6996     7456.00000
    20.7128     7483.00000
    20.7259     7345.00000
    20.7390     7491.00000
    20.7522     7408.00000
    20.7653     7301.00000
    20.7784     7564.00000
    20.7916     7518.00000
    20.8047     7501.00000
    20.8178     7498.00000
    20.8309     7546.00000
    20.8441     7518.00000
    20.8572     7343.00000
    20.8703     7359.00000
    20.8835     7433.00000
    20.8966     7613.00000
    20.9097     7434.00000
    20.9229     7312.00000
    20.9360     7367.00000
    20.9491     7470.00000
    20.9623     7678.00000
    20.9754     7463.00000
    20.9885     7274.00000
    21.0016     7315.00000
    21.0148     7232.00000
    21.0279     7407.00000
    21.0410     7259.00000
    21.0542     7466.00000
    21.0673     7414.00000
    21.0804     7523.00000
    21.0936     7310.00000
    21.1067     7305.00000
    21.1198     7249.00000
    21.1329     7369.00000
    21.1461     7222.00000
    21.1592     7237.00000
    21.1723     7235.00000
    21.1855     7220.00000
    21.1986     7444.00000
    21.2117     7515.00000
    21.2249     7446.00000
    21.2380     7254.00000
    21.2511     7262.00000
    21.2642     7447.00000
    21.2774     7194.00000
    21.2905     7470.00000
    21.3036     7330.00000
    21.3168     7407.00000
    21.3299     7302.00000
    21.3430     7343.00000
    21.3562     7309.00000
    21.3693     7428.00000
    21.3824     7281.00000
    21.3956     7303.00000
    21.4087     7397.00000
    21.4218     7191.00000
    21.4349     7420.00000
    21.4481     7244.00000
    21.4612     7252.00000
    21.4743     7477.00000
    21.4875     7534.00000
    21.5006     7361.00000
    21.5137     7452.00000
    21.5269     7370.00000
    21.5400     7480.00000
    21.5531     7430.00000
    21.5662     7325.00000
    21.5794     7286.00000
    21.5925     7473.00000
    21.6056     7443.00000
    21.6188     7413.00000
    21.6319     7588.00000
    21.6450     7426.00000
    21.6582     7203.00000
    21.6713     7269.00000
    21.6844     7272.00000
    21.6975     7470.00000
    21.7107     7415.00000
    21.7238     7580.00000
    21.7369     7425.00000
    21.7501     7471.00000
    21.7632     7524.00000
    21.7763     7525.00000
    21.7895     7496.00000
    21.8026     7360.00000
    21.8157     7349.00000
    21.8288     7510.00000
    21.8420     7499.00000
    21.8551     7535.00000
    21.8682     7688.00000
    21.8814     7741.00000
    21.8945     7548.00000
    21.9076     7492.00000
    21.9208     7438.00000
    21.9339     7511.00000
    21.9470     7483.00000
    21.9602     7513.00000
    21.9733     7471.00000
    21.9864     7337.00000
    21.9995     7247.00000
    22.0127     7455.00000
    22.0258     7559.00000
    22.0389     7343.00000
    22.0521     7285.00000
    22.0652     7320.00000
    22.0783     7310.00000
    22.0915     7391.00000
    22.1046     7359.00000
    22.1177     7472.00000
    22.1308     7484.00000
    22.1440     7390.00000
    22.1571     7286.00000
    22.1702     7332.00000
    22.1834     7380.00000
    22.1965     7509.00000
    22.2096     7379.00000
    22.2228     7303.00000
    22.2359     7438.00000
    22.2490     7350.00000
    22.2621     7212.00000
    22.2753     7444.00000
    22.2884     7588.00000
    22.3015     7495.00000
    22.3147     7406.00000
    22.3278     7513.00000
    22.3409     7573.00000
    22.3541     7589.00000
    22.3672     7755.00000
    22.3803     7632.00000
    22.3935     7686.00000
    22.4066     7587.00000
    22.4197     7832.00000
    22.4328     7779.00000
    22.4460     7838.00000
    22.4591     8489.00000
    22.4722     8370.00000
    22.4854     9299.00000
    22.4985    10221.00000
    22.5116    11556.00000
    22.5248    14956.00000
    22.5379    19688.00000
    22.5510    26356.00000
    22.5641    32264.00000
    22.5773    34563.00000
    22.5904    32722.00000
    22.6035    28908.00000
    22.6167    26057.00000
    22.6298    23834.00000
    22.6429    20401.00000
    22.6561    16603.00000
    22.6692    13152.00000
    22.6823    10683.00000
    22.6954     8899.00000
    22.7086     8524.00000
    22.7217     8131.00000
    22.7348     7933.00000
    22.7480     7936.00000
    22.7611     7955.00000
    22.7742     7927.00000
    22.7874     7831.00000
    22.8005     7618.00000
    22.8136     7626.00000
    22.8268     7583.00000
    22.8399     7574.00000
    22.8530     7386.00000
    22.8661     7456.00000
    22.8793     7530.00000
    22.8924     7366.00000
    22.9055     7423.00000
    22.9187     7388.00000
    22.9318     7227.00000
    22.9449     7386.00000
    22.9581     7504.00000
    22.9712     7421.00000
    22.9843     7441.00000
    22.9974     7395.00000
    23.0106     7518.00000
    23.0237     7474.00000
    23.0368     7428.00000
    23.0500     7608.00000
    23.0631     7365.00000
    23.0762     7342.00000
    23.0894     7314.00000
    23.1025     7610.00000
    23.1156     7414.00000
    23.1287     7292.00000
    23.1419     7429.00000
    23.1550     7442.00000
    23.1681     7573.00000
    23.1813     7640.00000
    23.1944     7489.00000
    23.2075     7440.00000
    23.2207     7530.00000
    23.2338     7423.00000
    23.2469     7504.00000
    23.2601     7829.00000
    23.2732     7762.00000
    23.2863     7693.00000
    23.2994     7554.00000
    23.3126     7455.00000
    23.3257     7638.00000
    23.3388     7518.00000
    23.3520     7585.00000
    23.3651     7381.00000
    23.3782     7698.00000
    23.3914     7472.00000
    23.4045     7459.00000
    23.4176     7463.00000
    23.4307     7544.00000
    23.4439     7422.00000
    23.4570     7475.00000
    23.4701     7395.00000
    23.4833     7542.00000
    23.4964     7576.00000
    23.5095     7597.00000
    23.5227     7538.00000
    23.5358     7549.00000
    23.5489     7587.00000
    23.5620     7785.00000
    23.5752     7690.00000
    23.5883     7765.00000
    23.6014     7805.00000
    23.6146     7757.00000
    23.6277     7607.00000
    23.6408     7711.00000
    23.6540     8036.00000
    23.6671     7884.00000
    23.6802     7864.00000
    23.6933     8159.00000
    23.7065     8393.00000
    23.7196     8636.00000
    23.7327     8993.00000
    23.7459    10566.00000
    23.7590    12925.00000
    23.7721    16855.00000
    23.7853    21893.00000
    23.7984    26730.00000
    23.8115    29928.00000
    23.8247    30033.00000
    23.8378    26409.00000
    23.8509    22994.00000
    23.8640    21297.00000
    23.8772    20175.00000
    23.8903    17568.00000
    23.9034    14007.00000
    23.9166    11618.00000
    23.9297    10384.00000
    23.9428     9417.00000
    23.9560     9217.00000
    23.9691     9472.00000
    23.9822     9543.00000
    23.9953    10123.00000
    24.0085    10980.00000
    24.0216    12886.00000
    24.0347    15791.00000
    24.0479    21350.00000
    24.0610    29353.00000
    24.0741    36960.00000
    24.0873    40565.00000
    24.1004    38029.00000
    24.1135    32939.00000
    24.1266    29763.00000
    24.1398    27846.00000
    24.1529    24658.00000
    24.1660    20294.00000
    24.1792    15841.00000
    24.1923    12487.00000
    24.2054    10468.00000
    24.2186     9159.00000
    24.2317     8569.00000
    24.2448     8383.00000
    24.2580     8138.00000
    24.2711     7885.00000
    24.2842     7901.00000
    24.2973     8126.00000
    24.3105     8220.00000
    24.3236     7950.00000
    24.3367     8075.00000
    24.3499     8142.00000
    24.3630     7953.00000
    24.3761     8150.00000
    24.3893     7927.00000
    24.4024     7941.00000
    24.4155     7675.00000
    24.4286     7724.00000
    24.4418     7561.00000
    24.4549     7353.00000
    24.4680     7457.00000
    24.4812     7500.00000
    24.4943     7417.00000
    24.5074     7471.00000
    24.5206     7392.00000
    24.5337     7476.00000
    24.5468     7571.00000
    24.5599     7471.00000
    24.5731     7418.00000
    24.5862     7454.00000
    24.5993     7454.00000
    24.6125     7393.00000
    24.6256     7565.00000
    24.6387     7547.00000
    24.6519     7591.00000
    24.6650     7446.00000
    24.6781     7455.00000
    24.6913     7232.00000
    24.7044     7334.00000
    24.7175     7275.00000
    24.7306     7418.00000
    24.7438     7438.00000
    24.7569     7446.00000
    24.7700     7321.00000
    24.7832     7382.00000
    24.7963     7256.00000
    24.8094     7362.00000
    24.8226     7319.00000
    24.8357     7297.00000
    24.8488     7233.00000
    24.8619     7469.00000
    24.8751     7434.00000
    24.8882     7288.00000
    24.9013     7318.00000
    24.9145     7254.00000
    24.9276     7218.00000
    24.9407     7485.00000
    24.9539     7325.00000
    24.9670     7450.00000
    24.9801     7331.00000
    24.9932     7380.00000
    25.0064     7318.00000
    25.0195     7214.00000
    25.0326     7228.00000
    25.0458     7295.00000
    25.0589     7296.00000
    25.0720     7309.00000
    25.0852     7307.00000
    25.0983     7344.00000
    25.1114     7207.00000
    25.1246     7425.00000
    25.1377     7527.00000
    25.1508     7498.00000
    25.1639     7492.00000
    25.1771     7471.00000
    25.1902     7403.00000
    25.2033     7553.00000
    25.2165     7475.00000
    25.2296     7486.00000
    25.2427     7382.00000
    25.2559     7363.00000
    25.2690     7119.00000
    25.2821     7335.00000
    25.2952     7280.00000
    25.3084     7377.00000
    25.3215     7245.00000
    25.3346     7055.00000
    25.3478     7315.00000
    25.3609     7419.00000
    25.3740     7202.00000
    25.3872     7330.00000
    25.4003     7207.00000
    25.4134     7127.00000
    25.4265     7301.00000
    25.4397     7220.00000
    25.4528     7420.00000
    25.4659     7302.00000
    25.4791     7204.00000
    25.4922     7327.00000
    25.5053     7269.00000
    25.5185     7245.00000
    25.5316     7154.00000
    25.5447     7319.00000
    25.5579     7327.00000
    25.5710     7282.00000
    25.5841     7311.00000
    25.5972     7167.00000
    25.6104     7306.00000
    25.6235     7166.00000
    25.6366     7336.00000
    25.6498     7281.00000
    25.6629     7299.00000
    25.6760     7325.00000
    25.6892     7186.00000
    25.7023     7115.00000
    25.7154     7197.00000
    25.7285     7400.00000
    25.7417     7356.00000
    25.7548     7346.00000
    25.7679     7404.00000
    25.7811     7393.00000
    25.7942     7351.00000
    25.8073     7381.00000
    25.8205     7113.00000
    25.8336     7468.00000
    25.8467     7297.00000
    25.8598     7488.00000
    25.8730     7428.00000
    25.8861     7372.00000
    25.8992     7249.00000
    25.9124     7297.00000
    25.9255     7386.00000
    25.9386     7328.00000
    25.9518     7332.00000
    25.9649     7252.00000
    25.9780     7393.00000
    25.9911     7423.00000
    26.0043     7339.00000
    26.0174     7533.00000
    26.0305     7294.00000
    26.0437     7171.00000
    26.0568     7501.00000
    26.0699     7302.00000
    26.0831     7340.00000
    26.0962     7254.00000
    26.1093     7419.00000
    26.1225     7377.00000
    26.1356     7348.00000
    26.1487     7333.00000
    26.1618     7222.00000
    26.1750     7270.00000
    26.1881     7086.00000
    26.2012     7062.00000
    26.2144     7163.00000
    26.2275     7002.00000
    26.2406     7122.00000
    26.2538     7217.00000
    26.2669     7132.00000
    26.2800     7310.00000
    26.2931     7199.00000
    26.3063     7214.00000
    26.3194     7228.00000
    26.3325     7452.00000
    26.3457     7368.00000
    26.3588     7233.00000
    26.3719     7181.00000
    26.3851     7054.00000
    26.3982     7111.00000
    26.4113     7206.00000
    26.4244     7071.00000
    26.4376     7256.00000
    26.4507     7082.00000
    26.4638     7099.00000
    26.4770     6951.00000
    26.4901     7032.00000
    26.5032     7107.00000
    26.5164     7055.00000
    26.5295     7198.00000
    26.5426     7306.00000
    26.5558     7279.00000
    26.5689     7016.00000
    26.5820     7103.00000
    26.5951     7098.00000
    26.6083     7237.00000
    26.6214     7132.00000
    26.6345     7280.00000
    26.6477     7332.00000
    26.6608     6948.00000
    26.6739     7109.00000
    26.6871     7020.00000
    26.7002     7017.00000
    26.7133     7177.00000
    26.7264     7147.00000
    26.7396     7204.00000
    26.7527     7102.00000
    26.7658     7063.00000
    26.7790     7153.00000
    26.7921     7271.00000
    26.8052     7010.00000
    26.8184     6964.00000
    26.8315     7065.00000
    26.8446     7010.00000
    26.8577     7082.00000
    26.8709     7309.00000
    26.8840     7373.00000
    26.8971     7135.00000
    26.9103     7291.00000
    26.9234     7262.00000
    26.9365     7148.00000
    26.9497     7352.00000
    26.9628     7321.00000
    26.9759     7479.00000
    26.9891     7468.00000
    27.0022     7391.00000
    27.0153     7587.00000
    27.0284     7486.00000
    27.0416     7248.00000
    27.0547     7469.00000
    27.0678     7446.00000
    27.0810     7206.00000
    27.0941     7212.00000
    27.1072     7519.00000
    27.1204     7251.00000
    27.1335     7357.00000
    27.1466     7504.00000
    27.1597     7366.00000
    27.1729     7302.00000
    27.1860     7420.00000
    27.1991     7508.00000
    27.2123     7350.00000
    27.2254     7486.00000
    27.2385     7562.00000
    27.2517     7419.00000
    27.2648     7491.00000
    27.2779     7417.00000
    27.2910     7418.00000
    27.3042     7264.00000
    27.3173     7306.00000
    27.3304     7391.00000
    27.3436     7467.00000
    27.3567     7393.00000
    27.3698     7400.00000
    27.3830     7387.00000
    27.3961     7446.00000
    27.4092     7419.00000
    27.4224     7359.00000
    27.4355     7305.00000
    27.4486     7435.00000
    27.4617     7489.00000
    27.4749     7493.00000
    27.4880     7462.00000
    27.5011     7485.00000
    27.5143     7461.00000
    27.5274     7302.00000
    27.5405     7431.00000
    27.5537     7360.00000
    27.5668     7487.00000
    27.5799     7524.00000
    27.5930     7666.00000
    27.6062     7665.00000
    27.6193     7778.00000
    27.6324     7854.00000
    27.6456     8140.00000
    27.6587     8236.00000
    27.6718     8048.00000
    27.6850     8184.00000
    27.6981     8636.00000
    27.7112     8574.00000
    27.7243     8618.00000
    27.7375     8713.00000
    27.7506     9145.00000
    27.7637     9371.00000
    27.7769     9559.00000
    27.7900     9749.00000
    27.8031    10532.00000
    27.8163    11152.00000
    27.8294    12109.00000
    27.8425    13332.00000
    27.8556    16031.00000
    27.8688    20233.00000
    27.8819    27454.00000
    27.8950    38528.00000
    27.9082    55714.00000
    27.9213    74734.00000
    27.9344    90596.00000
    27.9476    93885.00000
    27.9607    85960.00000
    27.9738    73773.00000
    27.9870    65235.00000
    28.0001    60860.00000
    28.0132    57390.00000
    28.0263    50135.00000
    28.0395    39660.00000
    28.0526    29370.00000
    28.0657    21161.00000
    28.0789    16521.00000
    28.0920    13459.00000
    28.1051    12085.00000
    28.1183    11110.00000
    28.1314    10604.00000
    28.1445     9881.00000
    28.1576     9378.00000
    28.1708     9268.00000
    28.1839     8903.00000
    28.1970     8765.00000
    28.2102     8521.00000
    28.2233     8157.00000
    28.2364     8059.00000
    28.2496     7897.00000
    28.2627     8099.00000
    28.2758     7877.00000
    28.2889     7765.00000
    28.3021     7745.00000
    28.3152     7793.00000
    28.3283     7519.00000
    28.3415     7544.00000
    28.3546     7705.00000
    28.3677     7635.00000
    28.3809     7494.00000
    28.3940     7534.00000
    28.4071     7844.00000
    28.4203     7864.00000
    28.4334     7963.00000
    28.4465     7886.00000
    28.4596     7983.00000
    28.4728     8059.00000
    28.4859     8191.00000
    28.4990     8375.00000
    28.5122     8421.00000
    28.5253     8592.00000
    28.5384     8798.00000
    28.5516     8310.00000
    28.5647     8375.00000
    28.5778     8147.00000
    28.5909     8153.00000
    28.6041     8216.00000
    28.6172     7999.00000
    28.6303     7777.00000
    28.6435     7610.00000
    28.6566     7794.00000
    28.6697     7663.00000
    28.6829     7538.00000
    28.6960     7667.00000
    28.7091     7639.00000
    28.7222     7598.00000
    28.7354     7656.00000
    28.7485     7738.00000
    28.7616     7896.00000
    28.7748     7773.00000
    28.7879     7813.00000
    28.8010     7977.00000
    28.8142     8190.00000
    28.8273     8254.00000
    28.8404     8398.00000
    28.8536     8536.00000
    28.8667     8947.00000
    28.8798     9774.00000
    28.8929    10816.00000
    28.9061    13078.00000
    28.9192    17385.00000
    28.9323    24372.00000
    28.9455    33176.00000
    28.9586    38741.00000
    28.9717    38431.00000
    28.9849    33262.00000
    28.9980    27798.00000
    29.0111    25623.00000
    29.0242    25668.00000
    29.0374    25142.00000
    29.0505    22098.00000
    29.0636    17975.00000
    29.0768    14287.00000
    29.0899    11697.00000
    29.1030    10009.00000
    29.1162     9198.00000
    29.1293     9222.00000
    29.1424     9615.00000
    29.1555     9842.00000
    29.1687    10958.00000
    29.1818    12309.00000
    29.1949    13655.00000
    29.2081    15162.00000
    29.2212    15481.00000
    29.2343    15199.00000
    29.2475    14943.00000
    29.2606    14563.00000
    29.2737    14723.00000
    29.2869    14759.00000
    29.3000    14288.00000
    29.3131    13397.00000
    29.3262    12441.00000
    29.3394    11426.00000
    29.3525    10907.00000
    29.3656    10236.00000
    29.3788     9660.00000
    29.3919     9293.00000
    29.4050     8697.00000
    29.4182     8538.00000
    29.4313     8361.00000
    29.4444     8124.00000
    29.4575     7779.00000
    29.4707     7559.00000
    29.4838     7490.00000
    29.4969     7481.00000
    29.5101     7400.00000
    29.5232     7294.00000
    29.5363     7315.00000
    29.5495     7425.00000
    29.5626     7141.00000
    29.5757     7125.00000
    29.5888     7387.00000
    29.6020     7181.00000
    29.6151     7107.00000
    29.6282     7152.00000
    29.6414     6922.00000
    29.6545     7098.00000
    29.6676     7236.00000
    29.6808     7009.00000
    29.6939     7014.00000
    29.7070     7082.00000
    29.7201     7018.00000
    29.7333     7058.00000
    29.7464     7274.00000
    29.7595     7132.00000
    29.7727     7184.00000
    29.7858     7240.00000
    29.7989     7293.00000
    29.8121     7191.00000
    29.8252     7197.00000
    29.8383     7171.00000
    29.8515     7062.00000
    29.8646     7061.00000
    29.8777     6882.00000
    29.8908     7044.00000
    29.9040     7193.00000
    29.9171     7174.00000
    29.9302     7034.00000
    29.9434     7034.00000
    29.9565     6971.00000
    29.9696     6901.00000
    29.9828     7092.00000
    29.9959     6945.00000
    30.0090     7025.00000
    30.0221     7179.00000
    30.0353     7147.00000
    30.0484     6939.00000
    30.0615     6957.00000
    30.0747     6884.00000
    30.0878     7073.00000
    30.1009     6891.00000
    30.1141     7252.00000
    30.1272     7097.00000
    30.1403     7080.00000
    30.1535     7157.00000
    30.1666     7237.00000
    30.1797     7099.00000
    30.1928     6972.00000
    30.2060     6957.00000
    30.2191     7124.00000
    30.2322     7004.00000
    30.2454     6888.00000
    30.2585     6934.00000
    30.2716     7137.00000
    30.2848     6907.00000
    30.2979     7032.00000
    30.3110     7003.00000
    30.3241     7047.00000
    30.3373     6936.00000
    30.3504     6975.00000
    30.3635     6960.00000
    30.3767     7020.00000
    30.3898     7164.00000
    30.4029     6974.00000
    30.4161     6960.00000
    30.4292     7032.00000
    30.4423     6957.00000
    30.4554     6960.00000
    30.4686     6994.00000
    30.4817     6998.00000
    30.4948     6964.00000
    30.5080     7105.00000
    30.5211     6879.00000
    30.5342     6968.00000
    30.5474     7020.00000
    30.5605     7037.00000
    30.5736     7196.00000
    30.5868     7141.00000
    30.5999     6924.00000
    30.6130     7040.00000
    30.6261     6801.00000
    30.6393     6804.00000
    30.6524     6779.00000
    30.6655     6923.00000
    30.6787     6988.00000
    30.6918     6942.00000
    30.7049     6839.00000
    30.7181     7018.00000
    30.7312     6885.00000
    30.7443     6945.00000
    30.7574     6998.00000
    30.7706     7025.00000
    30.7837     7012.00000
    30.7968     6998.00000
    30.8100     6922.00000
    30.8231     6852.00000
    30.8362     6917.00000
    30.8494     6770.00000
    30.8625     6875.00000
    30.8756     6970.00000
    30.8887     6945.00000
    30.9019     6990.00000
    30.9150     7126.00000
    30.9281     7149.00000
    30.9413     6854.00000
    30.9544     6887.00000
    30.9675     6906.00000
    30.9807     6883.00000
    30.9938     6936.00000
    31.0069     6962.00000
    31.0200     6977.00000
    31.0332     7067.00000
    31.0463     7036.00000
    31.0594     7130.00000
    31.0726     6991.00000
    31.0857     6787.00000
    31.0988     6921.00000
    31.1120     6907.00000
    31.1251     6841.00000
    31.1382     6902.00000
    31.1514     6937.00000
    31.1645     6945.00000
    31.1776     6877.00000
    31.1907     6846.00000
    31.2039     6895.00000
    31.2170     6698.00000
    31.2301     6871.00000
    31.2433     7010.00000
    31.2564     6943.00000
    31.2695     6858.00000
    31.2827     6764.00000
    31.2958     6890.00000
    31.3089     6911.00000
    31.3220     6826.00000
    31.3352     6937.00000
    31.3483     6929.00000
    31.3614     6842.00000
    31.3746     7041.00000
    31.3877     7039.00000
    31.4008     6887.00000
    31.4140     6813.00000
    31.4271     6588.00000
    31.4402     6605.00000
    31.4533     6963.00000
    31.4665     6943.00000
    31.4796     6872.00000
    31.4927     6926.00000
    31.5059     6984.00000
    31.5190     6983.00000
    31.5321     6857.00000
    31.5453     7029.00000
    31.5584     6940.00000
    31.5715     6785.00000
    31.5847     6839.00000
    31.5978     6883.00000
    31.6109     6736.00000
    31.6240     6900.00000
    31.6372     7008.00000
    31.6503     6967.00000
    31.6634     7033.00000
    31.6766     6950.00000
    31.6897     6667.00000
    31.7028     6719.00000
    31.7160     6832.00000
    31.7291     6885.00000
    31.7422     7021.00000
    31.7553     6779.00000
    31.7685     6880.00000
    31.7816     6986.00000
    31.7947     6882.00000
    31.8079     6925.00000
    31.8210     6795.00000
    31.8341     6826.00000
    31.8473     6809.00000
    31.8604     6858.00000
    31.8735     6799.00000
    31.8866     6778.00000
    31.8998     6675.00000
    31.9129     6594.00000
    31.9260     6861.00000
    31.9392     6963.00000
    31.9523     6990.00000
    31.9654     6855.00000
    31.9786     6832.00000
    31.9917     6754.00000
    32.0048     6890.00000
    32.0180     6973.00000
    32.0311     6898.00000
    32.0442     6776.00000
    32.0573     6881.00000
    32.0705     6936.00000
    32.0836     6815.00000
    32.0967     6726.00000
    32.1099     6805.00000
    32.1230     6940.00000
    32.1361     6857.00000
    32.1493     6677.00000
    32.1624     6820.00000
    32.1755     6862.00000
    32.1886     6878.00000
    32.2018     6899.00000
    32.2149     6922.00000
    32.2280     6849.00000
    32.2412     6895.00000
    32.2543     6882.00000
    32.2674     6887.00000
    32.2806     6934.00000
    32.2937     7061.00000
    32.3068     7175.00000
    32.3199     6875.00000
    32.3331     6931.00000
    32.3462     7029.00000
    32.3593     6951.00000
    32.3725     6851.00000
    32.3856     6985.00000
    32.3987     7084.00000
    32.4119     7105.00000
    32.4250     6990.00000
    32.4381     6934.00000
    32.4512     7012.00000
    32.4644     7060.00000
    32.4775     6904.00000
    32.4906     6912.00000
    32.5038     6877.00000
    32.5169     6862.00000
    32.5300     7055.00000
    32.5432     6972.00000
    32.5563     7012.00000
    32.5694     6768.00000
    32.5826     6599.00000
    32.5957     6953.00000
    32.6088     6957.00000
    32.6219     7185.00000
    32.6351     6963.00000
    32.6482     7020.00000
    32.6613     7047.00000
    32.6745     7071.00000
    32.6876     7027.00000
    32.7007     7215.00000
    32.7139     7114.00000
    32.7270     7262.00000
    32.7401     7309.00000
    32.7532     7571.00000
    32.7664     7750.00000
    32.7795     7814.00000
    32.7926     8583.00000
    32.8058     9722.00000
    32.8189    11816.00000
    32.8320    14122.00000
    32.8452    15842.00000
    32.8583    15714.00000
    32.8714    14109.00000
    32.8845    12706.00000
    32.8977    11843.00000
    32.9108    11848.00000
    32.9239    12461.00000
    32.9371    12966.00000
    32.9502    13320.00000
    32.9633    14011.00000
    32.9765    16056.00000
    32.9896    19118.00000
    33.0027    20945.00000
    33.0159    20087.00000
    33.0290    17198.00000
    33.0421    14565.00000
    33.0552    13452.00000
    33.0684    13457.00000
    33.0815    14405.00000
    33.0946    14302.00000
    33.1078    12885.00000
    33.1209    10847.00000
    33.1340     9374.00000
    33.1472     8343.00000
    33.1603     7698.00000
    33.1734     7637.00000
    33.1865     7454.00000
    33.1997     7019.00000
    33.2128     7068.00000
    33.2259     7193.00000
    33.2391     7091.00000
    33.2522     7165.00000
    33.2653     7195.00000
    33.2785     7264.00000
    33.2916     7002.00000
    33.3047     7094.00000
    33.3178     7022.00000
    33.3310     6882.00000
    33.3441     6913.00000
    33.3572     6761.00000
    33.3704     6942.00000
    33.3835     7041.00000
    33.3966     7122.00000
    33.4098     6932.00000
    33.4229     7075.00000
    33.4360     7142.00000
    33.4492     6988.00000
    33.4623     6948.00000
    33.4754     7038.00000
    33.4885     7077.00000
    33.5017     7354.00000
    33.5148     7526.00000
    33.5279     7610.00000
    33.5411     8062.00000
    33.5542     8904.00000
    33.5673     9691.00000
    33.5805    11595.00000
    33.5936    13467.00000
    33.6067    14885.00000
    33.6198    15500.00000
    33.6330    14788.00000
    33.6461    13188.00000
    33.6592    11868.00000
    33.6724    11526.00000
    33.6855    11298.00000
    33.6986    11428.00000
    33.7118    11274.00000
    33.7249    10490.00000
    33.7380     9187.00000
    33.7511     8602.00000
    33.7643     7887.00000
    33.7774     7704.00000
    33.7905     7338.00000
    33.8037     7350.00000
    33.8168     7324.00000
    33.8299     7294.00000
    33.8431     7244.00000
    33.8562     6983.00000
    33.8693     6962.00000
    33.8825     7177.00000
    33.8956     7295.00000
    33.9087     7325.00000
    33.9218     7516.00000
    33.9350     7657.00000
    33.9481     7707.00000
    33.9612     7758.00000
    33.9744     7686.00000
    33.9875     7536.00000
    34.0006     7598.00000
    34.0138     7623.00000
    34.0269     7523.00000
    34.0400     7676.00000
    34.0531     7735.00000
    34.0663     8167.00000
    34.0794     8689.00000
    34.0925     9295.00000
    34.1057    11039.00000
    34.1188    13212.00000
    34.1319    14582.00000
    34.1451    14096.00000
    34.1582    12542.00000
    34.1713    11094.00000
    34.1844    10049.00000
    34.1976    10197.00000
    34.2107    10923.00000
    34.2238    11192.00000
    34.2370    10538.00000
    34.2501     9625.00000
    34.2632     8490.00000
    34.2764     7565.00000
    34.2895     7469.00000
    34.3026     7124.00000
    34.3158     6974.00000
    34.3289     6967.00000
    34.3420     6830.00000
    34.3551     6895.00000
    34.3683     6853.00000
    34.3814     6477.00000
    34.3945     6673.00000
    34.4077     6832.00000
    34.4208     6736.00000
    34.4339     6844.00000
    34.4471     6719.00000
    34.4602     6782.00000
    34.4733     6652.00000
    34.4864     6834.00000
    34.4996     6912.00000
    34.5127     6711.00000
    34.5258     6700.00000
    34.5390     6726.00000
    34.5521     6856.00000
    34.5652     6895.00000
    34.5784     6889.00000
    34.5915     6856.00000
    34.6046     6769.00000
    34.6177     6822.00000
    34.6309     6609.00000
    34.6440     6895.00000
    34.6571     6933.00000
    34.6703     7026.00000
    34.6834     6892.00000
    34.6965     6806.00000
    34.7097     7023.00000
    34.7228     7098.00000
    34.7359     7280.00000
    34.7491     7610.00000
    34.7622     8286.00000
    34.7753     8866.00000
    34.7884    10424.00000
    34.8016    11696.00000
    34.8147    12521.00000
    34.8278    12015.00000
    34.8410    11188.00000
    34.8541    10203.00000
    34.8672     9840.00000
    34.8804     9609.00000
    34.8935     9578.00000
    34.9066     9943.00000
    34.9197     9351.00000
    34.9329     8794.00000
    34.9460     8166.00000
    34.9591     7755.00000
    34.9723     7461.00000
    34.9854     7212.00000
    34.9985     7179.00000
    35.0117     7570.00000
    35.0248     7518.00000
    35.0379     7611.00000
    35.0510     7366.00000
    35.0642     7127.00000
    35.0773     7155.00000
    35.0904     7132.00000
    35.1036     7120.00000
    35.1167     7049.00000
    35.1298     7015.00000
    35.1430     7145.00000
    35.1561     6723.00000
    35.1692     6499.00000
    35.1824     6520.00000
    35.1955     6857.00000
    35.2086     6802.00000
    35.2217     6616.00000
    35.2349     6766.00000
    35.2480     6683.00000
    35.2611     6623.00000
    35.2743     6537.00000
    35.2874     6562.00000
    35.3005     6513.00000
    35.3137     6714.00000
    35.3268     6575.00000
    35.3399     6652.00000
    35.3530     6488.00000
    35.3662     6552.00000
    35.3793     6553.00000
    35.3924     6586.00000
    35.4056     6583.00000
    35.4187     6692.00000
    35.4318     6820.00000
    35.4450     6605.00000
    35.4581     6666.00000
    35.4712     6533.00000
    35.4843     6755.00000
    35.4975     6771.00000
    35.5106     6659.00000
    35.5237     6535.00000
    35.5369     6650.00000
    35.5500     6807.00000
    35.5631     6638.00000
    35.5763     6532.00000
    35.5894     6497.00000
    35.6025     6542.00000
    35.6156     6640.00000
    35.6288     6625.00000
    35.6419     6596.00000
    35.6550     6805.00000
    35.6682     6613.00000
    35.6813     6428.00000
    35.6944     6532.00000
    35.7076     6523.00000
    35.7207     6558.00000
    35.7338     6721.00000
    35.7470     6478.00000
    35.7601     6526.00000
    35.7732     6734.00000
    35.7863     6705.00000
    35.7995     6458.00000
    35.8126     6406.00000
    35.8257     6610.00000
    35.8389     6764.00000
    35.8520     6686.00000
    35.8651     6523.00000
    35.8783     6498.00000
    35.8914     6415.00000
    35.9045     6568.00000
    35.9176     6509.00000
    35.9308     6628.00000
    35.9439     6493.00000
    35.9570     6636.00000
    35.9702     6630.00000
    35.9833     6608.00000
    35.9964     6515.00000
    36.0096     6514.00000
    36.0227     6539.00000
    36.0358     6705.00000
    36.0489     6494.00000
    36.0621     6335.00000
    36.0752     6560.00000
    36.0883     6551.00000
    36.1015     6607.00000
    36.1146     6506.00000
    36.1277     6719.00000
    36.1409     6599.00000
    36.1540     6637.00000
    36.1671     6699.00000
    36.1802     6636.00000
    36.1934     6679.00000
    36.2065     6733.00000
    36.2196     6510.00000
    36.2328     6616.00000
    36.2459     6691.00000
    36.2590     6768.00000
    36.2722     6697.00000
    36.2853     6507.00000
    36.2984     6723.00000
    36.3116     6743.00000
    36.3247     6736.00000
    36.3378     6862.00000
    36.3509     6690.00000
    36.3641     6604.00000
    36.3772     6779.00000
    36.3903     6828.00000
    36.4035     6794.00000
    36.4166     6865.00000
    36.4297     7213.00000
    36.4429     7714.00000
    36.4560     8412.00000
    36.4691     9094.00000
    36.4822    10064.00000
    36.4954    10012.00000
    36.5085     9557.00000
    36.5216     8942.00000
    36.5348     8100.00000
    36.5479     7836.00000
    36.5610     8157.00000
    36.5742     8330.00000
    36.5873     8381.00000
    36.6004     8093.00000
    36.6135     7841.00000
    36.6267     7288.00000
    36.6398     7083.00000
    36.6529     6813.00000
    36.6661     6612.00000
    36.6792     6649.00000
    36.6923     6563.00000
    36.7055     6817.00000
    36.7186     6667.00000
    36.7317     6485.00000
    36.7449     6495.00000
    36.7580     6507.00000
    36.7711     6552.00000
    36.7842     6655.00000
    36.7974     6713.00000
    36.8105     6482.00000
    36.8236     6613.00000
    36.8368     6404.00000
    36.8499     6635.00000
    36.8630     6768.00000
    36.8762     6566.00000
    36.8893     6684.00000
    36.9024     6654.00000
    36.9155     6598.00000
    36.9287     6496.00000
    36.9418     6652.00000
    36.9549     6621.00000
    36.9681     6404.00000
    36.9812     6473.00000
    36.9943     6513.00000
    37.0075     6507.00000
    37.0206     6607.00000
    37.0337     6649.00000
    37.0468     6589.00000
    37.0600     6488.00000
    37.0731     6674.00000
    37.0862     6736.00000
    37.0994     6517.00000
    37.1125     6652.00000
    37.1256     6613.00000
    37.1388     6582.00000
    37.1519     6602.00000
    37.1650     6397.00000
    37.1782     6701.00000
    37.1913     6584.00000
    37.2044     6571.00000
    37.2175     6498.00000
    37.2307     6630.00000
    37.2438     6548.00000
    37.2569     6723.00000
    37.2701     6639.00000
    37.2832     6647.00000
    37.2963     6598.00000
    37.3095     6772.00000
    37.3226     6718.00000
    37.3357     6634.00000
    37.3488     6567.00000
    37.3620     6877.00000
    37.3751     6911.00000
    37.3882     6972.00000
    37.4014     7098.00000
    37.4145     7375.00000
    37.4276     7536.00000
    37.4408     7413.00000
    37.4539     7099.00000
    37.4670     6974.00000
    37.4801     7161.00000
    37.4933     7130.00000
    37.5064     7516.00000
    37.5195     7643.00000
    37.5327     7706.00000
    37.5458     8006.00000
    37.5589     8828.00000
    37.5721     9768.00000
    37.5852    10693.00000
    37.5983    11702.00000
    37.6115    11896.00000
    37.6246    11154.00000
    37.6377     9862.00000
    37.6508     9750.00000
    37.6640     9596.00000
    37.6771    10038.00000
    37.6902    10763.00000
    37.7034    11483.00000
    37.7165    11210.00000
    37.7296    10429.00000
    37.7428     9403.00000
    37.7559     8599.00000
    37.7690     7986.00000
    37.7821     7776.00000
    37.7953     7975.00000
    37.8084     8003.00000
    37.8215     7832.00000
    37.8347     7589.00000
    37.8478     7357.00000
    37.8609     7054.00000
    37.8741     6891.00000
    37.8872     6806.00000
    37.9003     6643.00000
    37.9134     6622.00000
    37.9266     6710.00000
    37.9397     6576.00000
    37.9528     6611.00000
    37.9660     6621.00000
    37.9791     6737.00000
    37.9922     6889.00000
    38.0054     6632.00000
    38.0185     6775.00000
    38.0316     6651.00000
    38.0448     6681.00000
    38.0579     6924.00000
    38.0710     6682.00000
    38.0841     6580.00000
    38.0973     6611.00000
    38.1104     6574.00000
    38.1235     6698.00000
    38.1367     6532.00000
    38.1498     6515.00000
    38.1629     6403.00000
    38.1761     6595.00000
    38.1892     6554.00000
    38.2023     6614.00000
    38.2154     6374.00000
    38.2286     6357.00000
    38.2417     6598.00000
    38.2548     6355.00000
    38.2680     6455.00000
    38.2811     6458.00000
    38.2942     6391.00000
    38.3074     6455.00000
    38.3205     6569.00000
    38.3336     6602.00000
    38.3467     6517.00000
    38.3599     6472.00000
    38.3730     6413.00000
    38.3861     6389.00000
    38.3993     6683.00000
    38.4124     6384.00000
    38.4255     6607.00000
    38.4387     6496.00000
    38.4518     6501.00000
    38.4649     6608.00000
    38.4781     6477.00000
    38.4912     6233.00000
    38.5043     6523.00000
    38.5174     6514.00000
    38.5306     6355.00000
    38.5437     6433.00000
    38.5568     6425.00000
    38.5700     6464.00000
    38.5831     6383.00000
    38.5962     6437.00000
    38.6094     6534.00000
    38.6225     6457.00000
    38.6356     6384.00000
    38.6487     6355.00000
    38.6619     6288.00000
    38.6750     6510.00000
    38.6881     6403.00000
    38.7013     6478.00000
    38.7144     6334.00000
    38.7275     6486.00000
    38.7407     6487.00000
    38.7538     6422.00000
    38.7669     6722.00000
    38.7800     6501.00000
    38.7932     6381.00000
    38.8063     6471.00000
    38.8194     6398.00000
    38.8326     6462.00000
    38.8457     6315.00000
    38.8588     6373.00000
    38.8720     6637.00000
    38.8851     6520.00000
    38.8982     6557.00000
    38.9114     6520.00000
    38.9245     6449.00000
    38.9376     6543.00000
    38.9507     6633.00000
    38.9639     6469.00000
    38.9770     6700.00000
    38.9901     6411.00000
    39.0033     6535.00000
    39.0164     6421.00000
    39.0295     6587.00000
    39.0427     6643.00000
    39.0558     6559.00000
    39.0689     6558.00000
    39.0820     6719.00000
    39.0952     6660.00000
    39.1083     7070.00000
    39.1214     7424.00000
    39.1346     7831.00000
    39.1477     8609.00000
    39.1608     9505.00000
    39.1740     9222.00000
    39.1871     8841.00000
    39.2002     8173.00000
    39.2133     7920.00000
    39.2265     7365.00000
    39.2396     7727.00000
    39.2527     7811.00000
    39.2659     8037.00000
    39.2790     8064.00000
    39.2921     7694.00000
    39.3053     7458.00000
    39.3184     6996.00000
    39.3315     6843.00000
    39.3446     6606.00000
    39.3578     6585.00000
    39.3709     6330.00000
    39.3840     6549.00000
    39.3972     6403.00000
    39.4103     6430.00000
    39.4234     6294.00000
    39.4366     6518.00000
    39.4497     6413.00000
    39.4628     6422.00000
    39.4760     6375.00000
    39.4891     6527.00000
    39.5022     6445.00000
    39.5153     6370.00000
    39.5285     6540.00000
    39.5416     6519.00000
    39.5547     6560.00000
    39.5679     6486.00000
    39.5810     6454.00000
    39.5941     6584.00000
    39.6073     6506.00000
    39.6204     6599.00000
    39.6335     6357.00000
    39.6466     6500.00000
    39.6598     6564.00000
    39.6729     6471.00000
    39.6860     6497.00000
    39.6992     6528.00000
    39.7123     6518.00000
    39.7254     6643.00000
    39.7386     6467.00000
    39.7517     6482.00000
    39.7648     6612.00000
    39.7779     6472.00000
    39.7911     6511.00000
    39.8042     6494.00000
    39.8173     6434.00000
    39.8305     6550.00000
    39.8436     6399.00000
    39.8567     6490.00000
    39.8699     6414.00000
    39.8830     6515.00000
    39.8961     6590.00000
    39.9092     6457.00000
    39.9224     6409.00000
    39.9355     6483.00000
    39.9486     6432.00000
    39.9618     6557.00000
    39.9749     6649.00000
    39.9880     6405.00000
    40.0012     6578.00000
    40.0143     6656.00000
    40.0274     6745.00000
    40.0406     6499.00000
    40.0537     6504.00000
    40.0668     6614.00000
    40.0799     6781.00000
    40.0931     6719.00000
    40.1062     6828.00000
    40.1193     6868.00000
    40.1325     6894.00000
    40.1456     7339.00000
    40.1587     7863.00000
    40.1719     8560.00000
    40.1850     8882.00000
    40.1981     9511.00000
    40.2112     9841.00000
    40.2244     9992.00000
    40.2375     9912.00000
    40.2506     9273.00000
    40.2638     8992.00000
    40.2769     8372.00000
    40.2900     8259.00000
    40.3032     8140.00000
    40.3163     8228.00000
    40.3294     8309.00000
    40.3425     8033.00000
    40.3557     8033.00000
    40.3688     7604.00000
    40.3819     6904.00000
    40.3951     6727.00000
    40.4082     6737.00000
    40.4213     6574.00000
    40.4345     6633.00000
    40.4476     6516.00000
    40.4607     6658.00000
    40.4739     6427.00000
    40.4870     6371.00000
    40.5001     6386.00000
    40.5132     6425.00000
    40.5264     6569.00000
    40.5395     6362.00000
    40.5526     6449.00000
    40.5658     6458.00000
    40.5789     6414.00000
    40.5920     6495.00000
    40.6052     6434.00000
    40.6183     6623.00000
    40.6314     6344.00000
    40.6445     6742.00000
    40.6577     6541.00000
    40.6708     6475.00000
    40.6839     6383.00000
    40.6971     6357.00000
    40.7102     6464.00000
    40.7233     6388.00000
    40.7365     6494.00000
    40.7496     6417.00000
    40.7627     6373.00000
    40.7758     6619.00000
    40.7890     6562.00000
    40.8021     6672.00000
    40.8152     6643.00000
    40.8284     6538.00000
    40.8415     6572.00000
    40.8546     6798.00000
    40.8678     6770.00000
    40.8809     6755.00000
    40.8940     6950.00000
    40.9072     6891.00000
    40.9203     7230.00000
    40.9334     7422.00000
    40.9465     7920.00000
    40.9597     8517.00000
    40.9728     9100.00000
    40.9859     9413.00000
    40.9991    10115.00000
    41.0122    11150.00000
    41.0253    11831.00000
    41.0385    12445.00000
    41.0516    12173.00000
    41.0647    11453.00000
    41.0778    10807.00000
    41.0910    10353.00000
    41.1041    10647.00000
    41.1172    11204.00000
    41.1304    11672.00000
    41.1435    11994.00000
    41.1566    11533.00000
    41.1698    10416.00000
    41.1829     9355.00000
    41.1960     8588.00000
    41.2091     8173.00000
    41.2223     8016.00000
    41.2354     8014.00000
    41.2485     8082.00000
    41.2617     7952.00000
    41.2748     7715.00000
    41.2879     7097.00000
    41.3011     7028.00000
    41.3142     6745.00000
    41.3273     6654.00000
    41.3405     6602.00000
    41.3536     6658.00000
    41.3667     6697.00000
    41.3798     6697.00000
    41.3930     6532.00000
    41.4061     6609.00000
    41.4192     6631.00000
    41.4324     6618.00000
    41.4455     6569.00000
    41.4586     6556.00000
    41.4718     6491.00000
    41.4849     6512.00000
    41.4980     6411.00000
    41.5111     6501.00000
    41.5243     6586.00000
    41.5374     6452.00000
    41.5505     6369.00000
    41.5637     6440.00000
    41.5768     6491.00000
    41.5899     6373.00000
    41.6031     6377.00000
    41.6162     6412.00000
    41.6293     6361.00000
    41.6424     6405.00000
    41.6556     6265.00000
    41.6687     6249.00000
    41.6818     6421.00000
    41.6950     6535.00000
    41.7081     6695.00000
    41.7212     6334.00000
    41.7344     6488.00000
    41.7475     6303.00000
    41.7606     6378.00000
    41.7738     6376.00000
    41.7869     6482.00000
    41.8000     6433.00000
    41.8131     6526.00000
    41.8263     6537.00000
    41.8394     6395.00000
    41.8525     6428.00000
    41.8657     6536.00000
    41.8788     6416.00000
    41.8919     6476.00000
    41.9051     6536.00000
    41.9182     6740.00000
    41.9313     6674.00000
    41.9444     6411.00000
    41.9576     6510.00000
    41.9707     6407.00000
    41.9838     6488.00000
    41.9970     6480.00000
    42.0101     6537.00000
    42.0232     6520.00000
    42.0364     6546.00000
    42.0495     6463.00000
    42.0626     6390.00000
    42.0757     6499.00000
    42.0889     6436.00000
    42.1020     6331.00000
    42.1151     6597.00000
    42.1283     6459.00000
    42.1414     6330.00000
    42.1545     6375.00000
    42.1677     6555.00000
    42.1808     6446.00000
    42.1939     6519.00000
    42.2071     6391.00000
    42.2202     6408.00000
    42.2333     6411.00000
    42.2464     6477.00000
    42.2596     6361.00000
    42.2727     6259.00000
    42.2858     6404.00000
    42.2990     6468.00000
    42.3121     6344.00000
    42.3252     6373.00000
    42.3384     6472.00000
    42.3515     6505.00000
    42.3646     6422.00000
    42.3777     6466.00000
    42.3909     6207.00000
    42.4040     6385.00000
    42.4171     6546.00000
    42.4303     6355.00000
    42.4434     6425.00000
    42.4565     6487.00000
    42.4697     6331.00000
    42.4828     6430.00000
    42.4959     6528.00000
    42.5090     6552.00000
    42.5222     6381.00000
    42.5353     6289.00000
    42.5484     6500.00000
    42.5616     6590.00000
    42.5747     6435.00000
    42.5878     6482.00000
    42.6010     6407.00000
    42.6141     6557.00000
    42.6272     6322.00000
    42.6404     6378.00000
    42.6535     6441.00000
    42.6666     6469.00000
    42.6797     6365.00000
    42.6929     6457.00000
    42.7060     6440.00000
    42.7191     6361.00000
    42.7323     6487.00000
    42.7454     6515.00000
    42.7585     6477.00000
    42.7717     6313.00000
    42.7848     6434.00000
    42.7979     6489.00000
    42.8110     6397.00000
    42.8242     6464.00000
    42.8373     6330.00000
    42.8504     6361.00000
    42.8636     6498.00000
    42.8767     6264.00000
    42.8898     6347.00000
    42.9030     6412.00000
    42.9161     6398.00000
    42.9292     6232.00000
    42.9423     6255.00000
    42.9555     6167.00000
    42.9686     6435.00000
    42.9817     6337.00000
    42.9949     6393.00000
    43.0080     6510.00000
    43.0211     6577.00000
    43.0343     6487.00000
    43.0474     6462.00000
    43.0605     6356.00000
    43.0736     6130.00000
    43.0868     6466.00000
    43.0999     6456.00000
    43.1130     6393.00000
    43.1262     6415.00000
    43.1393     6268.00000
    43.1524     6309.00000
    43.1656     6356.00000
    43.1787     6482.00000
    43.1918     6320.00000
    43.2050     6467.00000
    43.2181     6462.00000
    43.2312     6596.00000
    43.2443     6548.00000
    43.2575     6355.00000
    43.2706     6438.00000
    43.2837     6417.00000
    43.2969     6349.00000
    43.3100     6446.00000
    43.3231     6473.00000
    43.3363     6478.00000
    43.3494     6371.00000
    43.3625     6402.00000
    43.3756     6454.00000
    43.3888     6335.00000
    43.4019     6356.00000
    43.4150     6527.00000
    43.4282     6586.00000
    43.4413     6555.00000
    43.4544     6584.00000
    43.4676     6747.00000
    43.4807     7027.00000
    43.4938     7358.00000
    43.5069     7613.00000
    43.5201     7900.00000
    43.5332     7657.00000
    43.5463     7258.00000
    43.5595     7071.00000
    43.5726     7047.00000
    43.5857     6976.00000
    43.5989     7179.00000
    43.6120     7050.00000
    43.6251     7271.00000
    43.6383     7307.00000
    43.6514     7087.00000
    43.6645     7029.00000
    43.6776     6770.00000
    43.6908     6592.00000
    43.7039     6690.00000
    43.7170     6652.00000
    43.7302     6605.00000
    43.7433     6425.00000
    43.7564     6488.00000
    43.7696     6653.00000
    43.7827     6273.00000
    43.7958     6235.00000
    43.8089     6459.00000
    43.8221     6582.00000
    43.8352     6491.00000
    43.8483     6426.00000
    43.8615     6332.00000
    43.8746     6374.00000
    43.8877     6360.00000
    43.9009     6506.00000
    43.9140     6383.00000
    43.9271     6250.00000
    43.9402     6392.00000
    43.9534     6518.00000
    43.9665     6335.00000
    43.9796     6593.00000
    43.9928     6387.00000
    44.0059     6621.00000
    44.0190     6546.00000
    44.0322     6623.00000
    44.0453     6592.00000
    44.0584     6653.00000
    44.0715     6699.00000
    44.0847     6694.00000
    44.0978     6389.00000
    44.1109     6508.00000
    44.1241     6541.00000
    44.1372     6586.00000
    44.1503     6719.00000
    44.1635     6686.00000
    44.1766     6569.00000
    44.1897     6519.00000
    44.2029     6695.00000
    44.2160     6382.00000
    44.2291     6480.00000
    44.2422     6490.00000
    44.2554     6534.00000
    44.2685     6545.00000
    44.2816     6530.00000
    44.2948     6612.00000
    44.3079     6573.00000
    44.3210     6503.00000
    44.3342     6624.00000
    44.3473     6630.00000
    44.3604     6698.00000
    44.3735     6773.00000
    44.3867     6826.00000
    44.3998     6796.00000
    44.4129     6874.00000
    44.4261     7019.00000
    44.4392     7317.00000
    44.4523     7699.00000
    44.4655     8144.00000
    44.4786     8900.00000
    44.4917    10280.00000
    44.5048    12032.00000
    44.5180    13314.00000
    44.5311    13867.00000
    44.5442    13240.00000
    44.5574    11899.00000
    44.5705    10744.00000
    44.5836     9533.00000
    44.5968     9067.00000
    44.6099     9393.00000
    44.6230     9752.00000
    44.6362    10068.00000
    44.6493    10155.00000
    44.6624     9701.00000
    44.6755     9213.00000
    44.6887     8274.00000
    44.7018     7667.00000
    44.7149     7317.00000
    44.7281     7183.00000
    44.7412     6986.00000
    44.7543     6881.00000
    44.7675     6886.00000
    44.7806     6669.00000
    44.7937     6683.00000
    44.8068     6495.00000
    44.8200     6686.00000
    44.8331     6568.00000
    44.8462     6520.00000
    44.8594     6481.00000
    44.8725     6528.00000
    44.8856     6296.00000
    44.8988     6455.00000
    44.9119     6607.00000
    44.9250     6495.00000
    44.9381     6476.00000
    44.9513     6518.00000
    44.9644     6569.00000
    44.9775     6407.00000
    44.9907     6384.00000
    45.0038     6563.00000
    45.0169     6356.00000
    45.0301     6401.00000
    45.0432     6343.00000
    45.0563     6466.00000
    45.0695     6486.00000
    45.0826     6464.00000
    45.0957     6342.00000
    45.1088     6308.00000
    45.1220     6305.00000
    45.1351     6386.00000
    45.1482     6462.00000
    45.1614     6289.00000
    45.1745     6324.00000
    45.1876     6145.00000
    45.2008     6438.00000
    45.2139     6421.00000
    45.2270     6480.00000
    45.2401     6344.00000
    45.2533     6429.00000
    45.2664     6493.00000
    45.2795     6333.00000
    45.2927     6454.00000
    45.3058     6425.00000
    45.3189     6405.00000
    45.3321     6373.00000
    45.3452     6424.00000
    45.3583     6705.00000
    45.3714     6482.00000
    45.3846     6256.00000
    45.3977     6210.00000
    45.4108     6312.00000
    45.4240     6334.00000
    45.4371     6418.00000
    45.4502     6358.00000
    45.4634     6424.00000
    45.4765     6382.00000
    45.4896     6483.00000
    45.5028     6374.00000
    45.5159     6315.00000
    45.5290     6238.00000
    45.5421     6493.00000
    45.5553     6398.00000
    45.5684     6448.00000
    45.5815     6568.00000
    45.5947     6289.00000
    45.6078     6666.00000
    45.6209     6628.00000
    45.6341     6299.00000
    45.6472     6327.00000
    45.6603     6495.00000
    45.6734     6426.00000
    45.6866     6332.00000
    45.6997     6363.00000
    45.7128     6664.00000
    45.7260     6456.00000
    45.7391     6597.00000
    45.7522     6549.00000
    45.7654     6605.00000
    45.7785     6595.00000
    45.7916     6479.00000
    45.8047     6583.00000
    45.8179     6573.00000
    45.8310     6823.00000
    45.8441     6855.00000
    45.8573     6772.00000
    45.8704     6802.00000
    45.8835     6867.00000
    45.8967     7073.00000
    45.9098     7005.00000
    45.9229     7028.00000
    45.9361     7002.00000
    45.9492     7394.00000
    45.9623     7350.00000
    45.9754     7735.00000
    45.9886     8104.00000
    46.0017     9068.00000
    46.0148    10523.00000
    46.0280    12907.00000
    46.0411    16308.00000
    46.0542    19892.00000
    46.0674    21816.00000
    46.0805    21349.00000
    46.0936    18181.00000
    46.1067    14551.00000
    46.1199    12072.00000
    46.1330    10844.00000
    46.1461    11057.00000
    46.1593    11736.00000
    46.1724    13341.00000
    46.1855    14602.00000
    46.1987    14062.00000
    46.2118    13037.00000
    46.2249    11264.00000
    46.2380     9559.00000
    46.2512     8652.00000
    46.2643     7962.00000
    46.2774     8022.00000
    46.2906     7665.00000
    46.3037     7503.00000
    46.3168     7214.00000
    46.3300     6999.00000
    46.3431     6753.00000
    46.3562     6805.00000
    46.3694     6946.00000
    46.3825     7022.00000
    46.3956     6888.00000
    46.4087     7293.00000
    46.4219     7085.00000
    46.4350     6944.00000
    46.4481     6831.00000
    46.4613     6779.00000
    46.4744     6660.00000
    46.4875     6596.00000
    46.5007     6625.00000
    46.5138     6414.00000
    46.5269     6468.00000
    46.5400     6580.00000
    46.5532     6487.00000
    46.5663     6578.00000
    46.5794     6559.00000
    46.5926     6504.00000
    46.6057     6409.00000
    46.6188     6515.00000
    46.6320     6464.00000
    46.6451     6442.00000
    46.6582     6508.00000
    46.6713     6508.00000
    46.6845     6430.00000
    46.6976     6443.00000
    46.7107     6595.00000
    46.7239     6375.00000
    46.7370     6421.00000
    46.7501     6447.00000
    46.7633     6474.00000
    46.7764     6364.00000
    46.7895     6416.00000
    46.8027     6463.00000
    46.8158     6510.00000
    46.8289     6317.00000
    46.8420     6326.00000
    46.8552     6497.00000
    46.8683     6425.00000
    46.8814     6380.00000
    46.8946     6403.00000
    46.9077     6386.00000
    46.9208     6531.00000
    46.9340     6310.00000
    46.9471     6490.00000
    46.9602     6423.00000
    46.9733     6427.00000
    46.9865     6597.00000
    46.9996     6626.00000
    47.0127     6476.00000
    47.0259     6169.00000
    47.0390     6465.00000
    47.0521     6505.00000
    47.0653     6344.00000
    47.0784     6463.00000
    47.0915     6610.00000
    47.1046     6593.00000
    47.1178     6459.00000
    47.1309     6402.00000
    47.1440     6535.00000
    47.1572     6578.00000
    47.1703     6659.00000
    47.1834     6425.00000
    47.1966     6616.00000
    47.2097     6795.00000
    47.2228     6644.00000
    47.2359     6811.00000
    47.2491     6850.00000
    47.2622     6829.00000
    47.2753     7086.00000
    47.2885     7429.00000
    47.3016     7732.00000
    47.3147     8039.00000
    47.3279     8678.00000
    47.3410     9037.00000
    47.3541     9383.00000
    47.3673     9180.00000
    47.3804     8480.00000
    47.3935     8098.00000
    47.4066     7902.00000
    47.4198     7675.00000
    47.4329     7714.00000
    47.4460     7999.00000
    47.4592     8329.00000
    47.4723     8689.00000
    47.4854     9523.00000
    47.4986    10075.00000
    47.5117    11117.00000
    47.5248    12609.00000
    47.5379    13407.00000
    47.5511    13328.00000
    47.5642    12073.00000
    47.5773    10168.00000
    47.5905     9078.00000
    47.6036     8447.00000
    47.6167     8645.00000
    47.6299     8941.00000
    47.6430     9353.00000
    47.6561     9810.00000
    47.6692    10148.00000
    47.6824     9730.00000
    47.6955     9031.00000
    47.7086     8296.00000
    47.7218     7878.00000
    47.7349     7478.00000
    47.7480     7331.00000
    47.7612     7209.00000
    47.7743     7215.00000
    47.7874     7000.00000
    47.8005     6981.00000
    47.8137     6993.00000
    47.8268     6945.00000
    47.8399     6977.00000
    47.8531     6914.00000
    47.8662     7119.00000
    47.8793     7016.00000
    47.8925     6957.00000
    47.9056     7243.00000
    47.9187     6914.00000
    47.9319     7133.00000
    47.9450     7397.00000
    47.9581     7455.00000
    47.9712     7601.00000
    47.9844     7944.00000
    47.9975     8272.00000
    48.0106     8777.00000
    48.0238     9861.00000
    48.0369    11204.00000
    48.0500    13040.00000
    48.0632    15464.00000
    48.0763    18144.00000
    48.0894    20672.00000
    48.1025    20820.00000
    48.1157    19435.00000
    48.1288    16828.00000
    48.1419    14188.00000
    48.1551    12441.00000
    48.1682    11792.00000
    48.1813    11777.00000
    48.1945    12566.00000
    48.2076    13466.00000
    48.2207    13992.00000
    48.2338    13627.00000
    48.2470    12889.00000
    48.2601    11146.00000
    48.2732     9844.00000
    48.2864     8839.00000
    48.2995     8283.00000
    48.3126     7618.00000
    48.3258     7260.00000
    48.3389     7296.00000
    48.3520     6987.00000
    48.3652     6907.00000
    48.3783     7012.00000
    48.3914     6896.00000
    48.4045     6855.00000
    48.4177     6764.00000
    48.4308     6684.00000
    48.4439     6728.00000
    48.4571     6748.00000
    48.4702     6691.00000
    48.4833     6665.00000
    48.4965     6598.00000
    48.5096     6553.00000
    48.5227     6668.00000
    48.5358     6580.00000
    48.5490     6456.00000
    48.5621     6657.00000
    48.5752     6570.00000
    48.5884     6706.00000
    48.6015     6806.00000
    48.6146     6661.00000
    48.6278     6805.00000
    48.6409     6770.00000
    48.6540     6877.00000
    48.6671     7090.00000
    48.6803     7385.00000
    48.6934     7455.00000
    48.7065     7758.00000
    48.7197     7923.00000
    48.7328     8052.00000
    48.7459     7806.00000
    48.7591     7553.00000
    48.7722     7641.00000
    48.7853     7655.00000
    48.7985     7667.00000
    48.8116     7896.00000
    48.8247     7918.00000
    48.8378     7765.00000
    48.8510     7772.00000
    48.8641     7761.00000
    48.8772     7659.00000
    48.8904     7345.00000
    48.9035     7340.00000
    48.9166     7279.00000
    48.9298     7506.00000
    48.9429     7281.00000
    48.9560     7168.00000
    48.9691     7216.00000
    48.9823     7143.00000
    48.9954     7239.00000
    49.0085     7299.00000
    49.0217     7407.00000
    49.0348     7458.00000
    49.0479     7466.00000
    49.0611     7783.00000
    49.0742     7967.00000
    49.0873     8312.00000
    49.1004     8861.00000
    49.1136     9767.00000
    49.1267    11336.00000
    49.1398    13118.00000
    49.1530    15115.00000
    49.1661    16452.00000
    49.1792    16418.00000
    49.1924    14787.00000
    49.2055    12841.00000
    49.2186    11088.00000
    49.2318    10148.00000
    49.2449    10113.00000
    49.2580    10852.00000
    49.2711    12031.00000
    49.2843    13301.00000
    49.2974    14632.00000
    49.3105    14775.00000
    49.3237    13414.00000
    49.3368    11811.00000
    49.3499    10311.00000
    49.3631     9401.00000
    49.3762     8898.00000
    49.3893     8596.00000
    49.4024     8493.00000
    49.4156     8445.00000
    49.4287     8621.00000
    49.4418     8661.00000
    49.4550     8472.00000
    49.4681     8079.00000
    49.4812     7726.00000
    49.4944     7561.00000
    49.5075     7393.00000
    49.5206     7247.00000
    49.5337     7015.00000
    49.5469     7078.00000
    49.5600     6865.00000
    49.5731     6725.00000
    49.5863     6645.00000
    49.5994     6569.00000
    49.6125     6794.00000
    49.6257     6883.00000
    49.6388     6781.00000
    49.6519     6895.00000
    49.6651     6730.00000
    49.6782     6935.00000
    49.6913     7022.00000
    49.7044     7028.00000
    49.7176     6914.00000
    49.7307     7116.00000
    49.7438     7089.00000
    49.7570     7028.00000
    49.7701     7245.00000
    49.7832     7594.00000
    49.7964     7911.00000
    49.8095     8543.00000
    49.8226     9014.00000
    49.8357    10144.00000
    49.8489    11745.00000
    49.8620    13840.00000
    49.8751    16640.00000
    49.8883    18957.00000
    49.9014    20070.00000
    49.9145    19215.00000
    49.9277    16855.00000
    49.9408    14098.00000
    49.9539    12326.00000
    49.9670    10999.00000
    49.9802    10672.00000
    49.9933    11260.00000
    50.0064    12318.00000
    50.0196    13260.00000
    50.0327    13633.00000
    50.0458    13120.00000
    50.0590    11996.00000
    50.0721    10521.00000
    50.0852     9146.00000
    50.0984     8397.00000
    50.1115     7814.00000
    50.1246     7575.00000
    50.1377     7201.00000
    50.1509     7201.00000
    50.1640     7085.00000
    50.1771     6932.00000
    50.1903     6912.00000
    50.2034     6761.00000
    50.2165     6679.00000
    50.2297     6916.00000
    50.2428     6816.00000
    50.2559     6810.00000
    50.2690     6609.00000
    50.2822     6632.00000
    50.2953     6780.00000
    50.3084     6768.00000
    50.3216     6750.00000
    50.3347     6967.00000
    50.3478     7070.00000
    50.3610     7246.00000
    50.3741     7471.00000
    50.3872     7577.00000
    50.4003     7535.00000
    50.4135     7520.00000
    50.4266     7329.00000
    50.4397     7117.00000
    50.4529     6997.00000
    50.4660     7085.00000
    50.4791     7144.00000
    50.4923     7284.00000
    50.5054     7668.00000
    50.5185     7888.00000
    50.5317     8158.00000
    50.5448     8732.00000
    50.5579     9041.00000
    50.5710     9678.00000
    50.5842    10012.00000
    50.5973    10478.00000
    50.6104    10590.00000
    50.6236    10592.00000
    50.6367     9918.00000
    50.6498     9531.00000
    50.6630     8773.00000
    50.6761     8668.00000
    50.6892     8482.00000
    50.7023     8591.00000
    50.7155     8596.00000
    50.7286     8663.00000
    50.7417     8484.00000
    50.7549     8521.00000
    50.7680     8349.00000
    50.7811     7959.00000
    50.7943     7628.00000
    50.8074     7311.00000
    50.8205     7132.00000
    50.8336     7170.00000
    50.8468     6645.00000
    50.8599     6722.00000
    50.8730     6632.00000
    50.8862     6622.00000
    50.8993     6539.00000
    50.9124     6530.00000
    50.9256     6700.00000
    50.9387     6438.00000
    50.9518     6456.00000
    50.9649     6455.00000
    50.9781     6543.00000
    50.9912     6524.00000
    51.0043     6631.00000
    51.0175     6642.00000
    51.0306     6771.00000
    51.0437     6588.00000
    51.0569     6533.00000
    51.0700     6656.00000
    51.0831     6486.00000
    51.0963     6601.00000
    51.1094     6264.00000
    51.1225     6445.00000
    51.1356     6569.00000
    51.1488     6425.00000
    51.1619     6560.00000
    51.1750     6675.00000
    51.1882     6598.00000
    51.2013     6570.00000
    51.2144     6403.00000
    51.2276     6432.00000
    51.2407     6539.00000
    51.2538     6394.00000
    51.2669     6489.00000
    51.2801     6637.00000
    51.2932     6479.00000
    51.3063     6596.00000
    51.3195     6576.00000
    51.3326     6698.00000
    51.3457     6544.00000
    51.3589     6610.00000
    51.3720     6356.00000
    51.3851     6638.00000
    51.3982     6657.00000
    51.4114     6650.00000
    51.4245     6568.00000
    51.4376     6542.00000
    51.4508     6586.00000
    51.4639     6782.00000
    51.4770     6810.00000
    51.4902     6666.00000
    51.5033     7045.00000
    51.5164     6895.00000
    51.5296     7044.00000
    51.5427     7322.00000
    51.5558     7687.00000
    51.5689     8142.00000
    51.5821     8644.00000
    51.5952     8991.00000
    51.6083     9280.00000
    51.6215     9233.00000
    51.6346     9522.00000
    51.6477    10104.00000
    51.6609    11539.00000
    51.6740    13343.00000
    51.6871    14936.00000
    51.7002    15359.00000
    51.7134    14478.00000
    51.7265    13326.00000
    51.7396    11954.00000
    51.7528    10679.00000
    51.7659    10081.00000
    51.7790     9680.00000
    51.7922     9483.00000
    51.8053    10001.00000
    51.8184    10526.00000
    51.8315    10691.00000
    51.8447    10685.00000
    51.8578     9851.00000
    51.8709     9202.00000
    51.8841     8624.00000
    51.8972     7944.00000
    51.9103     7617.00000
    51.9235     7283.00000
    51.9366     6950.00000
    51.9497     6897.00000
    51.9628     6904.00000
    51.9760     6695.00000
    51.9891     6613.00000
    52.0022     6825.00000
    52.0154     6695.00000
    52.0285     6489.00000
    52.0416     6493.00000
    52.0548     6462.00000
    52.0679     6495.00000
    52.0810     6588.00000
    52.0942     6526.00000
    52.1073     6414.00000
    52.1204     6581.00000
    52.1335     6511.00000
    52.1467     6559.00000
    52.1598     6474.00000
    52.1729     6456.00000
    52.1861     6516.00000
    52.1992     6531.00000
    52.2123     6528.00000
    52.2255     6668.00000
    52.2386     6467.00000
    52.2517     6320.00000
    52.2648     6482.00000
    52.2780     6515.00000
    52.2911     6296.00000
    52.3042     6429.00000
    52.3174     6488.00000
    52.3305     6512.00000
    52.3436     6547.00000
    52.3568     6272.00000
    52.3699     6192.00000
    52.3830     6453.00000
    52.3961     6347.00000
    52.4093     6402.00000
    52.4224     6542.00000
    52.4355     6388.00000
    52.4487     6383.00000
    52.4618     6280.00000
    52.4749     6396.00000
    52.4881     6465.00000
    52.5012     6577.00000
    52.5143     6303.00000
    52.5275     6600.00000
    52.5406     6493.00000
    52.5537     6421.00000
    52.5668     6468.00000
    52.5800     6459.00000
    52.5931     6504.00000
    52.6062     6431.00000
    52.6194     6615.00000
    52.6325     6822.00000
    52.6456     7424.00000
    52.6588     7760.00000
    52.6719     8247.00000
    52.6850     8152.00000
    52.6981     7862.00000
    52.7113     7552.00000
    52.7244     7005.00000
    52.7375     6909.00000
    52.7507     6855.00000
    52.7638     6512.00000
    52.7769     6823.00000
    52.7901     7026.00000
    52.8032     7190.00000
    52.8163     7551.00000
    52.8294     7328.00000
    52.8426     7140.00000
    52.8557     7018.00000
    52.8688     6769.00000
    52.8820     6549.00000
    52.8951     6597.00000
    52.9082     6409.00000
    52.9214     6294.00000
    52.9345     6295.00000
    52.9476     6286.00000
    52.9608     6379.00000
    52.9739     6323.00000
    52.9870     6442.00000
    53.0001     6421.00000
    53.0133     6276.00000
    53.0264     6166.00000
    53.0395     6265.00000
    53.0527     6343.00000
    53.0658     6336.00000
    53.0789     6409.00000
    53.0921     6282.00000
    53.1052     6388.00000
    53.1183     6235.00000
    53.1314     6390.00000
    53.1446     6289.00000
    53.1577     6399.00000
    53.1708     6464.00000
    53.1840     6254.00000
    53.1971     6301.00000
    53.2102     6257.00000
    53.2234     6491.00000
    53.2365     6455.00000
    53.2496     6528.00000
    53.2627     6512.00000
    53.2759     6723.00000
    53.2890     6510.00000
    53.3021     6474.00000
    53.3153     6396.00000
    53.3284     6403.00000
    53.3415     6560.00000
    53.3547     6505.00000
    53.3678     6405.00000
    53.3809     6419.00000
    53.3941     6616.00000
    53.4072     6310.00000
    53.4203     6382.00000
    53.4334     6463.00000
    53.4466     6446.00000
    53.4597     6336.00000
    53.4728     6328.00000
    53.4860     6299.00000
    53.4991     6315.00000
    53.5122     6527.00000
    53.5254     6426.00000
    53.5385     6398.00000
    53.5516     6285.00000
    53.5647     6209.00000
    53.5779     6363.00000
    53.5910     6327.00000
    53.6041     6413.00000
    53.6173     6252.00000
    53.6304     6343.00000
    53.6435     6368.00000
    53.6567     6282.00000
    53.6698     6501.00000
    53.6829     6199.00000
    53.6960     6351.00000
    53.7092     6365.00000
    53.7223     6570.00000
    53.7354     6567.00000
    53.7486     6571.00000
    53.7617     6384.00000
    53.7748     6505.00000
    53.7880     6313.00000
    53.8011     6314.00000
    53.8142     6396.00000
    53.8274     6306.00000
    53.8405     6268.00000
    53.8536     6348.00000
    53.8667     6344.00000
    53.8799     6475.00000
    53.8930     6445.00000
    53.9061     6451.00000
    53.9193     6475.00000
    53.9324     6563.00000
    53.9455     6503.00000
    53.9587     6341.00000
    53.9718     6335.00000
    53.9849     6411.00000
    53.9980     6459.00000
    54.0112     6249.00000
    54.0243     6144.00000
    54.0374     6022.00000
    54.0506     6379.00000
    54.0637     6232.00000
    54.0768     6373.00000
    54.0900     6400.00000
    54.1031     6261.00000
    54.1162     6269.00000
    54.1293     6336.00000
    54.1425     6364.00000
    54.1556     6261.00000
    54.1687     6206.00000
    54.1819     6308.00000
    54.1950     6216.00000
    54.2081     6333.00000
    54.2213     6279.00000
    54.2344     6234.00000
    54.2475     6346.00000
    54.2607     6416.00000
    54.2738     6307.00000
    54.2869     6239.00000
    54.3000     6362.00000
    54.3132     6327.00000
    54.3263     6335.00000
    54.3394     6330.00000
    54.3526     6359.00000
    54.3657     6247.00000
    54.3788     6400.00000
    54.3920     6355.00000
    54.4051     6324.00000
    54.4182     6279.00000
    54.4313     6340.00000
    54.4445     6405.00000
    54.4576     6354.00000
    54.4707     6242.00000
    54.4839     6351.00000
    54.4970     6323.00000
    54.5101     6407.00000
    54.5233     6282.00000
    54.5364     6349.00000
    54.5495     6293.00000
    54.5626     6278.00000
    54.5758     6195.00000
    54.5889     6360.00000
    54.6020     6285.00000
    54.6152     6425.00000
    54.6283     6209.00000
    54.6414     6416.00000
    54.6546     6409.00000
    54.6677     6327.00000
    54.6808     6243.00000
    54.6940     6352.00000
    54.7071     6203.00000
    54.7202     6275.00000
    54.7333     6158.00000
    54.7465     6159.00000
    54.7596     6179.00000
    54.7727     6344.00000
    54.7859     6186.00000
    54.7990     6333.00000
    54.8121     6404.00000
    54.8253     6196.00000
    54.8384     6502.00000
    54.8515     6388.00000
    54.8646     6371.00000
    54.8778     6258.00000
    54.8909     6497.00000
    54.9040     6235.00000
    54.9172     6283.00000
    54.9303     6263.00000
    54.9434     6261.00000
    54.9566     6635.00000
    54.9697     6356.00000
    54.9828     6407.00000
    54.9959     6301.00000
    55.0091     6222.00000
    55.0222     6396.00000
    55.0353     6561.00000
    55.0485     6345.00000
    55.0616     6359.00000
    55.0747     6313.00000
    55.0879     6506.00000
    55.1010     6275.00000
    55.1141     6250.00000
    55.1272     6340.00000
    55.1404     6268.00000
    55.1535     6212.00000
    55.1666     6508.00000
    55.1798     6388.00000
    55.1929     6453.00000
    55.2060     6445.00000
    55.2192     6356.00000
    55.2323     6414.00000
    55.2454     6538.00000
    55.2586     6554.00000
    55.2717     6427.00000
    55.2848     6538.00000
    55.2979     6508.00000
    55.3111     6496.00000
    55.3242     6637.00000
    55.3373     6376.00000
    55.3505     6606.00000
    55.3636     6573.00000
    55.3767     6661.00000
    55.3899     6653.00000
    55.4030     6682.00000
    55.4161     6834.00000
    55.4292     6925.00000
    55.4424     7158.00000
    55.4555     7407.00000
    55.4686     7952.00000
    55.4818     8649.00000
    55.4949     9051.00000
    55.5080     9108.00000
    55.5212     9078.00000
    55.5343     8814.00000
    55.5474     8403.00000
    55.5605     8192.00000
    55.5737     8430.00000
    55.5868     8367.00000
    55.5999     8414.00000
    55.6131     8992.00000
    55.6262     9984.00000
    55.6393    10994.00000
    55.6525    12534.00000
    55.6656    13669.00000
    55.6787    14432.00000
    55.6918    13980.00000
    55.7050    13084.00000
    55.7181    11668.00000
    55.7312    10190.00000
    55.7444     9178.00000
    55.7575     8677.00000
    55.7706     8653.00000
    55.7838     8660.00000
    55.7969     8985.00000
    55.8100     9585.00000
    55.8232     9924.00000
    55.8363    10098.00000
    55.8494     9803.00000
    55.8625     9171.00000
    55.8757     8619.00000
    55.8888     8129.00000
    55.9019     7452.00000
    55.9151     7347.00000
    55.9282     7288.00000
    55.9413     7249.00000
    55.9545     7371.00000
    55.9676     7424.00000
    55.9807     7257.00000
    55.9938     7172.00000
    56.0070     6855.00000
    56.0201     6905.00000
    56.0332     6783.00000
    56.0464     6789.00000
    56.0595     6599.00000
    56.0726     6866.00000
    56.0858     6743.00000
    56.0989     6943.00000
    56.1120     6808.00000
    56.1251     6815.00000
    56.1383     6895.00000
    56.1514     6834.00000
    56.1645     6783.00000
    56.1777     7024.00000
    56.1908     6995.00000
    56.2039     7211.00000
    56.2171     7741.00000
    56.2302     8297.00000
    56.2433     8949.00000
    56.2565     9389.00000
    56.2696     9521.00000
    56.2827     9310.00000
    56.2958     8747.00000
    56.3090     8298.00000
    56.3221     7583.00000
    56.3352     7300.00000
    56.3484     7348.00000
    56.3615     7451.00000
    56.3746     7653.00000
    56.3878     7923.00000
    56.4009     8179.00000
    56.4140     8685.00000
    56.4271     8396.00000
    56.4403     8232.00000
    56.4534     7857.00000
    56.4665     7554.00000
    56.4797     7585.00000
    56.4928     7600.00000
    56.5059     7683.00000
    56.5191     8187.00000
    56.5322     8985.00000
    56.5453     9642.00000
    56.5584    10482.00000
    56.5716    10960.00000
    56.5847    11186.00000
    56.5978    10638.00000
    56.6110     9961.00000
    56.6241     8960.00000
    56.6372     8312.00000
    56.6504     7866.00000
    56.6635     7556.00000
    56.6766     7766.00000
    56.6898     7979.00000
    56.7029     8142.00000
    56.7160     8803.00000
    56.7291     9017.00000
    56.7423     8839.00000
    56.7554     8518.00000
    56.7685     8153.00000
    56.7817     7724.00000
    56.7948     7636.00000
    56.8079     7530.00000
    56.8211     7446.00000
    56.8342     7323.00000
    56.8473     7381.00000
    56.8604     7017.00000
    56.8736     6868.00000
    56.8867     6750.00000
    56.8998     6712.00000
    56.9130     6775.00000
    56.9261     6761.00000
    56.9392     6657.00000
    56.9524     6808.00000
    56.9655     6870.00000
    56.9786     6619.00000
    56.9917     6716.00000
    57.0049     6765.00000
    57.0180     6639.00000
    57.0311     6577.00000
    57.0443     6713.00000
    57.0574     6278.00000
    57.0705     6383.00000
    57.0837     6448.00000
    57.0968     6431.00000
    57.1099     6324.00000
    57.1231     6306.00000
    57.1362     6328.00000
    57.1493     6408.00000
    57.1624     6411.00000
    57.1756     6481.00000
    57.1887     6411.00000
    57.2018     6375.00000
    57.2150     6452.00000
    57.2281     6348.00000
    57.2412     6469.00000
    57.2544     6442.00000
    57.2675     6464.00000
    57.2806     6367.00000
    57.2937     6391.00000
    57.3069     6314.00000
    57.3200     6463.00000
    57.3331     6608.00000
    57.3463     6488.00000
    57.3594     6539.00000
    57.3725     6481.00000
    57.3857     6425.00000
    57.3988     6484.00000
    57.4119     6526.00000
    57.4250     6285.00000
    57.4382     6487.00000
    57.4513     6365.00000
    57.4644     6469.00000
    57.4776     6617.00000
    57.4907     6604.00000
    57.5038     6552.00000
    57.5170     6545.00000
    57.5301     6419.00000
    57.5432     6518.00000
    57.5564     6455.00000
    57.5695     6481.00000
    57.5826     6435.00000
    57.5957     6806.00000
    57.6089     6673.00000
    57.6220     6816.00000
    57.6351     6980.00000
    57.6483     7318.00000
    57.6614     7492.00000
    57.6745     8002.00000
    57.6877     8548.00000
    57.7008     8989.00000
    57.7139     9243.00000
    57.7270     9391.00000
    57.7402     9670.00000
    57.7533     9177.00000
    57.7664     8783.00000
    57.7796     8400.00000
    57.7927     8188.00000
    57.8058     8226.00000
    57.8190     8217.00000
    57.8321     8655.00000
    57.8452     8922.00000
    57.8583     9655.00000
    57.8715    10121.00000
    57.8846    10991.00000
    57.8977    11278.00000
    57.9109    11403.00000
    57.9240    10581.00000
    57.9371     9834.00000
    57.9503     9076.00000
    57.9634     8574.00000
    57.9765     8079.00000
    57.9897     8000.00000
    58.0028     7992.00000
    58.0159     8040.00000
    58.0290     7968.00000
    58.0422     8004.00000
    58.0553     8397.00000
    58.0684     8434.00000
    58.0816     8050.00000
    58.0947     7983.00000
    58.1078     7481.00000
    58.1210     7211.00000
    58.1341     6957.00000
    58.1472     6963.00000
    58.1603     6825.00000
    58.1735     6686.00000
    58.1866     6503.00000
    58.1997     6481.00000
    58.2129     6489.00000
    58.2260     6440.00000
    58.2391     6559.00000
    58.2523     6550.00000
    58.2654     6423.00000
    58.2785     6460.00000
    58.2916     6505.00000
    58.3048     6503.00000
    58.3179     6631.00000
    58.3310     6244.00000
    58.3442     6430.00000
    58.3573     6576.00000
    58.3704     6561.00000
    58.3836     6431.00000
    58.3967     6470.00000
    58.4098     6631.00000
    58.4230     6683.00000
    58.4361     6889.00000
    58.4492     6933.00000
    58.4623     7062.00000
    58.4755     7132.00000
    58.4886     7273.00000
    58.5017     7602.00000
    58.5149     7719.00000
    58.5280     7903.00000
    58.5411     7737.00000
    58.5543     7663.00000
    58.5674     7624.00000
    58.5805     7541.00000
    58.5936     7449.00000
    58.6068     7447.00000
    58.6199     7296.00000
    58.6330     7294.00000
    58.6462     7636.00000
    58.6593     7602.00000
    58.6724     8015.00000
    58.6856     8315.00000
    58.6987     8801.00000
    58.7118     9322.00000
    58.7249     9645.00000
    58.7381    10273.00000
    58.7512    10160.00000
    58.7643    10162.00000
    58.7775     9852.00000
    58.7906    10288.00000
    58.8037    10352.00000
    58.8169    10737.00000
    58.8300    10793.00000
    58.8431    10417.00000
    58.8562     9937.00000
    58.8694     9843.00000
    58.8825     9384.00000
    58.8956     9284.00000
    58.9088     9395.00000
    58.9219     9247.00000
    58.9350     9129.00000
    58.9482     9456.00000
    58.9613    10230.00000
    58.9744    10430.00000
    58.9876    10647.00000
    59.0007    10552.00000
    59.0138    10144.00000
    59.0269     9542.00000
    59.0401     9227.00000
    59.0532     8889.00000
    59.0663     9148.00000
    59.0795     9126.00000
    59.0926     9576.00000
    59.1057     9901.00000
    59.1189    10658.00000
    59.1320    10856.00000
    59.1451    10787.00000
    59.1582    10147.00000
    59.1714     9357.00000
    59.1845     8680.00000
    59.1976     8083.00000
    59.2108     7913.00000
    59.2239     7489.00000
    59.2370     7480.00000
    59.2502     7854.00000
    59.2633     7847.00000
    59.2764     8227.00000
    59.2895     8205.00000
    59.3027     8128.00000
    59.3158     7802.00000
    59.3289     7467.00000
    59.3421     6949.00000
    59.3552     6852.00000
    59.3683     6830.00000
    59.3815     6603.00000
    59.3946     6455.00000
    59.4077     6345.00000
    59.4208     6420.00000
    59.4340     6486.00000
    59.4471     6299.00000
    59.4602     6391.00000
    59.4734     6421.00000
    59.4865     6253.00000
    59.4996     6437.00000
    59.5128     6201.00000
    59.5259     6195.00000
    59.5390     6339.00000
    59.5522     6437.00000
    59.5653     6393.00000
    59.5784     6276.00000
    59.5915     6356.00000
    59.6047     6449.00000
    59.6178     6223.00000
    59.6309     6200.00000
    59.6441     6428.00000
    59.6572     6403.00000
    59.6703     6359.00000
    59.6835     6534.00000
    59.6966     6434.00000
    59.7097     6489.00000
    59.7228     6420.00000
    59.7360     6463.00000
    59.7491     6428.00000
    59.7622     6446.00000
    59.7754     6583.00000
    59.7885     6591.00000
    59.8016     6710.00000
    59.8148     6682.00000
    59.8279     6646.00000
    59.8410     6489.00000
    59.8541     6683.00000
    59.8673     6700.00000
    59.8804     6794.00000
    59.8935     6813.00000
    59.9067     7112.00000
    59.9198     7539.00000
    59.9329     7943.00000
    59.9461     8688.00000
    59.9592     9717.00000
    59.9723    10847.00000
    59.9855    12118.00000
    59.9986    12784.00000
    60.0117    12398.00000
    60.0248    11195.00000
    60.0380     9849.00000
    60.0511     8751.00000
    60.0642     7995.00000
    60.0774     7631.00000
    60.0905     7677.00000
    60.1036     7793.00000
    60.1168     8259.00000
    60.1299     8650.00000
    60.1430     8998.00000
    60.1561     9332.00000
    60.1693     9700.00000
    60.1824     9459.00000
    60.1955     8466.00000
    60.2087     7826.00000
    60.2218     7481.00000
    60.2349     7071.00000
    60.2481     6837.00000
    60.2612     6786.00000
    60.2743     6553.00000
    60.2874     6563.00000
    60.3006     6625.00000
    60.3137     6770.00000
    60.3268     6662.00000
    60.3400     6569.00000
    60.3531     6399.00000
    60.3662     6391.00000
    60.3794     6381.00000
    60.3925     6563.00000
    60.4056     6625.00000
    60.4188     6522.00000
    60.4319     6755.00000
    60.4450     7011.00000
    60.4581     7325.00000
    60.4713     7675.00000
    60.4844     8166.00000
    60.4975     8453.00000
    60.5107     8811.00000
    60.5238     8977.00000
    60.5369     8780.00000
    60.5501     8365.00000
    60.5632     7626.00000
    60.5763     7573.00000
    60.5894     7327.00000
    60.6026     7122.00000
    60.6157     7118.00000
    60.6288     7195.00000
    60.6420     7343.00000
    60.6551     7459.00000
    60.6682     7675.00000
    60.6814     7712.00000
    60.6945     7700.00000
    60.7076     7512.00000
    60.7207     7334.00000
    60.7339     7155.00000
    60.7470     6957.00000
    60.7601     6960.00000
    60.7733     6750.00000
    60.7864     6589.00000
    60.7995     6655.00000
    60.8127     6785.00000
    60.8258     6634.00000
    60.8389     6723.00000
    60.8521     6842.00000
    60.8652     6544.00000
    60.8783     6539.00000
    60.8914     6552.00000
    60.9046     6593.00000
    60.9177     6636.00000
    60.9308     6455.00000
    60.9440     6487.00000
    60.9571     6769.00000
    60.9702     6513.00000
    60.9834     6615.00000
    60.9965     6716.00000
    61.0096     6636.00000
    61.0227     6892.00000
    61.0359     7003.00000
    61.0490     7042.00000
    61.0621     7150.00000
    61.0753     7790.00000
    61.0884     8085.00000
    61.1015     8737.00000
    61.1147     9557.00000
    61.1278    10612.00000
    61.1409    11417.00000
    61.1540    12346.00000
    61.1672    13006.00000
    61.1803    13303.00000
    61.1934    13820.00000
    61.2066    13823.00000
    61.2197    13526.00000
    61.2328    12441.00000
    61.2460    11318.00000
    61.2591    10211.00000
    61.2722     9453.00000
    61.2854     9418.00000
    61.2985     9508.00000
    61.3116     9703.00000
    61.3247     9605.00000
    61.3379    10009.00000
    61.3510     9943.00000
    61.3641    10024.00000
    61.3773     9866.00000
    61.3904     9737.00000
    61.4035     9167.00000
    61.4167     8290.00000
    61.4298     7931.00000
    61.4429     7549.00000
    61.4560     6983.00000
    61.4692     6700.00000
    61.4823     6698.00000
    61.4954     6597.00000
    61.5086     6549.00000
    61.5217     6698.00000
    61.5348     6482.00000
    61.5480     6476.00000
    61.5611     6534.00000
    61.5742     6559.00000
    61.5873     6570.00000
    61.6005     6576.00000
    61.6136     6704.00000
    61.6267     6979.00000
    61.6399     7154.00000
    61.6530     7351.00000
    61.6661     7427.00000
    61.6793     7316.00000
    61.6924     7195.00000
    61.7055     7077.00000
    61.7187     6776.00000
    61.7318     6808.00000
    61.7449     6546.00000
    61.7580     6510.00000
    61.7712     6553.00000
    61.7843     6556.00000
    61.7974     6591.00000
    61.8106     6772.00000
    61.8237     6739.00000
    61.8368     6797.00000
    61.8500     6839.00000
    61.8631     6855.00000
    61.8762     6645.00000
    61.8893     6644.00000
    61.9025     6305.00000
    61.9156     6209.00000
    61.9287     6291.00000
    61.9419     6252.00000
    61.9550     6173.00000
    61.9681     6127.00000
    61.9813     6197.00000
    61.9944     6073.00000
    62.0075     6139.00000
    62.0206     6281.00000
    62.0338     6133.00000
    62.0469     5921.00000
    62.0600     6266.00000
    62.0732     6009.00000
    62.0863     6101.00000
    62.0994     6096.00000
    62.1126     6127.00000
    62.1257     6112.00000
    62.1388     6247.00000
    62.1520     6246.00000
    62.1651     6166.00000
    62.1782     6156.00000
    62.1913     6102.00000
    62.2045     6146.00000
    62.2176     6219.00000
    62.2307     6371.00000
    62.2439     6196.00000
    62.2570     6113.00000
    62.2701     6151.00000
    62.2833     6385.00000
    62.2964     6117.00000
    62.3095     6166.00000
    62.3226     6209.00000
    62.3358     6086.00000
    62.3489     6268.00000
    62.3620     6061.00000
    62.3752     6076.00000
    62.3883     6112.00000
    62.4014     6207.00000
    62.4146     6179.00000
    62.4277     6103.00000
    62.4408     6020.00000
    62.4539     6083.00000
    62.4671     5997.00000
    62.4802     6133.00000
    62.4933     6109.00000
    62.5065     6003.00000
    62.5196     6039.00000
    62.5327     6078.00000
    62.5459     5948.00000
    62.5590     6237.00000
    62.5721     5988.00000
    62.5852     6241.00000
    62.5984     6084.00000
    62.6115     6098.00000
    62.6246     6256.00000
    62.6378     6143.00000
    62.6509     6040.00000
    62.6640     6090.00000
    62.6772     6077.00000
    62.6903     6140.00000
    62.7034     6272.00000
    62.7166     6057.00000
    62.7297     6124.00000
    62.7428     6147.00000
    62.7559     6053.00000
    62.7691     6145.00000
    62.7822     6146.00000
    62.7953     6226.00000
    62.8085     6054.00000
    62.8216     6244.00000
    62.8347     6145.00000
    62.8479     6162.00000
    62.8610     6270.00000
    62.8741     6222.00000
    62.8872     6196.00000
    62.9004     6166.00000
    62.9135     6131.00000
    62.9266     6128.00000
    62.9398     6375.00000
    62.9529     6201.00000
    62.9660     6218.00000
    62.9792     6042.00000
    62.9923     6212.00000
    63.0054     6092.00000
    63.0185     6160.00000
    63.0317     6176.00000
    63.0448     6222.00000
    63.0579     6410.00000
    63.0711     6511.00000
    63.0842     6337.00000
    63.0973     6576.00000
    63.1105     6498.00000
    63.1236     6693.00000
    63.1367     6830.00000
    63.1499     7242.00000
    63.1630     7375.00000
    63.1761     7465.00000
    63.1892     7340.00000
    63.2024     7482.00000
    63.2155     7093.00000
    63.2286     6720.00000
    63.2418     6817.00000
    63.2549     6729.00000
    63.2680     6721.00000
    63.2812     6796.00000
    63.2943     6610.00000
    63.3074     6829.00000
    63.3205     6763.00000
    63.3337     6917.00000
    63.3468     7137.00000
    63.3599     7075.00000
    63.3731     6959.00000
    63.3862     6940.00000
    63.3993     6858.00000
    63.4125     7033.00000
    63.4256     6995.00000
    63.4387     7527.00000
    63.4518     7642.00000
    63.4650     7922.00000
    63.4781     8192.00000
    63.4912     7948.00000
    63.5044     7704.00000
    63.5175     7310.00000
    63.5306     7160.00000
    63.5438     7028.00000
    63.5569     6707.00000
    63.5700     6729.00000
    63.5831     6737.00000
    63.5963     6823.00000
    63.6094     6918.00000
    63.6225     7146.00000
    63.6357     7174.00000
    63.6488     7092.00000
    63.6619     7062.00000
    63.6751     7240.00000
    63.6882     6971.00000
    63.7013     6731.00000
    63.7145     6588.00000
    63.7276     6273.00000
    63.7407     6432.00000
    63.7538     6310.00000
    63.7670     6351.00000
    63.7801     6360.00000
    63.7932     6437.00000
    63.8064     6404.00000
    63.8195     5990.00000
    63.8326     6151.00000
    63.8458     6062.00000
    63.8589     6383.00000
    63.8720     6227.00000
    63.8851     6109.00000
    63.8983     6244.00000
    63.9114     6087.00000
    63.9245     6019.00000
    63.9377     6066.00000
    63.9508     6175.00000
    63.9639     6080.00000
    63.9771     6185.00000
    63.9902     5970.00000
    64.0033     5984.00000
    64.0164     5983.00000
    64.0296     6182.00000
    64.0427     6023.00000
    64.0558     6079.00000
    64.0690     6196.00000
    64.0821     6112.00000
    64.0952     6208.00000
    64.1084     6210.00000
    64.1215     6165.00000
    64.1346     6220.00000
    64.1478     6318.00000
    64.1609     6519.00000
    64.1740     6727.00000
    64.1871     6727.00000
    64.2003     6963.00000
    64.2134     6973.00000
    64.2265     7384.00000
    64.2397     7429.00000
    64.2528     7332.00000
    64.2659     7280.00000
    64.2791     6898.00000
    64.2922     6785.00000
    64.3053     6508.00000
    64.3184     6401.00000
    64.3316     6593.00000
    64.3447     6522.00000
    64.3578     6512.00000
    64.3710     6488.00000
    64.3841     6531.00000
    64.3972     6638.00000
    64.4104     6901.00000
    64.4235     6742.00000
    64.4366     6752.00000
    64.4498     6596.00000
    64.4629     6704.00000
    64.4760     6313.00000
    64.4891     6237.00000
    64.5023     6258.00000
    64.5154     6200.00000
    64.5285     6211.00000
    64.5417     6155.00000
    64.5548     6230.00000
    64.5679     6177.00000
    64.5811     6127.00000
    64.5942     6127.00000
    64.6073     6153.00000
    64.6204     6254.00000
    64.6336     6181.00000
    64.6467     6055.00000
    64.6598     5980.00000
    64.6730     6180.00000
    64.6861     6090.00000
    64.6992     6320.00000
    64.7124     6004.00000
    64.7255     6139.00000
    64.7386     6109.00000
    64.7517     6125.00000
    64.7649     6020.00000
    64.7780     5905.00000
    64.7911     6025.00000
    64.8043     5907.00000
    64.8174     6004.00000
    64.8305     5897.00000
    64.8437     6034.00000
    64.8568     6073.00000
    64.8699     6032.00000
    64.8830     6136.00000
    64.8962     6035.00000
    64.9093     6150.00000
    64.9224     6128.00000
    64.9356     5953.00000
    64.9487     6205.00000
    64.9618     6056.00000
    64.9750     6052.00000
    64.9881     6037.00000
    65.0012     6051.00000
    65.0144     6191.00000
    65.0275     6028.00000
    65.0406     6020.00000
    65.0537     6143.00000
    65.0669     6052.00000
    65.0800     6127.00000
    65.0931     6107.00000
    65.1063     6110.00000
    65.1194     6061.00000
    65.1325     6138.00000
    65.1457     6234.00000
    65.1588     6234.00000
    65.1719     6085.00000
    65.1850     6224.00000
    65.1982     6146.00000
    65.2113     6190.00000
    65.2244     6096.00000
    65.2376     6079.00000
    65.2507     5806.00000
    65.2638     5996.00000
    65.2770     5970.00000
    65.2901     5908.00000
    65.3032     6115.00000
    65.3163     5914.00000
    65.3295     6225.00000
    65.3426     6124.00000
    65.3557     6038.00000
    65.3689     5971.00000
    65.3820     6128.00000
    65.3951     5912.00000
    65.4083     6059.00000
    65.4214     6062.00000
    65.4345     5992.00000
    65.4476     6115.00000
    65.4608     6123.00000
    65.4739     5908.00000
    65.4870     5932.00000
    65.5002     6172.00000
    65.5133     6016.00000
    65.5264     6033.00000
    65.5396     5987.00000
    65.5527     6140.00000
    65.5658     6043.00000
    65.5790     5988.00000
    65.5921     5956.00000
    65.6052     5846.00000
    65.6183     5889.00000
    65.6315     5937.00000
    65.6446     5926.00000
    65.6577     6022.00000
    65.6709     5949.00000
    65.6840     6029.00000
    65.6971     5925.00000
    65.7103     5800.00000
    65.7234     5878.00000
    65.7365     5906.00000
    65.7496     5909.00000
    65.7628     5981.00000
    65.7759     5946.00000
    65.7890     5936.00000
    65.8022     6011.00000
    65.8153     6015.00000
    65.8284     5886.00000
    65.8416     5947.00000
    65.8547     5933.00000
    65.8678     6040.00000
    65.8810     5878.00000
    65.8941     5987.00000
    65.9072     6004.00000
    65.9203     5996.00000
    65.9335     6065.00000
    65.9466     6006.00000
    65.9597     5879.00000
    65.9729     5982.00000
    65.9860     6075.00000
    65.9991     6044.00000
    66.0123     5979.00000
    66.0254     5810.00000
    66.0385     5857.00000
    66.0516     5960.00000
    66.0648     5958.00000
    66.0779     5941.00000
    66.0910     6000.00000
    66.1042     5822.00000
    66.1173     6073.00000
    66.1304     5988.00000
    66.1436     6162.00000
    66.1567     6004.00000
    66.1698     6190.00000
    66.1829     6126.00000
    66.1961     6021.00000
    66.2092     6009.00000
    66.2223     5964.00000
    66.2355     6021.00000
    66.2486     5983.00000
    66.2617     6079.00000
    66.2749     5966.00000
    66.2880     6077.00000
    66.3011     6168.00000
    66.3142     5882.00000
    66.3274     5956.00000
    66.3405     6095.00000
    66.3536     6001.00000
    66.3668     6017.00000
    66.3799     5900.00000
    66.3930     6140.00000
    66.4062     5980.00000
    66.4193     6063.00000
    66.4324     6052.00000
    66.4455     6043.00000
    66.4587     6139.00000
    66.4718     6178.00000
    66.4849     6297.00000
    66.4981     5950.00000
    66.5112     6006.00000
    66.5243     6066.00000
    66.5375     5946.00000
    66.5506     6094.00000
    66.5637     5862.00000
    66.5769     5970.00000
    66.5900     6056.00000
    66.6031     6032.00000
    66.6162     5939.00000
    66.6294     6213.00000
    66.6425     6076.00000
    66.6556     6024.00000
    66.6688     5965.00000
    66.6819     6061.00000
    66.6950     6109.00000
    66.7082     5926.00000
    66.7213     5921.00000
    66.7344     5921.00000
    66.7476     6046.00000
    66.7607     5992.00000
    66.7738     6052.00000
    66.7869     5972.00000
    66.8001     5950.00000
    66.8132     5866.00000
    66.8263     5998.00000
    66.8395     6027.00000
    66.8526     6058.00000
    66.8657     6019.00000
    66.8789     5991.00000
    66.8920     6246.00000
    66.9051     5926.00000
    66.9182     6134.00000
    66.9314     6029.00000
    66.9445     5942.00000
    66.9576     5979.00000
    66.9708     5942.00000
    66.9839     6152.00000
    66.9970     6059.00000
    67.0102     5893.00000
    67.0233     5919.00000
    67.0364     5960.00000
    67.0495     5976.00000
    67.0627     6148.00000
    67.0758     5983.00000
    67.0889     5962.00000
    67.1021     6091.00000
    67.1152     6044.00000
    67.1283     5928.00000
    67.1415     5985.00000
    67.1546     5968.00000
    67.1677     5999.00000
    67.1808     5967.00000
    67.1940     5822.00000
    67.2071     6064.00000
    67.2202     5782.00000
    67.2334     5973.00000
    67.2465     5840.00000
    67.2596     6091.00000
    67.2728     5979.00000
    67.2859     6079.00000
    67.2990     5982.00000
    67.3121     6070.00000
    67.3253     6148.00000
    67.3384     6144.00000
    67.3515     6194.00000
    67.3647     6220.00000
    67.3778     6087.00000
    67.3909     5989.00000
    67.4041     6103.00000
    67.4172     6172.00000
    67.4303     6065.00000
    67.4435     5995.00000
    67.4566     6086.00000
    67.4697     6089.00000
    67.4828     5996.00000
    67.4960     5991.00000
    67.5091     5975.00000
    67.5222     5953.00000
    67.5354     6204.00000
    67.5485     5948.00000
    67.5616     6062.00000
    67.5748     6233.00000
    67.5879     6049.00000
    67.6010     6115.00000
    67.6142     6264.00000
    67.6273     6034.00000
    67.6404     6045.00000
    67.6535     6091.00000
    67.6667     5931.00000
    67.6798     5936.00000
    67.6929     5989.00000
    67.7061     5903.00000
    67.7192     6086.00000
    67.7323     6056.00000
    67.7455     5981.00000
    67.7586     5890.00000
    67.7717     6023.00000
    67.7848     6015.00000
    67.7980     6084.00000
    67.8111     6020.00000
    67.8242     6141.00000
    67.8374     6121.00000
    67.8505     5888.00000
    67.8636     6067.00000
    67.8768     6104.00000
    67.8899     5948.00000
    67.9030     6080.00000
    67.9161     5972.00000
    67.9293     5888.00000
    67.9424     5909.00000
    67.9555     5759.00000
    67.9687     6070.00000
    67.9818     5982.00000
    67.9949     6046.00000
    68.0081     5958.00000
    68.0212     5912.00000
    68.0343     6146.00000
    68.0474     5990.00000
    68.0606     5880.00000
    68.0737     5996.00000
    68.0868     6032.00000
    68.1000     6015.00000
    68.1131     6135.00000
    68.1262     6209.00000
    68.1394     6146.00000
    68.1525     6117.00000
    68.1656     6153.00000
    68.1787     6113.00000
    68.1919     5994.00000
    68.2050     6052.00000
    68.2181     6057.00000
    68.2313     6024.00000
    68.2444     6009.00000
    68.2575     5884.00000
    68.2707     6041.00000
    68.2838     6020.00000
    68.2969     6319.00000
    68.3101     6150.00000
    68.3232     6124.00000
    68.3363     6062.00000
    68.3494     6105.00000
    68.3626     5927.00000
    68.3757     6057.00000
    68.3888     5947.00000
    68.4020     6040.00000
    68.4151     5867.00000
    68.4282     6045.00000
    68.4414     5866.00000
    68.4545     6127.00000
    68.4676     6035.00000
    68.4807     6082.00000
    68.4939     6026.00000
    68.5070     6192.00000
    68.5201     6038.00000
    68.5333     6058.00000
    68.5464     6173.00000
    68.5595     6092.00000
    68.5727     5995.00000
    68.5858     6022.00000
    68.5989     6183.00000
    68.6120     5870.00000
    68.6252     6072.00000
    68.6383     6228.00000
    68.6514     6323.00000
    68.6646     6209.00000
    68.6777     6175.00000
    68.6908     6404.00000
    68.7040     6427.00000
    68.7171     6234.00000
    68.7302     6514.00000
    68.7434     6467.00000
    68.7565     6617.00000
    68.7696     6795.00000
    68.7827     6825.00000
    68.7959     6987.00000
    68.8090     6998.00000
    68.8221     7223.00000
    68.8353     7441.00000
    68.8484     7385.00000
    68.8615     7567.00000
    68.8747     7392.00000
    68.8878     7292.00000
    68.9009     7269.00000
    68.9140     6787.00000
    68.9272     6828.00000
    68.9403     6616.00000
    68.9534     6523.00000
    68.9666     6531.00000
    68.9797     6525.00000
    68.9928     6699.00000
    69.0060     6476.00000
    69.0191     6759.00000
    69.0322     6998.00000
    69.0453     6894.00000
    69.0585     6965.00000
    69.0716     6680.00000
    69.0847     6650.00000
    69.0979     6643.00000
    69.1110     6702.00000
    69.1241     6605.00000
    69.1373     6521.00000
    69.1504     6784.00000
    69.1635     7071.00000
    69.1767     7289.00000
    69.1898     7859.00000
    69.2029     8170.00000
    69.2160     8635.00000
    69.2292     8363.00000
    69.2423     8219.00000
    69.2554     8055.00000
    69.2686     7852.00000
    69.2817     8056.00000
    69.2948     8011.00000
    69.3080     8255.00000
    69.3211     8029.00000
    69.3342     8111.00000
    69.3473     7679.00000
    69.3605     7411.00000
    69.3736     7325.00000
    69.3867     7413.00000
    69.3999     7486.00000
    69.4130     7872.00000
    69.4261     7843.00000
    69.4393     7914.00000
    69.4524     8094.00000
    69.4655     8172.00000
    69.4786     8144.00000
    69.4918     7970.00000
    69.5049     7673.00000
    69.5180     7440.00000
    69.5312     7292.00000
    69.5443     6982.00000
    69.5574     6733.00000
    69.5706     6540.00000
    69.5837     6497.00000
    69.5968     6470.00000
    69.6099     6606.00000
    69.6231     6505.00000
    69.6362     6468.00000
    69.6493     6654.00000
    69.6625     6563.00000
    69.6756     6887.00000
    69.6887     6679.00000
    69.7019     6316.00000
    69.7150     6542.00000
    69.7281     6529.00000
    69.7413     6497.00000
    69.7544     6367.00000
    69.7675     6420.00000
    69.7806     6552.00000
    69.7938     6762.00000
    69.8069     7107.00000
    69.8200     7205.00000
    69.8332     7644.00000
    69.8463     7744.00000
    69.8594     7727.00000
    69.8726     7537.00000
    69.8857     7126.00000
    69.8988     6894.00000
    69.9119     6710.00000
    69.9251     6542.00000
    69.9382     6467.00000
    69.9513     6359.00000
    69.9645     6338.00000
    69.9776     6419.00000
    69.9907     6490.00000
    70.0039     6696.00000
    70.0170     6899.00000
    70.0301     6865.00000
    70.0433     6917.00000
    70.0564     7062.00000
    70.0695     6834.00000
    70.0826     6517.00000
    70.0958     6560.00000
    70.1089     6499.00000
    70.1220     6230.00000
    70.1352     6306.00000
    70.1483     6361.00000
    70.1614     6380.00000
    70.1746     6277.00000
    70.1877     6379.00000
    70.2008     6282.00000
    70.2139     6303.00000
    70.2271     6205.00000
    70.2402     6157.00000
    70.2533     5998.00000
    70.2665     6107.00000
    70.2796     6098.00000
    70.2927     6051.00000
    70.3059     6099.00000
    70.3190     6128.00000
    70.3321     6054.00000
    70.3452     6110.00000
    70.3584     6146.00000
    70.3715     6209.00000
    70.3846     6250.00000
    70.3978     6299.00000
    70.4109     6237.00000
    70.4240     6265.00000
    70.4372     6415.00000
    70.4503     6434.00000
    70.4634     6522.00000
    70.4765     6428.00000
    70.4897     6468.00000
    70.5028     6539.00000
    70.5159     6547.00000
    70.5291     6467.00000
    70.5422     6223.00000
    70.5553     6344.00000
    70.5685     6519.00000
    70.5816     6445.00000
    70.5947     6459.00000
    70.6078     6864.00000
    70.6210     6828.00000
    70.6341     7019.00000
    70.6472     6861.00000
    70.6604     7040.00000
    70.6735     6899.00000
    70.6866     6879.00000
    70.6998     6611.00000
    70.7129     6469.00000
    70.7260     6478.00000
    70.7392     6349.00000
    70.7523     6288.00000
    70.7654     6434.00000
    70.7785     6510.00000
    70.7917     6471.00000
    70.8048     6339.00000
    70.8179     6549.00000
    70.8311     6657.00000
    70.8442     6602.00000
    70.8573     6484.00000
    70.8705     6452.00000
    70.8836     6282.00000
    70.8967     6273.00000
    70.9099     6080.00000
    70.9230     6163.00000
    70.9361     5923.00000
    70.9492     6110.00000
    70.9624     5974.00000
    70.9755     6128.00000
    70.9886     6077.00000
    71.0018     6165.00000
    71.0149     6170.00000
    71.0280     6368.00000
    71.0412     6052.00000
    71.0543     6098.00000
    71.0674     6098.00000
    71.0805     5998.00000
    71.0937     5893.00000
    71.1068     5933.00000
    71.1199     6254.00000
    71.1331     5906.00000
    71.1462     6094.00000
    71.1593     6118.00000
    71.1725     6123.00000
    71.1856     5859.00000
    71.1987     6082.00000
    71.2118     5919.00000
    71.2250     5957.00000
    71.2381     6162.00000
    71.2512     5956.00000
    71.2644     6087.00000
    71.2775     5955.00000
    71.2906     6134.00000
    71.3038     5895.00000
    71.3169     5973.00000
    71.3300     6016.00000
    71.3431     6062.00000
    71.3563     5984.00000
    71.3694     6136.00000
    71.3825     6024.00000
    71.3957     6124.00000
    71.4088     6058.00000
    71.4219     6266.00000
    71.4351     6325.00000
    71.4482     6271.00000
    71.4613     6396.00000
    71.4744     6389.00000
    71.4876     6246.00000
    71.5007     6091.00000
    71.5138     6330.00000
    71.5270     6245.00000
    71.5401     6255.00000
    71.5532     6342.00000
    71.5664     6234.00000
    71.5795     6349.00000
    71.5926     6409.00000
    71.6058     6491.00000
    71.6189     6486.00000
    71.6320     6455.00000
    71.6451     6543.00000
    71.6583     6507.00000
    71.6714     6505.00000
    71.6845     6411.00000
    71.6977     6304.00000
    71.7108     6413.00000
    71.7239     6310.00000
    71.7371     6382.00000
    71.7502     6401.00000
    71.7633     6684.00000
    71.7764     6823.00000
    71.7896     6930.00000
    71.8027     7144.00000
    71.8158     7335.00000
    71.8290     7969.00000
    71.8421     8429.00000
    71.8552     8857.00000
    71.8684     8985.00000
    71.8815     8972.00000
    71.8946     8558.00000
    71.9078     8223.00000
    71.9209     7683.00000
    71.9340     7312.00000
    71.9471     6918.00000
    71.9603     6865.00000
    71.9734     6713.00000
    71.9865     6726.00000
    71.9997     6772.00000
    72.0128     6771.00000
    72.0259     6998.00000
    72.0391     7245.00000
    72.0522     7468.00000
    72.0653     7534.00000
    72.0784     7265.00000
    72.0916     7361.00000
    72.1047     7300.00000
    72.1178     7059.00000
    72.1310     6760.00000
    72.1441     6518.00000
    72.1572     6417.00000
    72.1704     6361.00000
    72.1835     6230.00000
    72.1966     6223.00000
    72.2097     6139.00000
    72.2229     6194.00000
    72.2360     6120.00000
    72.2491     6145.00000
    72.2623     6105.00000
    72.2754     5997.00000
    72.2885     6140.00000
    72.3017     6071.00000
    72.3148     6179.00000
    72.3279     5998.00000
    72.3410     6032.00000
    72.3542     5984.00000
    72.3673     6179.00000
    72.3804     6093.00000
    72.3936     5978.00000
    72.4067     6124.00000
    72.4198     6073.00000
    72.4330     6131.00000
    72.4461     6201.00000
    72.4592     6311.00000
    72.4724     6322.00000
    72.4855     6426.00000
    72.4986     6551.00000
    72.5117     6632.00000
    72.5249     6707.00000
    72.5380     6640.00000
    72.5511     6482.00000
    72.5643     6445.00000
    72.5774     6365.00000
    72.5905     6248.00000
    72.6037     6202.00000
    72.6168     6118.00000
    72.6299     6172.00000
    72.6430     6069.00000
    72.6562     6183.00000
    72.6693     6279.00000
    72.6824     6137.00000
    72.6956     6376.00000
    72.7087     6459.00000
    72.7218     6377.00000
    72.7350     6372.00000
    72.7481     6268.00000
    72.7612     6313.00000
    72.7743     6153.00000
    72.7875     6166.00000
    72.8006     6135.00000
    72.8137     6226.00000
    72.8269     6225.00000
    72.8400     6194.00000
    72.8531     6271.00000
    72.8663     6217.00000
    72.8794     6277.00000
    72.8925     6388.00000
    72.9057     6247.00000
    72.9188     6324.00000
    72.9319     6370.00000
    72.9450     6139.00000
    72.9582     5962.00000
    72.9713     6240.00000
    72.9844     6181.00000
    72.9976     6059.00000
    73.0107     6180.00000
    73.0238     6365.00000
    73.0370     6252.00000
    73.0501     6167.00000
    73.0632     6356.00000
    73.0763     6473.00000
    73.0895     6520.00000
    73.1026     6512.00000
    73.1157     6631.00000
    73.1289     6954.00000
    73.1420     7042.00000
    73.1551     7331.00000
    73.1683     7639.00000
    73.1814     7447.00000
    73.1945     7596.00000
    73.2076     7379.00000
    73.2208     7385.00000
    73.2339     6976.00000
    73.2470     6656.00000
    73.2602     6590.00000
    73.2733     6306.00000
    73.2864     6276.00000
    73.2996     6342.00000
    73.3127     6474.00000
    73.3258     6387.00000
    73.3390     6313.00000
    73.3521     6388.00000
    73.3652     6692.00000
    73.3783     6678.00000
    73.3915     6858.00000
    73.4046     6682.00000
    73.4177     6629.00000
    73.4309     6601.00000
    73.4440     6536.00000
    73.4571     6484.00000
    73.4703     6433.00000
    73.4834     6405.00000
    73.4965     6357.00000
    73.5096     6191.00000
    73.5228     6082.00000
    73.5359     6022.00000
    73.5490     5996.00000
    73.5622     5996.00000
    73.5753     6011.00000
    73.5884     6152.00000
    73.6016     6141.00000
    73.6147     5873.00000
    73.6278     6049.00000
    73.6409     5953.00000
    73.6541     6103.00000
    73.6672     6072.00000
    73.6803     6180.00000
    73.6935     6079.00000
    73.7066     5939.00000
    73.7197     6300.00000
    73.7329     6083.00000
    73.7460     6329.00000
    73.7591     6238.00000
    73.7722     6246.00000
    73.7854     6252.00000
    73.7985     6163.00000
    73.8116     6070.00000
    73.8248     6125.00000
    73.8379     6146.00000
    73.8510     6213.00000
    73.8642     6124.00000
    73.8773     6094.00000
    73.8904     6107.00000
    73.9035     6408.00000
    73.9167     6364.00000
    73.9298     6326.00000
    73.9429     6475.00000
    73.9561     6511.00000
    73.9692     6746.00000
    73.9823     6962.00000
    73.9955     6747.00000
    74.0086     6769.00000
    74.0217     6824.00000
    74.0349     6599.00000
    74.0480     6838.00000
    74.0611     7035.00000
    74.0742     7183.00000
    74.0874     7272.00000
    74.1005     7499.00000
    74.1136     7593.00000
    74.1268     7455.00000
    74.1399     7217.00000
    74.1530     6856.00000
    74.1662     6978.00000
    74.1793     6799.00000
    74.1924     6777.00000
    74.2056     6705.00000
    74.2187     6799.00000
    74.2318     6871.00000
    74.2449     7126.00000
    74.2581     7044.00000
    74.2712     7235.00000
    74.2843     7190.00000
    74.2975     7157.00000
    74.3106     6996.00000
    74.3237     6966.00000
    74.3369     6751.00000
    74.3500     6727.00000
    74.3631     6621.00000
    74.3762     6471.00000
    74.3894     6350.00000
    74.4025     6230.00000
    74.4156     6212.00000
    74.4288     6370.00000
    74.4419     6353.00000
    74.4550     6439.00000
    74.4682     6319.00000
    74.4813     6350.00000
    74.4944     6248.00000
    74.5075     6288.00000
    74.5207     6220.00000
    74.5338     6230.00000
    74.5469     6134.00000
    74.5601     6114.00000
    74.5732     6436.00000
    74.5863     6147.00000
    74.5995     5968.00000
    74.6126     6253.00000
    74.6257     6219.00000
    74.6388     6021.00000
    74.6520     5779.00000
    74.6651     5899.00000
    74.6782     6074.00000
    74.6914     5993.00000
    74.7045     5954.00000
    74.7176     5883.00000
    74.7308     6058.00000
    74.7439     6094.00000
    74.7570     5991.00000
    74.7701     6014.00000
    74.7833     5981.00000
    74.7964     6075.00000
    74.8095     6205.00000
    74.8227     6277.00000
    74.8358     6276.00000
    74.8489     6199.00000
    74.8621     6239.00000
    74.8752     6246.00000
    74.8883     6083.00000
    74.9015     6037.00000
    74.9146     5905.00000
    74.9277     5876.00000
    74.9408     5666.00000
    74.9540     5897.00000
    74.9671     5915.00000
    74.9802     5888.00000
    74.9934     5859.00000
    75.0065     5961.00000
    75.0196     5996.00000
    75.0328     5883.00000
    75.0459     5823.00000
    75.0590     5930.00000
    75.0722     6044.00000
    75.0853     5904.00000
    75.0984     5915.00000
    75.1115     5937.00000
    75.1247     5936.00000
    75.1378     5817.00000
    75.1509     5846.00000
    75.1641     5754.00000
    75.1772     5782.00000
    75.1903     5903.00000
    75.2035     6066.00000
    75.2166     6028.00000
    75.2297     5660.00000
    75.2428     6028.00000
    75.2560     5948.00000
    75.2691     5769.00000
    75.2822     5833.00000
    75.2954     5920.00000
    75.3085     5857.00000
    75.3216     5783.00000
    75.3348     5993.00000
    75.3479     5808.00000
    75.3610     5801.00000
    75.3741     5975.00000
    75.3873     5869.00000
    75.4004     5869.00000
    75.4135     5929.00000
    75.4267     5781.00000
    75.4398     5972.00000
    75.4529     6004.00000
    75.4661     5695.00000
    75.4792     5850.00000
    75.4923     6060.00000
    75.5054     6173.00000
    75.5186     6007.00000
    75.5317     5978.00000
    75.5448     5958.00000
    75.5580     5971.00000
    75.5711     5838.00000
    75.5842     5794.00000
    75.5974     5920.00000
    75.6105     6106.00000
    75.6236     5961.00000
    75.6367     6069.00000
    75.6499     5872.00000
    75.6630     6097.00000
    75.6761     6219.00000
    75.6893     6112.00000
    75.7024     6388.00000
    75.7155     6500.00000
    75.7287     6381.00000
    75.7418     6355.00000
    75.7549     6345.00000
    75.7681     6374.00000
    75.7812     6169.00000
    75.7943     6164.00000
    75.8074     5982.00000
    75.8206     6072.00000
    75.8337     6163.00000
    75.8468     5981.00000
    75.8600     6043.00000
    75.8731     5901.00000
    75.8862     6161.00000
    75.8994     6157.00000
    75.9125     6182.00000
    75.9256     6058.00000
    75.9387     6046.00000
    75.9519     6071.00000
    75.9650     6157.00000
    75.9781     5935.00000
    75.9913     6127.00000
    76.0044     5902.00000
    76.0175     5958.00000
    76.0307     5907.00000
    76.0438     5986.00000
    76.0569     6037.00000
    76.0701     5930.00000
    76.0832     5859.00000
    76.0963     5931.00000
    76.1094     6334.00000
    76.1226     6025.00000
    76.1357     6007.00000
    76.1488     6065.00000
    76.1620     5968.00000
    76.1751     6116.00000
    76.1882     6169.00000
    76.2014     5994.00000
    76.2145     5989.00000
    76.2276     5897.00000
    76.2407     5926.00000
    76.2539     6105.00000
    76.2670     6061.00000
    76.2801     5978.00000
    76.2933     6125.00000
    76.3064     5903.00000
    76.3195     5942.00000
    76.3327     5835.00000
    76.3458     6134.00000
    76.3589     6289.00000
    76.3720     6207.00000
    76.3852     6215.00000
    76.3983     6380.00000
    76.4114     6507.00000
    76.4246     6350.00000
    76.4377     6559.00000
    76.4508     6477.00000
    76.4640     6429.00000
    76.4771     6343.00000
    76.4902     6289.00000
    76.5033     6313.00000
    76.5165     6513.00000
    76.5296     6402.00000
    76.5427     6443.00000
    76.5559     6555.00000
    76.5690     6678.00000
    76.5821     6747.00000
    76.5953     6946.00000
    76.6084     7164.00000
    76.6215     7309.00000
    76.6347     7556.00000
    76.6478     7427.00000
    76.6609     7159.00000
    76.6740     6975.00000
    76.6872     6990.00000
    76.7003     6873.00000
    76.7134     6688.00000
    76.7266     6457.00000
    76.7397     6375.00000
    76.7528     6481.00000
    76.7660     6625.00000
    76.7791     6565.00000
    76.7922     6726.00000
    76.8053     6631.00000
    76.8185     7150.00000
    76.8316     7509.00000
    76.8447     7671.00000
    76.8579     7883.00000
    76.8710     7795.00000
    76.8841     7696.00000
    76.8973     7266.00000
    76.9104     6913.00000
    76.9235     6674.00000
    76.9366     6458.00000
    76.9498     6394.00000
    76.9629     6165.00000
    76.9760     6163.00000
    76.9892     6284.00000
    77.0023     6204.00000
    77.0154     6276.00000
    77.0286     6063.00000
    77.0417     6306.00000
    77.0548     6231.00000
    77.0679     6460.00000
    77.0811     6547.00000
    77.0942     6706.00000
    77.1073     6516.00000
    77.1205     6459.00000
    77.1336     6378.00000
    77.1467     6292.00000
    77.1599     6155.00000
    77.1730     6352.00000
    77.1861     6312.00000
    77.1993     6106.00000
    77.2124     6245.00000
    77.2255     6210.00000
    77.2386     6161.00000
    77.2518     6139.00000
    77.2649     6016.00000
    77.2780     5999.00000
    77.2912     6039.00000
    77.3043     6063.00000
    77.3174     5997.00000
    77.3306     6012.00000
    77.3437     5946.00000
    77.3568     6015.00000
    77.3699     6004.00000
    77.3831     6069.00000
    77.3962     6228.00000
    77.4093     6238.00000
    77.4225     6598.00000
    77.4356     6738.00000
    77.4487     6835.00000
    77.4619     6620.00000
    77.4750     6888.00000
    77.4881     6822.00000
    77.5013     7012.00000
    77.5144     6856.00000
    77.5275     6804.00000
    77.5406     6703.00000
    77.5538     6617.00000
    77.5669     6332.00000
    77.5800     6010.00000
    77.5932     6213.00000
    77.6063     6072.00000
    77.6194     6032.00000
    77.6326     6210.00000
    77.6457     6096.00000
    77.6588     6142.00000
    77.6719     6123.00000
    77.6851     6439.00000
    77.6982     6401.00000
    77.7113     6592.00000
    77.7245     6518.00000
    77.7376     6369.00000
    77.7507     6360.00000
    77.7639     6234.00000
    77.7770     5980.00000
    77.7901     6096.00000
    77.8032     6220.00000
    77.8164     6040.00000
    77.8295     6122.00000
    77.8426     6179.00000
    77.8558     5955.00000
    77.8689     6016.00000
    77.8820     5942.00000
    77.8952     5960.00000
    77.9083     5943.00000
    77.9214     5857.00000
    77.9345     5828.00000
    77.9477     5911.00000
    77.9608     5755.00000
    77.9739     5931.00000
    77.9871     6059.00000
    78.0002     5979.00000
    78.0133     5915.00000
    78.0265     5873.00000
    78.0396     5895.00000
    78.0527     5944.00000
    78.0658     5716.00000
    78.0790     5875.00000
    78.0921     5836.00000
    78.1052     5839.00000
    78.1184     5923.00000
    78.1315     5894.00000
    78.1446     5862.00000
    78.1578     5831.00000
    78.1709     5737.00000
    78.1840     5971.00000
    78.1972     5795.00000
    78.2103     5791.00000
    78.2234     5836.00000
    78.2365     5811.00000
    78.2497     5948.00000
    78.2628     5710.00000
    78.2759     5920.00000
    78.2891     5854.00000
    78.3022     5986.00000
    78.3153     5981.00000
    78.3285     5948.00000
    78.3416     5919.00000
    78.3547     5749.00000
    78.3679     5959.00000
    78.3810     5914.00000
    78.3941     5776.00000
    78.4072     5930.00000
    78.4204     5815.00000
    78.4335     5821.00000
    78.4466     5938.00000
    78.4598     5925.00000
    78.4729     5859.00000
    78.4860     5920.00000
    78.4992     5901.00000
    78.5123     5858.00000
    78.5254     5911.00000
    78.5385     6130.00000
    78.5517     6086.00000
    78.5648     6192.00000
    78.5779     5955.00000
    78.5911     5991.00000
    78.6042     6053.00000
    78.6173     6078.00000
    78.6305     5940.00000
    78.6436     5998.00000
    78.6567     6068.00000
    78.6698     5940.00000
    78.6830     5928.00000
    78.6961     6038.00000
    78.7092     6223.00000
    78.7224     6131.00000
    78.7355     6251.00000
    78.7486     6532.00000
    78.7618     6493.00000
    78.7749     6491.00000
    78.7880     6580.00000
    78.8011     6691.00000
    78.8143     6866.00000
    78.8274     6939.00000
    78.8405     6990.00000
    78.8537     6882.00000
    78.8668     7018.00000
    78.8799     6788.00000
    78.8931     6755.00000
    78.9062     6557.00000
    78.9193     6346.00000
    78.9324     6522.00000
    78.9456     6310.00000
    78.9587     6524.00000
    78.9718     6508.00000
    78.9850     6575.00000
    78.9981     6780.00000
    79.0112     6508.00000
    79.0244     6477.00000
    79.0375     6596.00000
    79.0506     6806.00000
    79.0638     6834.00000
    79.0769     6671.00000
    79.0900     6872.00000
    79.1031     6928.00000
    79.1163     6626.00000
    79.1294     6712.00000
    79.1425     6600.00000
    79.1557     6701.00000
    79.1688     6503.00000
    79.1819     6222.00000
    79.1951     6375.00000
    79.2082     6357.00000
    79.2213     6255.00000
    79.2345     6245.00000
    79.2476     6138.00000
    79.2607     6264.00000
    79.2738     6118.00000
    79.2870     6288.00000
    79.3001     6040.00000
    79.3132     6141.00000
    79.3264     6147.00000
    79.3395     6107.00000
    79.3526     6295.00000
    79.3658     6023.00000
    79.3789     6171.00000
    79.3920     6422.00000
    79.4051     6098.00000
    79.4183     6264.00000
    79.4314     6201.00000
    79.4445     6143.00000
    79.4577     6212.00000
    79.4708     6420.00000
    79.4839     6166.00000
    79.4971     6153.00000
    79.5102     6397.00000
    79.5233     6361.00000
    79.5364     6589.00000
    79.5496     6644.00000
    79.5627     6770.00000
    79.5758     6786.00000
    79.5890     6906.00000
    79.6021     7235.00000
    79.6152     7166.00000
    79.6284     6910.00000
    79.6415     6665.00000
    79.6546     6669.00000
    79.6677     6493.00000
    79.6809     6476.00000
    79.6940     6463.00000
    79.7071     6286.00000
    79.7203     6368.00000
    79.7334     6351.00000
    79.7465     6452.00000
    79.7597     6536.00000
    79.7728     6496.00000
    79.7859     6659.00000
    79.7990     6875.00000
    79.8122     7081.00000
    79.8253     7027.00000
    79.8384     7185.00000
    79.8516     7177.00000
    79.8647     7117.00000
    79.8778     6836.00000
    79.8910     6594.00000
    79.9041     6426.00000
    79.9172     6399.00000
    79.9304     6395.00000
    79.9435     6267.00000
    79.9566     6238.00000
    79.9697     6107.00000
    79.9829     6135.00000
    79.9960     6249.00000
    80.0091     6156.00000
    80.0223     6196.00000
    80.0354     6188.00000
    80.0485     6068.00000
    80.0617     6317.00000
    80.0748     6363.00000
    80.0879     6214.00000
    80.1010     6277.00000
    80.1142     6326.00000
    80.1273     6175.00000
    80.1404     6132.00000
    80.1536     5960.00000
    80.1667     6072.00000
    80.1798     6039.00000
    80.1930     6106.00000
    80.2061     5959.00000
    80.2192     6181.00000
    80.2323     5981.00000
    80.2455     5939.00000
    80.2586     6079.00000
    80.2717     6060.00000
    80.2849     5853.00000
    80.2980     6004.00000
    80.3111     5922.00000
    80.3243     5944.00000
    80.3374     5993.00000
    80.3505     5897.00000
    80.3637     6052.00000
    80.3768     5917.00000
    80.3899     6083.00000
    80.4030     6086.00000
    80.4162     6062.00000
    80.4293     6165.00000
    80.4424     6202.00000
    80.4556     6348.00000
    80.4687     6592.00000
    80.4818     6530.00000
    80.4950     6785.00000
    80.5081     7202.00000
    80.5212     7094.00000
    80.5343     7139.00000
    80.5475     7244.00000
    80.5606     6932.00000
    80.5737     7134.00000
    80.5869     6968.00000
    80.6000     6784.00000
    80.6131     6965.00000
    80.6263     6751.00000
    80.6394     6829.00000
    80.6525     6702.00000
    80.6656     6706.00000
    80.6788     6733.00000
    80.6919     6650.00000
    80.7050     6791.00000
    80.7182     6609.00000
    80.7313     6611.00000
    80.7444     6582.00000
    80.7576     6547.00000
    80.7707     6847.00000
    80.7838     6506.00000
    80.7970     6429.00000
    80.8101     6430.00000
    80.8232     6340.00000
    80.8363     6539.00000
    80.8495     6554.00000
    80.8626     6527.00000
    80.8757     6351.00000
    80.8889     6248.00000
    80.9020     6359.00000
    80.9151     6179.00000
    80.9283     6337.00000
    80.9414     6268.00000
    80.9545     6241.00000
    80.9676     6244.00000
    80.9808     6049.00000
    80.9939     6299.00000
    81.0070     6167.00000
    81.0202     6292.00000
    81.0333     6082.00000
    81.0464     6407.00000
    81.0596     6454.00000
    81.0727     6436.00000
    81.0858     6590.00000
    81.0989     6546.00000
    81.1121     6592.00000
    81.1252     6421.00000
    81.1383     6444.00000
    81.1515     6363.00000
    81.1646     6254.00000
    81.1777     6308.00000
    81.1909     6217.00000
    81.2040     6211.00000
    81.2171     6345.00000
    81.2302     6382.00000
    81.2434     6572.00000
    81.2565     6738.00000
    81.2696     6664.00000
    81.2828     6868.00000
    81.2959     6861.00000
    81.3090     7010.00000
    81.3222     7071.00000
    81.3353     6820.00000
    81.3484     6808.00000
    81.3616     6633.00000
    81.3747     6451.00000
    81.3878     6353.00000
    81.4009     6243.00000
    81.4141     6155.00000
    81.4272     6145.00000
    81.4403     6177.00000
    81.4535     6318.00000
    81.4666     6229.00000
    81.4797     6279.00000
    81.4929     6335.00000
    81.5060     6438.00000
    81.5191     6234.00000
    81.5322     6297.00000
    81.5454     6397.00000
    81.5585     6361.00000
    81.5716     6353.00000
    81.5848     6229.00000
    81.5979     6009.00000
    81.6110     6009.00000
    81.6242     6051.00000
    81.6373     6014.00000
    81.6504     5928.00000
    81.6636     5973.00000
    81.6767     6139.00000
    81.6898     6090.00000
    81.7029     6174.00000
    81.7161     6068.00000
    81.7292     5780.00000
    81.7423     6071.00000
    81.7555     6009.00000
    81.7686     6014.00000
    81.7817     6211.00000
    81.7949     6118.00000
    81.8080     6082.00000
    81.8211     6035.00000
    81.8342     5922.00000
    81.8474     5890.00000
    81.8605     5999.00000
    81.8736     5926.00000
    81.8868     5928.00000
    81.8999     6048.00000
    81.9130     6110.00000
    81.9262     6148.00000
    81.9393     6101.00000
    81.9524     6225.00000
    81.9655     6024.00000
    81.9787     5900.00000
    81.9918     5999.00000
    82.0049     5970.00000
    82.0181     5969.00000
    82.0312     6129.00000
    82.0443     6060.00000
    82.0575     6179.00000
    82.0706     6325.00000
    82.0837     6305.00000
    82.0968     6460.00000
    82.1100     6555.00000
    82.1231     6457.00000
    82.1362     6514.00000
    82.1494     6300.00000
    82.1625     6304.00000
    82.1756     6226.00000
    82.1888     6142.00000
    82.2019     6049.00000
    82.2150     5972.00000
    82.2281     5993.00000
    82.2413     6032.00000
    82.2544     6089.00000
    82.2675     5994.00000
    82.2807     6042.00000
    82.2938     6137.00000
    82.3069     6225.00000
    82.3201     6259.00000
    82.3332     6367.00000
    82.3463     6456.00000
    82.3595     6470.00000
    82.3726     6682.00000
    82.3857     6612.00000
    82.3988     6461.00000
    82.4120     6396.00000
    82.4251     6386.00000
    82.4382     6320.00000
    82.4514     6579.00000
    82.4645     6228.00000
    82.4776     6173.00000
    82.4908     6166.00000
    82.5039     5937.00000
    82.5170     6108.00000
    82.5302     5851.00000
    82.5433     5922.00000
    82.5564     5783.00000
    82.5695     5948.00000
    82.5827     5913.00000
    82.5958     6105.00000
    82.6089     5814.00000
    82.6221     5948.00000
    82.6352     5998.00000
    82.6483     6010.00000
    82.6615     6131.00000
    82.6746     5937.00000
    82.6877     6084.00000
    82.7008     6018.00000
    82.7140     5960.00000
    82.7271     5991.00000
    82.7402     5883.00000
    82.7534     6019.00000
    82.7665     6067.00000
    82.7796     6074.00000
    82.7928     6122.00000
    82.8059     5955.00000
    82.8190     6104.00000
    82.8321     6008.00000
    82.8453     6122.00000
    82.8584     6085.00000
    82.8715     6413.00000
    82.8847     6402.00000
    82.8978     6613.00000
    82.9109     6596.00000
    82.9241     6746.00000
    82.9372     6814.00000
    82.9503     6638.00000
    82.9634     6508.00000
    82.9766     6195.00000
    82.9897     6227.00000
    83.0028     6124.00000
    83.0160     5908.00000
    83.0291     6328.00000
    83.0422     6061.00000
    83.0554     6108.00000
    83.0685     6020.00000
    83.0816     5975.00000
    83.0947     6119.00000
    83.1079     5978.00000
    83.1210     6029.00000
    83.1341     6156.00000
    83.1473     6164.00000
    83.1604     6292.00000
    83.1735     6432.00000
    83.1867     6283.00000
    83.1998     6329.00000
    83.2129     6202.00000
    83.2261     6150.00000
    83.2392     6176.00000
    83.2523     5910.00000
    83.2654     5913.00000
    83.2786     5949.00000
    83.2917     5943.00000
    83.3048     5900.00000
    83.3180     5920.00000
    83.3311     5844.00000
    83.3442     5961.00000
    83.3574     5788.00000
    83.3705     5998.00000
    83.3836     5906.00000
    83.3967     5813.00000
    83.4099     5926.00000
    83.4230     5827.00000
    83.4361     5830.00000
    83.4493     5914.00000
    83.4624     5997.00000
    83.4755     5862.00000
    83.4887     5908.00000
    83.5018     5756.00000
    83.5149     5882.00000
    83.5281     5942.00000
    83.5412     5909.00000
    83.5543     5690.00000
    83.5674     5771.00000
    83.5806     5701.00000
    83.5937     5828.00000
    83.6068     5729.00000
    83.6200     5775.00000
    83.6331     5774.00000
    83.6462     5974.00000
    83.6594     5874.00000
    83.6725     5769.00000
    83.6856     5725.00000
    83.6987     5795.00000
    83.7119     5984.00000
    83.7250     5835.00000
    83.7381     5735.00000
    83.7513     5790.00000
    83.7644     5918.00000
    83.7775     5916.00000
    83.7907     6036.00000
    83.8038     5790.00000
    83.8169     5806.00000
    83.8300     5689.00000
    83.8432     6000.00000
    83.8563     5921.00000
    83.8694     5708.00000
    83.8826     5904.00000
    83.8957     5795.00000
    83.9088     5757.00000
    83.9220     5881.00000
    83.9351     5789.00000
    83.9482     5798.00000
    83.9613     5882.00000
    83.9745     5915.00000
    83.9876     5932.00000
    84.0007     5837.00000
    84.0139     6059.00000
    84.0270     5776.00000
    84.0401     6025.00000
    84.0533     5827.00000
    84.0664     5963.00000
    84.0795     6130.00000
    84.0927     5958.00000
    84.1058     5936.00000
    84.1189     5899.00000
    84.1320     5998.00000
    84.1452     6039.00000
    84.1583     6209.00000
    84.1714     6165.00000
    84.1846     6161.00000
    84.1977     6003.00000
    84.2108     6037.00000
    84.2240     6021.00000
    84.2371     5960.00000
    84.2502     5934.00000
    84.2633     5951.00000
    84.2765     5960.00000
    84.2896     6043.00000
    84.3027     6208.00000
    84.3159     6122.00000
    84.3290     6084.00000
    84.3421     6206.00000
    84.3553     6216.00000
    84.3684     6380.00000
    84.3815     6309.00000
    84.3946     6535.00000
    84.4078     6529.00000
    84.4209     6509.00000
    84.4340     6250.00000
    84.4472     6290.00000
    84.4603     6433.00000
    84.4734     6296.00000
    84.4866     6359.00000
    84.4997     6229.00000
    84.5128     6277.00000
    84.5260     6344.00000
    84.5391     6250.00000
    84.5522     6395.00000
    84.5653     6410.00000
    84.5785     6308.00000
    84.5916     6256.00000
    84.6047     6427.00000
    84.6179     6174.00000
    84.6310     6364.00000
    84.6441     6299.00000
    84.6573     6063.00000
    84.6704     6239.00000
    84.6835     6130.00000
    84.6966     5942.00000
    84.7098     5909.00000
    84.7229     6119.00000
    84.7360     6192.00000
    84.7492     5960.00000
    84.7623     6151.00000
    84.7754     6087.00000
    84.7886     6078.00000
    84.8017     6122.00000
    84.8148     6081.00000
    84.8279     6114.00000
    84.8411     6111.00000
    84.8542     6064.00000
    84.8673     6016.00000
    84.8805     5949.00000
    84.8936     5991.00000
    84.9067     5854.00000
    84.9199     5725.00000
    84.9330     5826.00000
    84.9461     5872.00000
    84.9593     5914.00000
    84.9724     6010.00000
    84.9855     5774.00000
    84.9986     5784.00000
    85.0118     5736.00000
    85.0249     5781.00000
    85.0380     5822.00000
    85.0512     5747.00000
    85.0643     5944.00000
    85.0774     5699.00000
    85.0906     5783.00000
    85.1037     5798.00000
    85.1168     5791.00000
    85.1299     5874.00000
    85.1431     5957.00000
    85.1562     5849.00000
    85.1693     5839.00000
    85.1825     5924.00000
    85.1956     5972.00000
    85.2087     6010.00000
    85.2219     6067.00000
    85.2350     5956.00000
    85.2481     5996.00000
    85.2612     5901.00000
    85.2744     5949.00000
    85.2875     5836.00000
    85.3006     5912.00000
    85.3138     5957.00000
    85.3269     5846.00000
    85.3400     5934.00000
    85.3532     5891.00000
    85.3663     5628.00000
    85.3794     5744.00000
    85.3925     5847.00000
    85.4057     5724.00000
    85.4188     5843.00000
    85.4319     5799.00000
    85.4451     5890.00000
    85.4582     5800.00000
    85.4713     5984.00000
    85.4845     6046.00000
    85.4976     5967.00000
    85.5107     5789.00000
    85.5238     5728.00000
    85.5370     5709.00000
    85.5501     5817.00000
    85.5632     5982.00000
    85.5764     5851.00000
    85.5895     5805.00000
    85.6026     5971.00000
    85.6158     5922.00000
    85.6289     5863.00000
    85.6420     5963.00000
    85.6552     6076.00000
    85.6683     6104.00000
    85.6814     6134.00000
    85.6945     6030.00000
    85.7077     6257.00000
    85.7208     6261.00000
    85.7339     6102.00000
    85.7471     6030.00000
    85.7602     6060.00000
    85.7733     5926.00000
    85.7865     5792.00000
    85.7996     5984.00000
    85.8127     5938.00000
    85.8259     5948.00000
    85.8390     5967.00000
    85.8521     5809.00000
    85.8652     5798.00000
    85.8784     5994.00000
    85.8915     5772.00000
    85.9046     5856.00000
    85.9178     6062.00000
    85.9309     5947.00000
    85.9440     5843.00000
    85.9572     5984.00000
    85.9703     5824.00000
    85.9834     6124.00000
    85.9965     6050.00000
    86.0097     5933.00000
    86.0228     5993.00000
    86.0359     6002.00000
    86.0491     6083.00000
    86.0622     5907.00000
    86.0753     6010.00000
    86.0885     5960.00000
    86.1016     5970.00000
    86.1147     6066.00000
    86.1278     5927.00000
    86.1410     6011.00000
    86.1541     6025.00000
    86.1672     5980.00000
    86.1804     5911.00000
    86.1935     5794.00000
    86.2066     5823.00000
    86.2198     5960.00000
    86.2329     6008.00000
    86.2460     6036.00000
    86.2591     5766.00000
    86.2723     5990.00000
    86.2854     6039.00000
    86.2985     5940.00000
    86.3117     5922.00000
    86.3248     5916.00000
    86.3379     6039.00000
    86.3511     6121.00000
    86.3642     6180.00000
    86.3773     6073.00000
    86.3904     6346.00000
    86.4036     6215.00000
    86.4167     6304.00000
    86.4298     6082.00000
    86.4430     6155.00000
    86.4561     6072.00000
    86.4692     5990.00000
    86.4824     5943.00000
    86.4955     5965.00000
    86.5086     5967.00000
    86.5218     5973.00000
    86.5349     5826.00000
    86.5480     5952.00000
    86.5611     6076.00000
    86.5743     5963.00000
    86.5874     6096.00000
    86.6005     6124.00000
    86.6137     6039.00000
    86.6268     6262.00000
    86.6399     6423.00000
    86.6531     6601.00000
    86.6662     6709.00000
    86.6793     6920.00000
    86.6925     6982.00000
    86.7056     7178.00000
    86.7187     7308.00000
    86.7318     7099.00000
    86.7450     7151.00000
    86.7581     7031.00000
    86.7712     6968.00000
    86.7844     6871.00000
    86.7975     6735.00000
    86.8106     6606.00000
    86.8238     6711.00000
    86.8369     6780.00000
    86.8500     6623.00000
    86.8631     6649.00000
    86.8763     6662.00000
    86.8894     6563.00000
    86.9025     6587.00000
    86.9157     6537.00000
    86.9288     6748.00000
    86.9419     6681.00000
    86.9551     6810.00000
    86.9682     6710.00000
    86.9813     6825.00000
    86.9944     6796.00000
    87.0076     6758.00000
    87.0207     6743.00000
    87.0338     6706.00000
    87.0470     6691.00000
    87.0601     6570.00000
    87.0732     6487.00000
    87.0864     6319.00000
    87.0995     6171.00000
    87.1126     6161.00000
    87.1257     6174.00000
    87.1389     6161.00000
    87.1520     6195.00000
    87.1651     6109.00000
    87.1783     6245.00000
    87.1914     6216.00000
    87.2045     6199.00000
    87.2177     6115.00000
    87.2308     5860.00000
    87.2439     6099.00000
    87.2570     6121.00000
    87.2702     5993.00000
    87.2833     6020.00000
    87.2964     6006.00000
    87.3096     6118.00000
    87.3227     6011.00000
    87.3358     6103.00000
    87.3490     6134.00000
    87.3621     5940.00000
    87.3752     5802.00000
    87.3884     5879.00000
    87.4015     5750.00000
    87.4146     5825.00000
    87.4277     5926.00000
    87.4409     5833.00000
    87.4540     5869.00000
    87.4671     5821.00000
    87.4803     5829.00000
    87.4934     5969.00000
    87.5065     6085.00000
    87.5197     5994.00000
    87.5328     5783.00000
    87.5459     5847.00000
    87.5590     6084.00000
    87.5722     5987.00000
    87.5853     5969.00000
    87.5984     5935.00000
    87.6116     6018.00000
    87.6247     6055.00000
    87.6378     5992.00000
    87.6510     6001.00000
    87.6641     6104.00000
    87.6772     6034.00000
    87.6904     5980.00000
    87.7035     6156.00000
    87.7166     6199.00000
    87.7297     6428.00000
    87.7429     6260.00000
    87.7560     6076.00000
    87.7691     6225.00000
    87.7823     6270.00000
    87.7954     6350.00000
    87.8085     6327.00000
    87.8217     6439.00000
    87.8348     6299.00000
    87.8479     6237.00000
    87.8610     6266.00000
    87.8742     6529.00000
    87.8873     6266.00000
    87.9004     6334.00000
    87.9136     6390.00000
    87.9267     6466.00000
    87.9398     6496.00000
    87.9530     6509.00000
    87.9661     6481.00000
    87.9792     6345.00000
    87.9923     6121.00000
    88.0055     6079.00000
    88.0186     6057.00000
    88.0317     6164.00000
    88.0449     6152.00000
    88.0580     6149.00000
    88.0711     6117.00000
    88.0843     6106.00000
    88.0974     6019.00000
    88.1105     6079.00000
    88.1236     6131.00000
    88.1368     5936.00000
    88.1499     6125.00000
    88.1630     6092.00000
    88.1762     6042.00000
    88.1893     6030.00000
    88.2024     6051.00000
    88.2156     6180.00000
    88.2287     6018.00000
    88.2418     6136.00000
    88.2550     6109.00000
    88.2681     6162.00000
    88.2812     5951.00000
    88.2943     6070.00000
    88.3075     5962.00000
    88.3206     6009.00000
    88.3337     5926.00000
    88.3469     5959.00000
    88.3600     6064.00000
    88.3731     5877.00000
    88.3863     6055.00000
    88.3994     5734.00000
    88.4125     5884.00000
    88.4256     5914.00000
    88.4388     6056.00000
    88.4519     5897.00000
    88.4650     5907.00000
    88.4782     6164.00000
    88.4913     6029.00000
    88.5044     6193.00000
    88.5176     6268.00000
    88.5307     6304.00000
    88.5438     6443.00000
    88.5569     6298.00000
    88.5701     6313.00000
    88.5832     6434.00000
    88.5963     6298.00000
    88.6095     6291.00000
    88.6226     6357.00000
    88.6357     6232.00000
    88.6489     6300.00000
    88.6620     6234.00000
    88.6751     6160.00000
    88.6882     6389.00000
    88.7014     6287.00000
    88.7145     6265.00000
    88.7276     6430.00000
    88.7408     6382.00000
    88.7539     6268.00000
    88.7670     6271.00000
    88.7802     6169.00000
    88.7933     6322.00000
    88.8064     6301.00000
    88.8196     6206.00000
    88.8327     6099.00000
    88.8458     6374.00000
    88.8589     6184.00000
    88.8721     6279.00000
    88.8852     6138.00000
    88.8983     6188.00000
    88.9115     6189.00000
    88.9246     6309.00000
    88.9377     6100.00000
    88.9509     6163.00000
    88.9640     6382.00000
    88.9771     6392.00000
    88.9902     6333.00000
    89.0034     6200.00000
    89.0165     6279.00000
    89.0296     6415.00000
    89.0428     6235.00000
    89.0559     6270.00000
    89.0690     6316.00000
    89.0822     6272.00000
    89.0953     6370.00000
    89.1084     6359.00000
    89.1216     6138.00000
    89.1347     6416.00000
    89.1478     6464.00000
    89.1609     6374.00000
    89.1741     6376.00000
    89.1872     6265.00000
    89.2003     6432.00000
    89.2135     6233.00000
    89.2266     6393.00000
    89.2397     6489.00000
    89.2529     6488.00000
    89.2660     6478.00000
    89.2791     6421.00000
    89.2922     6335.00000
    89.3054     6425.00000
    89.3185     6167.00000
    89.3316     6266.00000
    89.3448     6262.00000
    89.3579     6305.00000
    89.3710     6280.00000
    89.3842     6384.00000
    89.3973     6504.00000
    89.4104     6687.00000
    89.4235     6636.00000
    89.4367     6636.00000
    89.4498     6988.00000
    89.4629     6665.00000
    89.4761     6419.00000
    89.4892     6414.00000
    89.5023     6395.00000
    89.5155     6138.00000
    89.5286     6373.00000
    89.5417     6397.00000
    89.5548     6301.00000
    89.5680     5976.00000
    89.5811     6164.00000
    89.5942     6072.00000
    89.6074     6071.00000
    89.6205     6242.00000
    89.6336     6088.00000
    89.6468     6136.00000
    89.6599     6192.00000
    89.6730     6265.00000
    89.6861     6372.00000
    89.6993     6464.00000
    89.7124     6470.00000
    89.7255     6691.00000
    89.7387     6993.00000
    89.7518     6818.00000
    89.7649     6609.00000
    89.7781     6580.00000
    89.7912     6430.00000
    89.8043     6259.00000
    89.8175     6211.00000
    89.8306     6187.00000
    89.8437     6131.00000
    89.8568     5887.00000
    89.8700     5873.00000
    89.8831     5846.00000
    89.8962     5918.00000
    89.9094     5901.00000
    89.9225     6000.00000
    89.9356     5939.00000
    89.9488     5805.00000
    89.9619     5969.00000
    89.9750     5989.00000
    89.9882     5816.00000
    90.0013     6043.00000
    90.0144     6049.00000
    90.0275     6091.00000
    90.0407     6098.00000
    90.0538     5973.00000
    90.0669     6211.00000
    90.0801     6053.00000
    90.0932     6028.00000
    90.1063     6037.00000
    90.1195     5924.00000
    90.1326     5894.00000
    90.1457     5710.00000
    90.1588     5895.00000
    90.1720     5859.00000
    90.1851     5927.00000
    90.1982     5716.00000
    90.2114     6058.00000
    90.2245     5844.00000
    90.2376     5780.00000
    90.2508     5808.00000
    90.2639     5916.00000
    90.2770     5924.00000
    90.2901     5853.00000
    90.3033     5830.00000
    90.3164     5745.00000
    90.3295     5954.00000
    90.3427     5848.00000
    90.3558     5808.00000
    90.3689     5952.00000
    90.3821     5751.00000
    90.3952     5786.00000
    90.4083     5765.00000
    90.4214     5654.00000
    90.4346     5713.00000
    90.4477     5899.00000
    90.4608     5916.00000
    90.4740     5982.00000
    90.4871     5917.00000
    90.5002     5897.00000
    90.5134     5831.00000
    90.5265     5977.00000
    90.5396     5828.00000
    90.5527     5955.00000
    90.5659     5698.00000
    90.5790     5773.00000
    90.5921     5946.00000
    90.6053     5869.00000
    90.6184     5602.00000
    90.6315     5747.00000
    90.6447     5856.00000
    90.6578     5729.00000
    90.6709     5683.00000
    90.6841     5716.00000
    90.6972     5803.00000
    90.7103     5737.00000
    90.7234     5851.00000
    90.7366     5878.00000
    90.7497     5815.00000
    90.7628     5992.00000
    90.7760     5892.00000
    90.7891     5820.00000
    90.8022     5894.00000
    90.8154     5865.00000
    90.8285     5892.00000
    90.8416     5902.00000
    90.8548     5705.00000
    90.8679     5910.00000
    90.8810     5751.00000
    90.8941     5853.00000
    90.9073     5827.00000
    90.9204     5938.00000
    90.9335     5877.00000
    90.9467     6016.00000
    90.9598     6116.00000
    90.9729     5973.00000
    90.9861     6156.00000
    90.9992     6128.00000
    91.0123     6183.00000
    91.0254     6222.00000
    91.0386     6366.00000
    91.0517     6219.00000
    91.0648     6095.00000
    91.0780     6160.00000
    91.0911     5986.00000
    91.1042     6090.00000
    91.1174     6040.00000
    91.1305     6072.00000
    91.1436     6148.00000
    91.1567     5995.00000
    91.1699     5967.00000
    91.1830     5945.00000
    91.1961     5881.00000
    91.2093     5988.00000
    91.2224     5935.00000
    91.2355     5904.00000
    91.2487     5813.00000
    91.2618     5910.00000
    91.2749     6087.00000
    91.2880     6118.00000
    91.3012     6030.00000
    91.3143     6224.00000
    91.3274     6002.00000
    91.3406     6189.00000
    91.3537     6132.00000
    91.3668     6113.00000
    91.3800     6253.00000
    91.3931     5967.00000
    91.4062     6058.00000
    91.4193     6138.00000
    91.4325     6141.00000
    91.4456     6220.00000
    91.4587     6422.00000
    91.4719     6331.00000
    91.4850     6339.00000
    91.4981     6381.00000
    91.5113     6209.00000
    91.5244     6039.00000
    91.5375     6296.00000
    91.5507     6198.00000
    91.5638     6119.00000
    91.5769     6045.00000
    91.5900     6015.00000
    91.6032     6032.00000
    91.6163     6122.00000
    91.6294     6008.00000
    91.6426     6146.00000
    91.6557     6150.00000
    91.6688     6324.00000
    91.6820     6296.00000
    91.6951     6273.00000
    91.7082     6323.00000
    91.7213     6461.00000
    91.7345     6557.00000
    91.7476     6526.00000
    91.7607     6569.00000
    91.7739     6609.00000
    91.7870     6600.00000
    91.8001     6317.00000
    91.8133     6307.00000
    91.8264     6142.00000
    91.8395     6432.00000
    91.8526     6583.00000
    91.8658     6411.00000
    91.8789     6317.00000
    91.8920     6343.00000
    91.9052     6276.00000
    91.9183     6247.00000
    91.9314     6161.00000
    91.9446     6202.00000
    91.9577     6101.00000
    91.9708     6180.00000
    91.9840     6050.00000
    91.9971     6310.00000
    92.0102     6387.00000
    92.0233     6351.00000
    92.0365     6527.00000
    92.0496     6581.00000
    92.0627     6525.00000
    92.0759     6891.00000
    92.0890     6673.00000
    92.1021     6554.00000
    92.1153     6638.00000
    92.1284     6551.00000
    92.1415     6596.00000
    92.1546     6669.00000
    92.1678     6378.00000
    92.1809     6362.00000
    92.1940     6230.00000
    92.2072     6396.00000
    92.2203     6269.00000
    92.2334     5984.00000
    92.2466     5969.00000
    92.2597     5978.00000
    92.2728     5953.00000
    92.2859     6000.00000
    92.2991     6035.00000
    92.3122     5883.00000
    92.3253     6131.00000
    92.3385     6153.00000
    92.3516     6065.00000
    92.3647     6127.00000
    92.3779     6232.00000
    92.3910     6200.00000
    92.4041     6336.00000
    92.4173     6222.00000
    92.4304     6291.00000
    92.4435     6217.00000
    92.4566     6061.00000
    92.4698     5991.00000
    92.4829     5933.00000
    92.4960     6012.00000
    92.5092     5955.00000
    92.5223     5844.00000
    92.5354     5953.00000
    92.5486     5899.00000
    92.5617     5957.00000
    92.5748     5904.00000
    92.5879     5894.00000
    92.6011     5967.00000
    92.6142     6026.00000
    92.6273     5885.00000
    92.6405     5868.00000
    92.6536     5831.00000
    92.6667     5863.00000
    92.6799     5868.00000
    92.6930     5803.00000
    92.7061     5905.00000
    92.7192     5991.00000
    92.7324     6095.00000
    92.7455     6026.00000
    92.7586     5973.00000
    92.7718     5890.00000
    92.7849     6150.00000
    92.7980     5996.00000
    92.8112     6010.00000
    92.8243     6015.00000
    92.8374     5970.00000
    92.8505     5989.00000
    92.8637     5878.00000
    92.8768     5895.00000
    92.8899     5849.00000
    92.9031     5906.00000
    92.9162     5774.00000
    92.9293     5903.00000
    92.9425     5908.00000
    92.9556     5914.00000
    92.9687     5833.00000
    92.9819     5785.00000
    92.9950     5793.00000
    93.0081     5922.00000
    93.0212     5910.00000
    93.0344     5894.00000
    93.0475     5814.00000
    93.0606     5913.00000
    93.0738     5960.00000
    93.0869     6055.00000
    93.1000     6022.00000
    93.1132     5955.00000
    93.1263     5980.00000
    93.1394     6017.00000
    93.1525     5888.00000
    93.1657     5686.00000
    93.1788     5737.00000
    93.1919     5800.00000
    93.2051     5767.00000
    93.2182     5778.00000
    93.2313     5699.00000
    93.2445     5940.00000
    93.2576     5965.00000
    93.2707     5883.00000
    93.2839     5623.00000
    93.2970     5835.00000
    93.3101     5862.00000
    93.3232     5878.00000
    93.3364     5728.00000
    93.3495     5923.00000
    93.3626     5888.00000
    93.3758     6030.00000
    93.3889     5929.00000
    93.4020     5956.00000
    93.4152     5863.00000
    93.4283     6161.00000
    93.4414     6085.00000
    93.4545     5984.00000
    93.4677     6106.00000
    93.4808     6115.00000
    93.4939     6099.00000
    93.5071     6286.00000
    93.5202     6117.00000
    93.5333     6428.00000
    93.5465     6396.00000
    93.5596     6506.00000
    93.5727     6594.00000
    93.5858     6460.00000
    93.5990     6441.00000
    93.6121     6255.00000
    93.6252     6067.00000
    93.6384     6135.00000
    93.6515     5982.00000
    93.6646     6152.00000
    93.6778     6031.00000
    93.6909     5954.00000
    93.7040     6041.00000
    93.7171     5860.00000
    93.7303     5918.00000
    93.7434     5869.00000
    93.7565     5924.00000
    93.7697     5929.00000
    93.7828     6106.00000
    93.7959     6116.00000
    93.8091     6155.00000
    93.8222     6242.00000
    93.8353     6162.00000
    93.8484     6074.00000
    93.8616     6109.00000
    93.8747     6007.00000
    93.8878     6070.00000
    93.9010     6032.00000
    93.9141     6185.00000
    93.9272     6023.00000
    93.9404     6022.00000
    93.9535     5854.00000
    93.9666     5881.00000
    93.9798     5961.00000
    93.9929     5917.00000
    94.0060     5853.00000
    94.0191     5987.00000
    94.0323     5865.00000
    94.0454     5744.00000
    94.0585     5765.00000
    94.0717     5898.00000
    94.0848     5756.00000
    94.0979     5600.00000
    94.1111     5906.00000
    94.1242     5776.00000
    94.1373     5808.00000
    94.1505     5935.00000
    94.1636     5745.00000
    94.1767     5846.00000
    94.1898     5863.00000
    94.2030     5824.00000
    94.2161     5955.00000
    94.2292     5833.00000
    94.2424     5982.00000
    94.2555     6163.00000
    94.2686     6081.00000
    94.2818     6072.00000
    94.2949     6190.00000
    94.3080     6148.00000
    94.3211     6340.00000
    94.3343     6320.00000
    94.3474     6320.00000
    94.3605     6443.00000
    94.3737     6489.00000
    94.3868     6348.00000
    94.3999     6448.00000
    94.4131     6328.00000
    94.4262     6334.00000
    94.4393     6429.00000
    94.4524     6236.00000
    94.4656     6385.00000
    94.4787     6214.00000
    94.4918     5989.00000
    94.5050     6150.00000
    94.5181     5965.00000
    94.5312     6225.00000
    94.5444     6198.00000
    94.5575     6038.00000
    94.5706     6130.00000
    94.5837     6174.00000
    94.5969     6097.00000
    94.6100     6240.00000
    94.6231     6335.00000
    94.6363     6318.00000
    94.6494     6011.00000
    94.6625     6031.00000
    94.6757     6159.00000
    94.6888     6146.00000
    94.7019     6148.00000
    94.7150     6136.00000
    94.7282     6060.00000
    94.7413     6287.00000
    94.7544     6327.00000
    94.7676     6237.00000
    94.7807     6331.00000
    94.7938     6375.00000
    94.8070     6406.00000
    94.8201     6390.00000
    94.8332     6239.00000
    94.8464     6230.00000
    94.8595     6016.00000
    94.8726     6067.00000
    94.8857     5933.00000
    94.8989     5988.00000
    94.9120     5982.00000
    94.9251     5980.00000
    94.9383     5955.00000
    94.9514     5948.00000
    94.9645     5949.00000
    94.9777     5937.00000
    94.9908     5943.00000
    95.0039     5912.00000
    95.0170     5917.00000
    95.0302     5861.00000
    95.0433     5860.00000
    95.0564     5985.00000
    95.0696     5892.00000
    95.0827     6130.00000
    95.0958     6031.00000
    95.1090     6090.00000
    95.1221     6021.00000
    95.1352     6009.00000
    95.1484     6051.00000
    95.1615     6189.00000
    95.1746     6157.00000
    95.1877     5971.00000
    95.2009     6083.00000
    95.2140     6115.00000
    95.2271     6222.00000
    95.2403     6043.00000
    95.2534     6237.00000
    95.2665     6369.00000
    95.2797     6316.00000
    95.2928     6439.00000
    95.3059     6313.00000
    95.3190     6385.00000
    95.3322     6323.00000
    95.3453     6150.00000
    95.3584     6142.00000
    95.3716     6082.00000
    95.3847     6075.00000
    95.3978     6034.00000
    95.4110     6065.00000
    95.4241     5953.00000
    95.4372     5820.00000
    95.4503     5895.00000
    95.4635     5889.00000
    95.4766     6079.00000
    95.4897     6125.00000
    95.5029     6106.00000
    95.5160     6174.00000
    95.5291     6184.00000
    95.5423     6220.00000
    95.5554     6400.00000
    95.5685     6450.00000
    95.5816     6501.00000
    95.5948     6688.00000
    95.6079     6769.00000
    95.6210     6613.00000
    95.6342     6339.00000
    95.6473     6445.00000
    95.6604     6218.00000
    95.6736     6205.00000
    95.6867     6083.00000
    95.6998     6022.00000
    95.7130     6006.00000
    95.7261     5832.00000
    95.7392     6017.00000
    95.7523     5866.00000
    95.7655     5758.00000
    95.7786     5999.00000
    95.7917     5880.00000
    95.8049     5987.00000
    95.8180     5934.00000
    95.8311     6002.00000
    95.8443     5987.00000
    95.8574     6053.00000
    95.8705     5899.00000
    95.8836     5939.00000
    95.8968     6111.00000
    95.9099     6004.00000
    95.9230     5974.00000
    95.9362     6099.00000
    95.9493     5974.00000
    95.9624     5760.00000
    95.9756     5811.00000
    95.9887     5964.00000
    96.0018     5982.00000
    96.0149     6001.00000
    96.0281     5960.00000
    96.0412     5851.00000
    96.0543     6016.00000
    96.0675     5754.00000
    96.0806     5751.00000
    96.0937     5813.00000
    96.1069     5922.00000
    96.1200     5789.00000
    96.1331     5739.00000
    96.1463     5611.00000
    96.1594     5862.00000
    96.1725     5813.00000
    96.1856     5653.00000
    96.1988     5812.00000
    96.2119     5754.00000
    96.2250     5748.00000
    96.2382     5732.00000
    96.2513     5640.00000
    96.2644     5804.00000
    96.2776     5690.00000
    96.2907     5585.00000
    96.3038     5585.00000
    96.3169     5676.00000
    96.3301     5695.00000
    96.3432     5721.00000
    96.3563     5602.00000
    96.3695     5677.00000
    96.3826     5889.00000
    96.3957     5618.00000
    96.4089     5603.00000
    96.4220     5650.00000
    96.4351     5720.00000
    96.4482     5801.00000
    96.4614     5756.00000
    96.4745     5944.00000
    96.4876     5646.00000
    96.5008     5851.00000
    96.5139     5814.00000
    96.5270     5748.00000
    96.5402     5837.00000
    96.5533     5800.00000
    96.5664     5959.00000
    96.5796     5780.00000
    96.5927     5796.00000
    96.6058     5811.00000
    96.6189     5734.00000
    96.6321     5895.00000
    96.6452     5899.00000
    96.6583     5764.00000
    96.6715     5949.00000
    96.6846     5924.00000
    96.6977     5851.00000
    96.7109     5887.00000
    96.7240     5997.00000
    96.7371     6217.00000
    96.7502     5957.00000
    96.7634     5806.00000
    96.7765     6020.00000
    96.7896     5911.00000
    96.8028     5872.00000
    96.8159     5958.00000
    96.8290     5748.00000
    96.8422     6051.00000
    96.8553     6145.00000
    96.8684     6111.00000
    96.8815     6118.00000
    96.8947     6099.00000
    96.9078     6233.00000
    96.9209     6087.00000
    96.9341     6162.00000
    96.9472     6101.00000
    96.9603     6198.00000
    96.9735     6059.00000
    96.9866     5869.00000
    96.9997     5971.00000
    97.0128     5784.00000
    97.0260     5867.00000
    97.0391     6045.00000
    97.0522     6104.00000
    97.0654     5915.00000
    97.0785     6152.00000
    97.0916     6010.00000
    97.1048     6056.00000
    97.1179     6054.00000
    97.1310     6003.00000
    97.1442     6146.00000
    97.1573     6103.00000
    97.1704     6112.00000
    97.1835     6058.00000
    97.1967     6213.00000
    97.2098     6394.00000
    97.2229     6132.00000
    97.2361     6263.00000
    97.2492     6115.00000
    97.2623     6041.00000
    97.2755     6078.00000
    97.2886     6087.00000
    97.3017     6089.00000
    97.3148     6042.00000
    97.3280     5872.00000
    97.3411     6003.00000
    97.3542     5993.00000
    97.3674     5887.00000
    97.3805     5906.00000
    97.3936     5775.00000
    97.4068     5788.00000
    97.4199     5931.00000
    97.4330     5659.00000
    97.4462     5929.00000
    97.4593     6031.00000
    97.4724     5902.00000
    97.4855     6003.00000
    97.4987     5971.00000
    97.5118     6035.00000
    97.5249     6121.00000
    97.5381     6048.00000
    97.5512     5976.00000
    97.5643     6084.00000
    97.5775     6035.00000
    97.5906     6064.00000
    97.6037     6052.00000
    97.6168     6072.00000
    97.6300     5963.00000
    97.6431     5961.00000
    97.6562     5766.00000
    97.6694     5791.00000
    97.6825     5817.00000
    97.6956     5941.00000
    97.7088     5739.00000
    97.7219     5587.00000
    97.7350     5771.00000
    97.7481     5819.00000
    97.7613     5804.00000
    97.7744     5895.00000
    97.7875     5802.00000
    97.8007     5691.00000
    97.8138     5724.00000
    97.8269     6023.00000
    97.8401     5855.00000
    97.8532     5774.00000
    97.8663     5780.00000
    97.8794     5804.00000
    97.8926     5925.00000
    97.9057     5836.00000
    97.9188     5908.00000
    97.9320     5858.00000
    97.9451     5696.00000
    97.9582     5831.00000
    97.9714     5616.00000
    97.9845     5772.00000
    97.9976     5972.00000
    98.0107     5889.00000
    98.0239     5850.00000
    98.0370     5909.00000
    98.0501     5793.00000
    98.0633     5765.00000
    98.0764     5838.00000
    98.0895     5780.00000
    98.1027     5852.00000
    98.1158     6089.00000
    98.1289     5884.00000
    98.1421     5876.00000
    98.1552     5856.00000
    98.1683     5925.00000
    98.1814     6000.00000
    98.1946     5938.00000
    98.2077     5979.00000
    98.2208     6003.00000
    98.2340     6045.00000
    98.2471     6071.00000
    98.2602     5924.00000
    98.2734     6085.00000
    98.2865     6185.00000
    98.2996     6039.00000
    98.3128     6068.00000
    98.3259     6102.00000
    98.3390     6048.00000
    98.3521     6052.00000
    98.3653     5924.00000
    98.3784     5878.00000
    98.3915     5959.00000
    98.4047     6017.00000
    98.4178     6072.00000
    98.4309     5948.00000
    98.4441     6284.00000
    98.4572     6097.00000
    98.4703     5916.00000
    98.4834     5813.00000
    98.4966     5982.00000
    98.5097     5907.00000
    98.5228     6059.00000
    98.5360     6118.00000
    98.5491     6041.00000
    98.5622     6054.00000
    98.5754     6212.00000
    98.5885     6146.00000
    98.6016     6138.00000
    98.6147     6305.00000
    98.6279     6100.00000
    98.6410     6185.00000
    98.6541     5979.00000
    98.6673     6268.00000
    98.6804     6248.00000
    98.6935     6077.00000
    98.7067     6115.00000
    98.7198     6124.00000
    98.7329     5956.00000
    98.7460     5752.00000
    98.7592     5912.00000
    98.7723     5946.00000
    98.7854     5877.00000
    98.7986     5867.00000
    98.8117     5920.00000
    98.8248     5986.00000
    98.8380     5936.00000
    98.8511     5853.00000
    98.8642     5924.00000
    98.8773     5906.00000
    98.8905     5872.00000
    98.9036     5782.00000
    98.9167     5764.00000
    98.9299     5924.00000
    98.9430     5902.00000
    98.9561     5763.00000
    98.9693     5898.00000
    98.9824     5804.00000
    98.9955     5844.00000
    99.0087     5782.00000
    99.0218     5842.00000
    99.0349     5757.00000
    99.0480     5690.00000
    99.0612     5683.00000
    99.0743     5719.00000
    99.0874     5847.00000
    99.1006     5799.00000
    99.1137     5748.00000
    99.1268     5739.00000
    99.1400     5823.00000
    99.1531     5787.00000
    99.1662     5808.00000
    99.1793     5792.00000
    99.1925     5784.00000
    99.2056     5714.00000
    99.2187     5732.00000
    99.2319     5748.00000
    99.2450     5784.00000
    99.2581     5705.00000
    99.2713     5807.00000
    99.2844     5785.00000
    99.2975     5857.00000
    99.3107     5802.00000
    99.3238     5791.00000
    99.3369     5742.00000
    99.3500     5825.00000
    99.3632     5810.00000
    99.3763     5855.00000
    99.3894     5777.00000
    99.4026     5819.00000
    99.4157     5594.00000
    99.4288     5765.00000
    99.4420     5523.00000
    99.4551     5683.00000
    99.4682     5703.00000
    99.4813     5722.00000
    99.4945     5771.00000
    99.5076     5766.00000
    99.5207     5831.00000
    99.5339     5978.00000
    99.5470     5640.00000
    99.5601     5646.00000
    99.5733     5777.00000
    99.5864     5818.00000
    99.5995     5709.00000
    99.6126     5719.00000
    99.6258     5834.00000
    99.6389     5885.00000
    99.6520     5832.00000
    99.6652     5762.00000
    99.6783     5767.00000
    99.6914     5834.00000
    99.7046     5638.00000
    99.7177     5651.00000
    99.7308     5720.00000
    99.7439     5678.00000
    99.7571     5720.00000
    99.7702     5730.00000
    99.7833     5684.00000
    99.7965     5668.00000
    99.8096     5756.00000
    99.8227     5731.00000
    99.8359     5944.00000
    99.8490     5869.00000
    99.8621     5760.00000
    99.8753     5894.00000
    99.8884     5912.00000
    99.9015     5694.00000
    99.9146     5912.00000
    99.9278     5935.00000
    99.9409     5757.00000
    99.9540     5864.00000
    99.9672     5733.00000
    99.9803     5767.00000
    99.9934     5939.00000
