! Initial file:   D:\ZAKARY_OUAIL\MA_THESE\Deuxième_année_de_thèse\DRX\Affinement_DRX\Fullprof\Thermodiff3-nuit_NaNbO2F2\280°C\NaNbO2F2-Lent_280°C.xrdml
! Initial format:  58
! WAVE (A):      1.54060     1.54060     1.00000
! REM : data have been multiplied by     1.0000
! X_data : 2 Theta (deg.)                                                                                                                                                                                                                                                  
! Y_data : Intensity (arb. units)                                                                                                                                                                                                                                          
!     X         Y
!--------------------------------------------------------------------------------
    10.0116     7542.00000
    10.0247     7465.00000
    10.0379     7485.00000
    10.0510     7482.00000
    10.0641     7459.00000
    10.0772     7598.00000
    10.0904     7527.00000
    10.1035     7365.00000
    10.1166     7646.00000
    10.1298     7680.00000
    10.1429     7567.00000
    10.1560     7697.00000
    10.1692     7767.00000
    10.1823     7581.00000
    10.1954     7502.00000
    10.2086     7648.00000
    10.2217     7609.00000
    10.2348     7615.00000
    10.2479     7444.00000
    10.2611     7538.00000
    10.2742     7572.00000
    10.2873     7480.00000
    10.3005     7610.00000
    10.3136     7605.00000
    10.3267     7451.00000
    10.3399     7521.00000
    10.3530     7392.00000
    10.3661     7454.00000
    10.3792     7434.00000
    10.3924     7608.00000
    10.4055     7629.00000
    10.4186     7546.00000
    10.4318     7476.00000
    10.4449     7613.00000
    10.4580     7448.00000
    10.4712     7564.00000
    10.4843     7553.00000
    10.4974     7515.00000
    10.5105     7470.00000
    10.5237     7488.00000
    10.5368     7443.00000
    10.5499     7434.00000
    10.5631     7431.00000
    10.5762     7448.00000
    10.5893     7850.00000
    10.6025     7709.00000
    10.6156     7557.00000
    10.6287     7366.00000
    10.6418     7432.00000
    10.6550     7641.00000
    10.6681     7385.00000
    10.6812     7513.00000
    10.6944     7525.00000
    10.7075     7397.00000
    10.7206     7474.00000
    10.7338     7445.00000
    10.7469     7442.00000
    10.7600     7353.00000
    10.7732     7433.00000
    10.7863     7434.00000
    10.7994     7526.00000
    10.8125     7707.00000
    10.8257     7668.00000
    10.8388     7558.00000
    10.8519     7845.00000
    10.8651     7823.00000
    10.8782     7946.00000
    10.8913     8006.00000
    10.9045     7987.00000
    10.9176     8203.00000
    10.9307     8087.00000
    10.9438     7970.00000
    10.9570     8036.00000
    10.9701     8094.00000
    10.9832     8152.00000
    10.9964     8187.00000
    11.0095     8276.00000
    11.0226     8263.00000
    11.0358     8423.00000
    11.0489     8518.00000
    11.0620     8849.00000
    11.0751     9143.00000
    11.0883     9549.00000
    11.1014    10240.00000
    11.1145    11119.00000
    11.1277    12278.00000
    11.1408    13703.00000
    11.1539    16326.00000
    11.1671    20123.00000
    11.1802    24954.00000
    11.1933    32527.00000
    11.2065    47288.00000
    11.2196    64762.00000
    11.2327    77995.00000
    11.2458    82559.00000
    11.2590    75761.00000
    11.2721    61182.00000
    11.2852    44102.00000
    11.2984    29764.00000
    11.3115    19739.00000
    11.3246    14050.00000
    11.3378    10986.00000
    11.3509     9678.00000
    11.3640     8944.00000
    11.3771     8721.00000
    11.3903     8649.00000
    11.4034     8472.00000
    11.4165     8262.00000
    11.4297     8295.00000
    11.4428     8018.00000
    11.4559     7898.00000
    11.4691     7888.00000
    11.4822     7782.00000
    11.4953     7786.00000
    11.5084     7632.00000
    11.5216     7689.00000
    11.5347     7805.00000
    11.5478     7763.00000
    11.5610     7584.00000
    11.5741     7665.00000
    11.5872     7574.00000
    11.6004     7590.00000
    11.6135     7536.00000
    11.6266     7819.00000
    11.6398     7711.00000
    11.6529     7716.00000
    11.6660     7529.00000
    11.6791     7605.00000
    11.6923     7653.00000
    11.7054     7846.00000
    11.7185     7801.00000
    11.7317     7921.00000
    11.7448     7801.00000
    11.7579     7933.00000
    11.7711     7960.00000
    11.7842     7820.00000
    11.7973     7903.00000
    11.8104     7870.00000
    11.8236     8008.00000
    11.8367     7999.00000
    11.8498     7883.00000
    11.8630     7914.00000
    11.8761     7886.00000
    11.8892     8150.00000
    11.9024     7961.00000
    11.9155     7880.00000
    11.9286     7832.00000
    11.9417     7949.00000
    11.9549     7915.00000
    11.9680     7657.00000
    11.9811     7700.00000
    11.9943     7898.00000
    12.0074     8068.00000
    12.0205     7959.00000
    12.0337     7832.00000
    12.0468     7793.00000
    12.0599     7896.00000
    12.0731     7951.00000
    12.0862     7950.00000
    12.0993     7838.00000
    12.1124     8101.00000
    12.1256     7983.00000
    12.1387     7757.00000
    12.1518     7906.00000
    12.1650     7828.00000
    12.1781     8072.00000
    12.1912     7814.00000
    12.2044     8039.00000
    12.2175     7939.00000
    12.2306     8191.00000
    12.2437     8052.00000
    12.2569     7981.00000
    12.2700     7935.00000
    12.2831     8018.00000
    12.2963     7966.00000
    12.3094     8034.00000
    12.3225     7925.00000
    12.3357     7927.00000
    12.3488     8041.00000
    12.3619     8004.00000
    12.3750     8100.00000
    12.3882     7942.00000
    12.4013     7991.00000
    12.4144     8060.00000
    12.4276     8004.00000
    12.4407     8051.00000
    12.4538     8043.00000
    12.4670     7988.00000
    12.4801     7838.00000
    12.4932     8054.00000
    12.5063     7945.00000
    12.5195     7668.00000
    12.5326     7864.00000
    12.5457     7944.00000
    12.5589     8031.00000
    12.5720     7971.00000
    12.5851     7991.00000
    12.5983     8105.00000
    12.6114     7862.00000
    12.6245     7733.00000
    12.6377     7822.00000
    12.6508     7761.00000
    12.6639     7750.00000
    12.6770     7741.00000
    12.6902     7658.00000
    12.7033     7889.00000
    12.7164     7843.00000
    12.7296     7900.00000
    12.7427     7783.00000
    12.7558     7982.00000
    12.7690     7820.00000
    12.7821     7761.00000
    12.7952     8001.00000
    12.8083     7973.00000
    12.8215     8048.00000
    12.8346     8228.00000
    12.8477     7715.00000
    12.8609     8070.00000
    12.8740     7832.00000
    12.8871     7939.00000
    12.9003     7908.00000
    12.9134     7868.00000
    12.9265     7923.00000
    12.9396     7961.00000
    12.9528     7935.00000
    12.9659     7783.00000
    12.9790     7841.00000
    12.9922     7807.00000
    13.0053     7825.00000
    13.0184     8022.00000
    13.0316     7853.00000
    13.0447     7928.00000
    13.0578     7966.00000
    13.0710     8036.00000
    13.0841     7831.00000
    13.0972     7816.00000
    13.1103     7912.00000
    13.1235     7809.00000
    13.1366     7870.00000
    13.1497     7813.00000
    13.1629     7841.00000
    13.1760     7919.00000
    13.1891     7876.00000
    13.2023     7832.00000
    13.2154     7867.00000
    13.2285     7973.00000
    13.2416     7839.00000
    13.2548     8024.00000
    13.2679     7838.00000
    13.2810     7835.00000
    13.2942     7619.00000
    13.3073     7884.00000
    13.3204     7923.00000
    13.3336     7723.00000
    13.3467     7801.00000
    13.3598     7586.00000
    13.3729     7598.00000
    13.3861     7653.00000
    13.3992     7620.00000
    13.4123     7724.00000
    13.4255     7612.00000
    13.4386     7742.00000
    13.4517     7822.00000
    13.4649     7823.00000
    13.4780     7741.00000
    13.4911     7757.00000
    13.5043     7926.00000
    13.5174     7741.00000
    13.5305     7604.00000
    13.5436     7830.00000
    13.5568     7839.00000
    13.5699     7719.00000
    13.5830     7692.00000
    13.5962     7902.00000
    13.6093     7782.00000
    13.6224     7726.00000
    13.6356     7838.00000
    13.6487     7714.00000
    13.6618     7750.00000
    13.6749     7893.00000
    13.6881     8074.00000
    13.7012     8042.00000
    13.7143     7950.00000
    13.7275     7894.00000
    13.7406     7779.00000
    13.7537     7984.00000
    13.7669     7939.00000
    13.7800     7787.00000
    13.7931     7808.00000
    13.8062     7830.00000
    13.8194     7836.00000
    13.8325     7727.00000
    13.8456     7553.00000
    13.8588     7800.00000
    13.8719     7915.00000
    13.8850     7814.00000
    13.8982     7596.00000
    13.9113     7860.00000
    13.9244     7784.00000
    13.9376     7799.00000
    13.9507     7760.00000
    13.9638     7782.00000
    13.9769     7649.00000
    13.9901     7889.00000
    14.0032     7949.00000
    14.0163     7772.00000
    14.0295     7680.00000
    14.0426     7813.00000
    14.0557     7839.00000
    14.0689     7846.00000
    14.0820     7897.00000
    14.0951     7978.00000
    14.1082     8042.00000
    14.1214     7701.00000
    14.1345     7826.00000
    14.1476     7846.00000
    14.1608     7821.00000
    14.1739     7888.00000
    14.1870     7889.00000
    14.2002     7937.00000
    14.2133     7680.00000
    14.2264     7860.00000
    14.2395     7725.00000
    14.2527     7774.00000
    14.2658     7606.00000
    14.2789     7755.00000
    14.2921     7728.00000
    14.3052     7788.00000
    14.3183     7913.00000
    14.3315     7610.00000
    14.3446     7630.00000
    14.3577     7792.00000
    14.3708     7711.00000
    14.3840     7716.00000
    14.3971     7781.00000
    14.4102     7990.00000
    14.4234     7997.00000
    14.4365     7793.00000
    14.4496     8041.00000
    14.4628     8434.00000
    14.4759     8729.00000
    14.4890     8769.00000
    14.5022     9087.00000
    14.5153     9188.00000
    14.5284     9455.00000
    14.5415     9570.00000
    14.5547     9250.00000
    14.5678     9158.00000
    14.5809     8651.00000
    14.5941     8404.00000
    14.6072     8159.00000
    14.6203     7944.00000
    14.6335     7979.00000
    14.6466     7943.00000
    14.6597     7721.00000
    14.6728     7693.00000
    14.6860     7825.00000
    14.6991     7748.00000
    14.7122     7739.00000
    14.7254     7726.00000
    14.7385     7908.00000
    14.7516     7753.00000
    14.7648     7598.00000
    14.7779     7818.00000
    14.7910     7622.00000
    14.8041     7637.00000
    14.8173     7680.00000
    14.8304     7805.00000
    14.8435     7753.00000
    14.8567     7668.00000
    14.8698     7608.00000
    14.8829     7761.00000
    14.8961     7637.00000
    14.9092     7607.00000
    14.9223     7515.00000
    14.9355     7685.00000
    14.9486     7700.00000
    14.9617     7652.00000
    14.9748     7615.00000
    14.9880     7744.00000
    15.0011     7621.00000
    15.0142     7803.00000
    15.0274     7737.00000
    15.0405     7821.00000
    15.0536     7646.00000
    15.0668     7685.00000
    15.0799     7762.00000
    15.0930     7761.00000
    15.1061     7622.00000
    15.1193     7512.00000
    15.1324     7569.00000
    15.1455     7671.00000
    15.1587     7678.00000
    15.1718     7654.00000
    15.1849     7754.00000
    15.1981     7628.00000
    15.2112     7595.00000
    15.2243     7800.00000
    15.2374     7689.00000
    15.2506     7645.00000
    15.2637     7586.00000
    15.2768     7706.00000
    15.2900     7547.00000
    15.3031     7721.00000
    15.3162     7512.00000
    15.3294     7629.00000
    15.3425     7402.00000
    15.3556     7822.00000
    15.3688     7622.00000
    15.3819     7616.00000
    15.3950     7475.00000
    15.4081     7449.00000
    15.4213     7620.00000
    15.4344     7531.00000
    15.4475     7741.00000
    15.4607     7673.00000
    15.4738     7828.00000
    15.4869     7683.00000
    15.5001     7571.00000
    15.5132     7735.00000
    15.5263     7576.00000
    15.5394     7779.00000
    15.5526     7746.00000
    15.5657     7779.00000
    15.5788     7687.00000
    15.5920     7611.00000
    15.6051     7716.00000
    15.6182     7447.00000
    15.6314     7595.00000
    15.6445     7642.00000
    15.6576     7740.00000
    15.6707     7767.00000
    15.6839     7587.00000
    15.6970     7516.00000
    15.7101     7607.00000
    15.7233     7575.00000
    15.7364     7640.00000
    15.7495     7702.00000
    15.7627     7495.00000
    15.7758     7317.00000
    15.7889     7457.00000
    15.8021     7818.00000
    15.8152     7642.00000
    15.8283     7701.00000
    15.8414     7612.00000
    15.8546     7609.00000
    15.8677     7811.00000
    15.8808     7695.00000
    15.8940     7596.00000
    15.9071     7655.00000
    15.9202     7745.00000
    15.9334     7495.00000
    15.9465     7614.00000
    15.9596     7566.00000
    15.9727     7610.00000
    15.9859     7653.00000
    15.9990     7842.00000
    16.0121     7561.00000
    16.0253     7655.00000
    16.0384     7547.00000
    16.0515     7656.00000
    16.0647     7684.00000
    16.0778     7570.00000
    16.0909     7620.00000
    16.1040     7525.00000
    16.1172     7603.00000
    16.1303     7570.00000
    16.1434     7657.00000
    16.1566     7815.00000
    16.1697     7713.00000
    16.1828     7537.00000
    16.1960     7562.00000
    16.2091     7628.00000
    16.2222     7400.00000
    16.2353     7438.00000
    16.2485     7638.00000
    16.2616     7542.00000
    16.2747     7579.00000
    16.2879     7559.00000
    16.3010     7607.00000
    16.3141     7477.00000
    16.3273     7654.00000
    16.3404     7542.00000
    16.3535     7403.00000
    16.3667     7424.00000
    16.3798     7678.00000
    16.3929     7719.00000
    16.4060     7658.00000
    16.4192     7570.00000
    16.4323     7764.00000
    16.4454     7665.00000
    16.4586     7515.00000
    16.4717     7574.00000
    16.4848     7427.00000
    16.4980     7630.00000
    16.5111     7540.00000
    16.5242     7539.00000
    16.5373     7431.00000
    16.5505     7409.00000
    16.5636     7420.00000
    16.5767     7455.00000
    16.5899     7350.00000
    16.6030     7450.00000
    16.6161     7655.00000
    16.6293     7600.00000
    16.6424     7599.00000
    16.6555     7578.00000
    16.6686     7514.00000
    16.6818     7521.00000
    16.6949     7569.00000
    16.7080     7445.00000
    16.7212     7613.00000
    16.7343     7739.00000
    16.7474     7738.00000
    16.7606     7723.00000
    16.7737     8047.00000
    16.7868     7847.00000
    16.8000     8083.00000
    16.8131     8041.00000
    16.8262     8010.00000
    16.8393     7942.00000
    16.8525     7640.00000
    16.8656     7606.00000
    16.8787     7602.00000
    16.8919     7754.00000
    16.9050     7528.00000
    16.9181     7461.00000
    16.9313     7614.00000
    16.9444     7545.00000
    16.9575     7337.00000
    16.9706     7454.00000
    16.9838     7378.00000
    16.9969     7370.00000
    17.0100     7377.00000
    17.0232     7440.00000
    17.0363     7494.00000
    17.0494     7428.00000
    17.0626     7388.00000
    17.0757     7504.00000
    17.0888     7589.00000
    17.1019     7268.00000
    17.1151     7546.00000
    17.1282     7433.00000
    17.1413     7535.00000
    17.1545     7507.00000
    17.1676     7453.00000
    17.1807     7440.00000
    17.1939     7354.00000
    17.2070     7287.00000
    17.2201     7299.00000
    17.2333     7436.00000
    17.2464     7281.00000
    17.2595     7428.00000
    17.2726     7300.00000
    17.2858     7201.00000
    17.2989     7263.00000
    17.3120     7505.00000
    17.3252     7509.00000
    17.3383     7358.00000
    17.3514     7562.00000
    17.3646     7335.00000
    17.3777     7384.00000
    17.3908     7332.00000
    17.4039     7366.00000
    17.4171     7297.00000
    17.4302     7379.00000
    17.4433     7396.00000
    17.4565     7382.00000
    17.4696     7256.00000
    17.4827     7421.00000
    17.4959     7408.00000
    17.5090     7244.00000
    17.5221     7579.00000
    17.5352     7528.00000
    17.5484     7322.00000
    17.5615     7408.00000
    17.5746     7392.00000
    17.5878     7468.00000
    17.6009     7411.00000
    17.6140     7247.00000
    17.6272     7140.00000
    17.6403     7284.00000
    17.6534     7399.00000
    17.6666     7291.00000
    17.6797     7194.00000
    17.6928     7417.00000
    17.7059     7342.00000
    17.7191     7151.00000
    17.7322     7197.00000
    17.7453     7149.00000
    17.7585     7183.00000
    17.7716     7509.00000
    17.7847     7347.00000
    17.7979     7388.00000
    17.8110     7332.00000
    17.8241     7410.00000
    17.8372     7486.00000
    17.8504     7550.00000
    17.8635     7640.00000
    17.8766     7531.00000
    17.8898     7618.00000
    17.9029     7499.00000
    17.9160     7500.00000
    17.9292     7503.00000
    17.9423     7194.00000
    17.9554     7245.00000
    17.9685     7084.00000
    17.9817     7169.00000
    17.9948     7233.00000
    18.0079     7320.00000
    18.0211     7200.00000
    18.0342     7130.00000
    18.0473     7292.00000
    18.0605     7150.00000
    18.0736     7253.00000
    18.0867     7334.00000
    18.0998     7178.00000
    18.1130     7145.00000
    18.1261     7232.00000
    18.1392     7159.00000
    18.1524     7250.00000
    18.1655     7394.00000
    18.1786     7231.00000
    18.1918     7247.00000
    18.2049     7315.00000
    18.2180     7215.00000
    18.2312     7092.00000
    18.2443     7179.00000
    18.2574     7315.00000
    18.2705     7079.00000
    18.2837     7269.00000
    18.2968     7193.00000
    18.3099     7190.00000
    18.3231     7164.00000
    18.3362     7115.00000
    18.3493     7253.00000
    18.3625     7119.00000
    18.3756     7263.00000
    18.3887     7254.00000
    18.4018     7077.00000
    18.4150     7218.00000
    18.4281     7372.00000
    18.4412     7212.00000
    18.4544     7424.00000
    18.4675     7304.00000
    18.4806     7221.00000
    18.4938     7276.00000
    18.5069     7055.00000
    18.5200     7308.00000
    18.5331     7348.00000
    18.5463     7165.00000
    18.5594     7021.00000
    18.5725     7099.00000
    18.5857     7248.00000
    18.5988     7283.00000
    18.6119     7026.00000
    18.6251     7295.00000
    18.6382     7239.00000
    18.6513     7253.00000
    18.6645     7059.00000
    18.6776     7172.00000
    18.6907     6980.00000
    18.7038     7085.00000
    18.7170     7124.00000
    18.7301     7280.00000
    18.7432     7182.00000
    18.7564     7010.00000
    18.7695     6992.00000
    18.7826     7260.00000
    18.7958     7129.00000
    18.8089     7178.00000
    18.8220     7209.00000
    18.8351     7322.00000
    18.8483     7256.00000
    18.8614     7168.00000
    18.8745     7088.00000
    18.8877     7072.00000
    18.9008     7293.00000
    18.9139     7294.00000
    18.9271     7218.00000
    18.9402     7208.00000
    18.9533     7282.00000
    18.9664     7216.00000
    18.9796     7272.00000
    18.9927     6993.00000
    19.0058     7217.00000
    19.0190     7263.00000
    19.0321     7125.00000
    19.0452     7183.00000
    19.0584     7245.00000
    19.0715     7271.00000
    19.0846     7400.00000
    19.0978     7291.00000
    19.1109     7558.00000
    19.1240     7540.00000
    19.1371     7665.00000
    19.1503     7508.00000
    19.1634     7766.00000
    19.1765     7647.00000
    19.1897     7679.00000
    19.2028     7768.00000
    19.2159     7540.00000
    19.2291     7785.00000
    19.2422     7693.00000
    19.2553     7671.00000
    19.2684     7437.00000
    19.2816     7513.00000
    19.2947     7742.00000
    19.3078     7658.00000
    19.3210     7642.00000
    19.3341     7516.00000
    19.3472     7496.00000
    19.3604     7479.00000
    19.3735     7624.00000
    19.3866     7701.00000
    19.3997     7809.00000
    19.4129     7466.00000
    19.4260     7540.00000
    19.4391     7491.00000
    19.4523     7636.00000
    19.4654     7548.00000
    19.4785     7686.00000
    19.4917     7675.00000
    19.5048     7766.00000
    19.5179     7893.00000
    19.5311     7967.00000
    19.5442     8233.00000
    19.5573     8248.00000
    19.5704     8262.00000
    19.5836     8292.00000
    19.5967     8509.00000
    19.6098     8612.00000
    19.6230     8829.00000
    19.6361     8812.00000
    19.6492     9348.00000
    19.6624     9723.00000
    19.6755    10286.00000
    19.6886    11658.00000
    19.7017    13632.00000
    19.7149    16568.00000
    19.7280    20831.00000
    19.7411    28969.00000
    19.7543    40825.00000
    19.7674    57180.00000
    19.7805    75719.00000
    19.7937    92736.00000
    19.8068   100462.00000
    19.8199    95555.00000
    19.8330    81864.00000
    19.8462    69377.00000
    19.8593    58443.00000
    19.8724    44082.00000
    19.8856    30831.00000
    19.8987    21028.00000
    19.9118    15641.00000
    19.9250    12279.00000
    19.9381    10738.00000
    19.9512     9960.00000
    19.9643     9570.00000
    19.9775     9423.00000
    19.9906     9020.00000
    20.0037     8846.00000
    20.0169     8625.00000
    20.0300     8404.00000
    20.0431     8289.00000
    20.0563     8015.00000
    20.0694     8077.00000
    20.0825     7930.00000
    20.0957     7892.00000
    20.1088     7812.00000
    20.1219     7746.00000
    20.1350     7954.00000
    20.1482     7887.00000
    20.1613     7893.00000
    20.1744     8030.00000
    20.1876     7633.00000
    20.2007     7703.00000
    20.2138     7687.00000
    20.2270     7354.00000
    20.2401     7611.00000
    20.2532     7685.00000
    20.2663     7538.00000
    20.2795     7462.00000
    20.2926     7412.00000
    20.3057     7424.00000
    20.3189     7445.00000
    20.3320     7512.00000
    20.3451     7640.00000
    20.3583     7447.00000
    20.3714     7611.00000
    20.3845     7482.00000
    20.3976     7549.00000
    20.4108     7486.00000
    20.4239     7403.00000
    20.4370     7187.00000
    20.4502     7303.00000
    20.4633     7479.00000
    20.4764     7375.00000
    20.4896     7546.00000
    20.5027     7432.00000
    20.5158     7587.00000
    20.5290     7547.00000
    20.5421     7470.00000
    20.5552     7664.00000
    20.5683     7469.00000
    20.5815     7451.00000
    20.5946     7304.00000
    20.6077     7412.00000
    20.6209     7298.00000
    20.6340     7404.00000
    20.6471     7375.00000
    20.6603     7382.00000
    20.6734     7355.00000
    20.6865     7390.00000
    20.6996     7447.00000
    20.7128     7301.00000
    20.7259     7581.00000
    20.7390     7558.00000
    20.7522     7533.00000
    20.7653     7457.00000
    20.7784     7405.00000
    20.7916     7564.00000
    20.8047     7523.00000
    20.8178     7181.00000
    20.8309     7222.00000
    20.8441     7494.00000
    20.8572     7379.00000
    20.8703     7423.00000
    20.8835     7433.00000
    20.8966     7493.00000
    20.9097     7402.00000
    20.9229     7274.00000
    20.9360     7498.00000
    20.9491     7284.00000
    20.9623     7503.00000
    20.9754     7274.00000
    20.9885     7443.00000
    21.0016     7331.00000
    21.0148     7377.00000
    21.0279     7447.00000
    21.0410     7465.00000
    21.0542     7382.00000
    21.0673     7393.00000
    21.0804     7285.00000
    21.0936     7192.00000
    21.1067     7358.00000
    21.1198     7508.00000
    21.1329     7462.00000
    21.1461     7374.00000
    21.1592     7397.00000
    21.1723     7485.00000
    21.1855     7377.00000
    21.1986     7519.00000
    21.2117     7243.00000
    21.2249     7444.00000
    21.2380     7487.00000
    21.2511     7255.00000
    21.2642     7338.00000
    21.2774     7400.00000
    21.2905     7326.00000
    21.3036     7307.00000
    21.3168     7371.00000
    21.3299     7402.00000
    21.3430     7477.00000
    21.3562     7374.00000
    21.3693     7440.00000
    21.3824     7433.00000
    21.3956     7390.00000
    21.4087     7282.00000
    21.4218     7368.00000
    21.4349     7455.00000
    21.4481     7402.00000
    21.4612     7438.00000
    21.4743     7248.00000
    21.4875     7319.00000
    21.5006     7384.00000
    21.5137     7312.00000
    21.5269     7504.00000
    21.5400     7350.00000
    21.5531     7532.00000
    21.5662     7509.00000
    21.5794     7452.00000
    21.5925     7391.00000
    21.6056     7410.00000
    21.6188     7454.00000
    21.6319     7363.00000
    21.6450     7265.00000
    21.6582     7382.00000
    21.6713     7465.00000
    21.6844     7244.00000
    21.6975     7324.00000
    21.7107     7458.00000
    21.7238     7507.00000
    21.7369     7539.00000
    21.7501     7387.00000
    21.7632     7334.00000
    21.7763     7529.00000
    21.7895     7451.00000
    21.8026     7541.00000
    21.8157     7519.00000
    21.8288     7557.00000
    21.8420     7780.00000
    21.8551     7520.00000
    21.8682     7444.00000
    21.8814     7507.00000
    21.8945     7489.00000
    21.9076     7276.00000
    21.9208     7420.00000
    21.9339     7379.00000
    21.9470     7410.00000
    21.9602     7116.00000
    21.9733     7398.00000
    21.9864     7468.00000
    21.9995     7264.00000
    22.0127     7393.00000
    22.0258     7304.00000
    22.0389     7379.00000
    22.0521     7379.00000
    22.0652     7360.00000
    22.0783     7513.00000
    22.0915     7382.00000
    22.1046     7391.00000
    22.1177     7187.00000
    22.1308     7322.00000
    22.1440     7403.00000
    22.1571     7336.00000
    22.1702     7408.00000
    22.1834     7386.00000
    22.1965     7434.00000
    22.2096     7462.00000
    22.2228     7482.00000
    22.2359     7506.00000
    22.2490     7537.00000
    22.2621     7332.00000
    22.2753     7375.00000
    22.2884     7444.00000
    22.3015     7739.00000
    22.3147     7465.00000
    22.3278     7427.00000
    22.3409     7600.00000
    22.3541     7679.00000
    22.3672     7626.00000
    22.3803     7748.00000
    22.3935     7707.00000
    22.4066     7796.00000
    22.4197     7725.00000
    22.4328     7883.00000
    22.4460     8191.00000
    22.4591     8256.00000
    22.4722     8834.00000
    22.4854     9683.00000
    22.4985    10863.00000
    22.5116    13048.00000
    22.5248    16640.00000
    22.5379    23065.00000
    22.5510    29396.00000
    22.5641    34428.00000
    22.5773    34149.00000
    22.5904    30927.00000
    22.6035    27276.00000
    22.6167    24971.00000
    22.6298    22131.00000
    22.6429    18060.00000
    22.6561    14421.00000
    22.6692    11670.00000
    22.6823     9557.00000
    22.6954     8606.00000
    22.7086     8196.00000
    22.7217     8017.00000
    22.7348     7931.00000
    22.7480     7808.00000
    22.7611     7846.00000
    22.7742     7910.00000
    22.7874     7872.00000
    22.8005     7659.00000
    22.8136     7447.00000
    22.8268     7679.00000
    22.8399     7575.00000
    22.8530     7418.00000
    22.8661     7267.00000
    22.8793     7438.00000
    22.8924     7372.00000
    22.9055     7249.00000
    22.9187     7507.00000
    22.9318     7333.00000
    22.9449     7293.00000
    22.9581     7731.00000
    22.9712     7483.00000
    22.9843     7498.00000
    22.9974     7424.00000
    23.0106     7263.00000
    23.0237     7329.00000
    23.0368     7467.00000
    23.0500     7314.00000
    23.0631     7330.00000
    23.0762     7438.00000
    23.0894     7350.00000
    23.1025     7308.00000
    23.1156     7379.00000
    23.1287     7231.00000
    23.1419     7286.00000
    23.1550     7546.00000
    23.1681     7547.00000
    23.1813     7452.00000
    23.1944     7424.00000
    23.2075     7486.00000
    23.2207     7412.00000
    23.2338     7524.00000
    23.2469     7497.00000
    23.2601     7454.00000
    23.2732     7407.00000
    23.2863     7344.00000
    23.2994     7477.00000
    23.3126     7593.00000
    23.3257     7547.00000
    23.3388     7562.00000
    23.3520     7436.00000
    23.3651     7491.00000
    23.3782     7556.00000
    23.3914     7621.00000
    23.4045     7480.00000
    23.4176     7612.00000
    23.4307     7624.00000
    23.4439     7546.00000
    23.4570     7445.00000
    23.4701     7365.00000
    23.4833     7396.00000
    23.4964     7445.00000
    23.5095     7606.00000
    23.5227     7530.00000
    23.5358     7693.00000
    23.5489     7793.00000
    23.5620     7577.00000
    23.5752     7715.00000
    23.5883     7801.00000
    23.6014     7790.00000
    23.6146     7924.00000
    23.6277     7716.00000
    23.6408     7874.00000
    23.6540     7912.00000
    23.6671     8051.00000
    23.6802     8020.00000
    23.6933     8132.00000
    23.7065     8156.00000
    23.7196     8706.00000
    23.7327     9267.00000
    23.7459    10565.00000
    23.7590    12854.00000
    23.7721    16479.00000
    23.7853    21493.00000
    23.7984    26310.00000
    23.8115    30150.00000
    23.8247    30470.00000
    23.8378    26409.00000
    23.8509    23060.00000
    23.8640    21792.00000
    23.8772    20496.00000
    23.8903    17833.00000
    23.9034    14124.00000
    23.9166    11501.00000
    23.9297     9998.00000
    23.9428     9571.00000
    23.9560     9327.00000
    23.9691     9262.00000
    23.9822     9742.00000
    23.9953    10365.00000
    24.0085    11562.00000
    24.0216    13509.00000
    24.0347    17873.00000
    24.0479    24188.00000
    24.0610    32416.00000
    24.0741    38814.00000
    24.0873    40491.00000
    24.1004    35973.00000
    24.1135    31380.00000
    24.1266    29024.00000
    24.1398    26724.00000
    24.1529    23292.00000
    24.1660    18704.00000
    24.1792    14660.00000
    24.1923    11612.00000
    24.2054     9729.00000
    24.2186     8733.00000
    24.2317     8389.00000
    24.2448     8272.00000
    24.2580     8192.00000
    24.2711     8006.00000
    24.2842     7995.00000
    24.2973     7962.00000
    24.3105     7864.00000
    24.3236     7816.00000
    24.3367     8036.00000
    24.3499     8054.00000
    24.3630     8084.00000
    24.3761     7854.00000
    24.3893     7932.00000
    24.4024     7789.00000
    24.4155     7845.00000
    24.4286     7850.00000
    24.4418     7628.00000
    24.4549     7622.00000
    24.4680     7387.00000
    24.4812     7455.00000
    24.4943     7398.00000
    24.5074     7553.00000
    24.5206     7466.00000
    24.5337     7310.00000
    24.5468     7470.00000
    24.5599     7492.00000
    24.5731     7460.00000
    24.5862     7273.00000
    24.5993     7457.00000
    24.6125     7467.00000
    24.6256     7563.00000
    24.6387     7457.00000
    24.6519     7321.00000
    24.6650     7413.00000
    24.6781     7419.00000
    24.6913     7384.00000
    24.7044     7438.00000
    24.7175     7407.00000
    24.7306     7283.00000
    24.7438     7196.00000
    24.7569     7385.00000
    24.7700     7439.00000
    24.7832     7283.00000
    24.7963     7268.00000
    24.8094     7413.00000
    24.8226     7410.00000
    24.8357     7272.00000
    24.8488     7360.00000
    24.8619     7425.00000
    24.8751     7479.00000
    24.8882     7207.00000
    24.9013     7223.00000
    24.9145     7369.00000
    24.9276     7271.00000
    24.9407     7447.00000
    24.9539     7365.00000
    24.9670     7309.00000
    24.9801     7328.00000
    24.9932     7212.00000
    25.0064     7346.00000
    25.0195     7289.00000
    25.0326     7414.00000
    25.0458     7240.00000
    25.0589     7258.00000
    25.0720     7296.00000
    25.0852     7298.00000
    25.0983     7243.00000
    25.1114     7297.00000
    25.1246     7465.00000
    25.1377     7407.00000
    25.1508     7409.00000
    25.1639     7141.00000
    25.1771     7632.00000
    25.1902     7671.00000
    25.2033     7511.00000
    25.2165     7557.00000
    25.2296     7601.00000
    25.2427     7294.00000
    25.2559     7182.00000
    25.2690     7430.00000
    25.2821     7434.00000
    25.2952     7464.00000
    25.3084     7318.00000
    25.3215     7348.00000
    25.3346     7208.00000
    25.3478     7313.00000
    25.3609     7275.00000
    25.3740     7375.00000
    25.3872     7130.00000
    25.4003     7279.00000
    25.4134     6981.00000
    25.4265     7190.00000
    25.4397     7287.00000
    25.4528     7412.00000
    25.4659     7231.00000
    25.4791     7034.00000
    25.4922     7182.00000
    25.5053     7285.00000
    25.5185     7271.00000
    25.5316     7274.00000
    25.5447     7316.00000
    25.5579     7243.00000
    25.5710     7213.00000
    25.5841     7285.00000
    25.5972     7139.00000
    25.6104     7131.00000
    25.6235     7288.00000
    25.6366     7324.00000
    25.6498     7297.00000
    25.6629     7180.00000
    25.6760     7089.00000
    25.6892     7242.00000
    25.7023     7449.00000
    25.7154     7505.00000
    25.7285     7097.00000
    25.7417     7114.00000
    25.7548     7515.00000
    25.7679     7422.00000
    25.7811     7413.00000
    25.7942     7470.00000
    25.8073     7420.00000
    25.8205     7256.00000
    25.8336     7220.00000
    25.8467     7443.00000
    25.8598     7377.00000
    25.8730     7247.00000
    25.8861     7067.00000
    25.8992     7341.00000
    25.9124     7314.00000
    25.9255     7336.00000
    25.9386     7302.00000
    25.9518     7361.00000
    25.9649     7414.00000
    25.9780     7491.00000
    25.9911     7461.00000
    26.0043     7335.00000
    26.0174     7413.00000
    26.0305     7421.00000
    26.0437     7439.00000
    26.0568     7483.00000
    26.0699     7309.00000
    26.0831     7280.00000
    26.0962     7374.00000
    26.1093     7297.00000
    26.1225     7391.00000
    26.1356     7402.00000
    26.1487     7317.00000
    26.1618     7290.00000
    26.1750     7334.00000
    26.1881     7313.00000
    26.2012     7371.00000
    26.2144     7276.00000
    26.2275     7209.00000
    26.2406     7293.00000
    26.2538     7139.00000
    26.2669     7087.00000
    26.2800     7239.00000
    26.2931     7083.00000
    26.3063     7281.00000
    26.3194     7261.00000
    26.3325     7184.00000
    26.3457     6943.00000
    26.3588     7199.00000
    26.3719     7115.00000
    26.3851     7024.00000
    26.3982     7338.00000
    26.4113     7270.00000
    26.4244     7256.00000
    26.4376     7233.00000
    26.4507     7120.00000
    26.4638     7063.00000
    26.4770     7049.00000
    26.4901     7147.00000
    26.5032     7131.00000
    26.5164     7025.00000
    26.5295     7295.00000
    26.5426     7249.00000
    26.5558     7191.00000
    26.5689     7172.00000
    26.5820     7206.00000
    26.5951     7123.00000
    26.6083     7182.00000
    26.6214     7216.00000
    26.6345     7183.00000
    26.6477     7027.00000
    26.6608     6928.00000
    26.6739     7083.00000
    26.6871     7121.00000
    26.7002     7223.00000
    26.7133     7304.00000
    26.7264     7143.00000
    26.7396     7136.00000
    26.7527     7102.00000
    26.7658     7194.00000
    26.7790     7188.00000
    26.7921     7154.00000
    26.8052     7178.00000
    26.8184     7194.00000
    26.8315     7227.00000
    26.8446     6995.00000
    26.8577     7109.00000
    26.8709     7064.00000
    26.8840     7055.00000
    26.8971     7065.00000
    26.9103     6955.00000
    26.9234     7145.00000
    26.9365     7007.00000
    26.9497     7344.00000
    26.9628     7428.00000
    26.9759     7531.00000
    26.9891     7517.00000
    27.0022     7589.00000
    27.0153     7467.00000
    27.0284     7279.00000
    27.0416     7313.00000
    27.0547     7525.00000
    27.0678     7340.00000
    27.0810     7377.00000
    27.0941     7375.00000
    27.1072     7392.00000
    27.1204     7383.00000
    27.1335     7650.00000
    27.1466     7409.00000
    27.1597     7555.00000
    27.1729     7321.00000
    27.1860     7296.00000
    27.1991     7442.00000
    27.2123     7475.00000
    27.2254     7307.00000
    27.2385     7500.00000
    27.2517     7217.00000
    27.2648     7432.00000
    27.2779     7385.00000
    27.2910     7312.00000
    27.3042     7487.00000
    27.3173     7302.00000
    27.3304     7383.00000
    27.3436     7321.00000
    27.3567     7479.00000
    27.3698     7445.00000
    27.3830     7207.00000
    27.3961     7286.00000
    27.4092     7405.00000
    27.4224     7320.00000
    27.4355     7345.00000
    27.4486     7294.00000
    27.4617     7368.00000
    27.4749     7363.00000
    27.4880     7349.00000
    27.5011     7455.00000
    27.5143     7432.00000
    27.5274     7685.00000
    27.5405     7681.00000
    27.5537     7312.00000
    27.5668     7363.00000
    27.5799     7371.00000
    27.5930     7640.00000
    27.6062     7530.00000
    27.6193     7750.00000
    27.6324     7742.00000
    27.6456     7932.00000
    27.6587     8232.00000
    27.6718     8267.00000
    27.6850     8477.00000
    27.6981     8555.00000
    27.7112     8432.00000
    27.7243     8787.00000
    27.7375     9147.00000
    27.7506     9409.00000
    27.7637     9560.00000
    27.7769    10093.00000
    27.7900    10371.00000
    27.8031    10905.00000
    27.8163    11777.00000
    27.8294    13053.00000
    27.8425    15176.00000
    27.8556    18679.00000
    27.8688    24958.00000
    27.8819    35225.00000
    27.8950    51566.00000
    27.9082    71435.00000
    27.9213    88715.00000
    27.9344    95209.00000
    27.9476    87789.00000
    27.9607    75686.00000
    27.9738    66186.00000
    27.9870    61291.00000
    28.0001    59015.00000
    28.0132    51775.00000
    28.0263    42019.00000
    28.0395    31467.00000
    28.0526    22741.00000
    28.0657    17038.00000
    28.0789    14117.00000
    28.0920    12380.00000
    28.1051    11282.00000
    28.1183    10744.00000
    28.1314     9992.00000
    28.1445     9611.00000
    28.1576     9327.00000
    28.1708     9201.00000
    28.1839     8653.00000
    28.1970     8313.00000
    28.2102     8285.00000
    28.2233     8152.00000
    28.2364     7918.00000
    28.2496     7898.00000
    28.2627     8024.00000
    28.2758     7897.00000
    28.2889     7741.00000
    28.3021     7739.00000
    28.3152     7606.00000
    28.3283     7583.00000
    28.3415     7635.00000
    28.3546     7685.00000
    28.3677     7514.00000
    28.3809     7710.00000
    28.3940     7660.00000
    28.4071     8057.00000
    28.4203     7998.00000
    28.4334     8030.00000
    28.4465     7822.00000
    28.4596     7784.00000
    28.4728     7768.00000
    28.4859     7916.00000
    28.4990     8198.00000
    28.5122     8458.00000
    28.5253     8276.00000
    28.5384     8503.00000
    28.5516     8364.00000
    28.5647     8102.00000
    28.5778     8095.00000
    28.5909     8216.00000
    28.6041     8234.00000
    28.6172     7949.00000
    28.6303     7836.00000
    28.6435     7802.00000
    28.6566     7702.00000
    28.6697     7769.00000
    28.6829     7782.00000
    28.6960     7630.00000
    28.7091     7692.00000
    28.7222     7632.00000
    28.7354     7828.00000
    28.7485     7902.00000
    28.7616     7796.00000
    28.7748     7893.00000
    28.7879     7892.00000
    28.8010     8012.00000
    28.8142     8054.00000
    28.8273     8231.00000
    28.8404     8395.00000
    28.8536     8735.00000
    28.8667     8997.00000
    28.8798     9937.00000
    28.8929    11485.00000
    28.9061    14220.00000
    28.9192    19013.00000
    28.9323    26788.00000
    28.9455    35090.00000
    28.9586    39197.00000
    28.9717    37203.00000
    28.9849    30855.00000
    28.9980    26093.00000
    29.0111    25222.00000
    29.0242    25149.00000
    29.0374    24230.00000
    29.0505    21245.00000
    29.0636    16855.00000
    29.0768    13227.00000
    29.0899    11289.00000
    29.1030     9821.00000
    29.1162     9284.00000
    29.1293     9300.00000
    29.1424     9676.00000
    29.1555    10763.00000
    29.1687    12219.00000
    29.1818    13852.00000
    29.1949    15048.00000
    29.2081    15292.00000
    29.2212    14866.00000
    29.2343    14225.00000
    29.2475    13933.00000
    29.2606    14159.00000
    29.2737    14445.00000
    29.2869    14334.00000
    29.3000    13369.00000
    29.3131    12592.00000
    29.3262    11786.00000
    29.3394    11080.00000
    29.3525    10768.00000
    29.3656    10386.00000
    29.3788     9518.00000
    29.3919     9034.00000
    29.4050     8719.00000
    29.4182     8445.00000
    29.4313     8266.00000
    29.4444     8027.00000
    29.4575     7623.00000
    29.4707     7806.00000
    29.4838     7573.00000
    29.4969     7257.00000
    29.5101     7255.00000
    29.5232     7305.00000
    29.5363     7330.00000
    29.5495     7128.00000
    29.5626     7284.00000
    29.5757     7212.00000
    29.5888     7152.00000
    29.6020     7236.00000
    29.6151     7183.00000
    29.6282     7119.00000
    29.6414     7152.00000
    29.6545     7037.00000
    29.6676     6987.00000
    29.6808     7273.00000
    29.6939     7071.00000
    29.7070     7117.00000
    29.7201     7346.00000
    29.7333     7301.00000
    29.7464     7233.00000
    29.7595     7141.00000
    29.7727     7335.00000
    29.7858     7339.00000
    29.7989     7413.00000
    29.8121     7189.00000
    29.8252     7123.00000
    29.8383     7177.00000
    29.8515     7111.00000
    29.8646     7112.00000
    29.8777     7210.00000
    29.8908     7265.00000
    29.9040     7065.00000
    29.9171     7125.00000
    29.9302     7050.00000
    29.9434     7032.00000
    29.9565     7105.00000
    29.9696     7079.00000
    29.9828     7150.00000
    29.9959     7012.00000
    30.0090     6955.00000
    30.0221     7137.00000
    30.0353     7104.00000
    30.0484     6857.00000
    30.0615     7074.00000
    30.0747     7206.00000
    30.0878     6918.00000
    30.1009     7149.00000
    30.1141     7302.00000
    30.1272     7219.00000
    30.1403     7044.00000
    30.1535     7069.00000
    30.1666     7111.00000
    30.1797     7017.00000
    30.1928     6977.00000
    30.2060     6935.00000
    30.2191     6892.00000
    30.2322     7021.00000
    30.2454     6880.00000
    30.2585     7112.00000
    30.2716     7072.00000
    30.2848     7036.00000
    30.2979     7072.00000
    30.3110     7240.00000
    30.3241     6847.00000
    30.3373     6949.00000
    30.3504     7158.00000
    30.3635     7004.00000
    30.3767     7025.00000
    30.3898     6834.00000
    30.4029     6782.00000
    30.4161     6828.00000
    30.4292     6966.00000
    30.4423     6986.00000
    30.4554     6994.00000
    30.4686     6987.00000
    30.4817     6892.00000
    30.4948     6941.00000
    30.5080     7078.00000
    30.5211     6795.00000
    30.5342     7004.00000
    30.5474     7036.00000
    30.5605     6984.00000
    30.5736     6864.00000
    30.5868     6789.00000
    30.5999     6840.00000
    30.6130     6865.00000
    30.6261     6998.00000
    30.6393     7081.00000
    30.6524     6864.00000
    30.6655     7003.00000
    30.6787     7036.00000
    30.6918     7048.00000
    30.7049     6879.00000
    30.7181     6927.00000
    30.7312     6877.00000
    30.7443     6993.00000
    30.7574     7059.00000
    30.7706     6905.00000
    30.7837     6800.00000
    30.7968     6929.00000
    30.8100     6853.00000
    30.8231     6849.00000
    30.8362     6864.00000
    30.8494     6778.00000
    30.8625     6915.00000
    30.8756     7015.00000
    30.8887     6779.00000
    30.9019     6794.00000
    30.9150     6958.00000
    30.9281     7151.00000
    30.9413     6914.00000
    30.9544     6693.00000
    30.9675     6830.00000
    30.9807     6911.00000
    30.9938     6937.00000
    31.0069     6944.00000
    31.0200     6841.00000
    31.0332     6892.00000
    31.0463     6886.00000
    31.0594     6910.00000
    31.0726     6947.00000
    31.0857     6885.00000
    31.0988     6949.00000
    31.1120     6759.00000
    31.1251     6833.00000
    31.1382     7039.00000
    31.1514     6757.00000
    31.1645     6915.00000
    31.1776     6815.00000
    31.1907     6823.00000
    31.2039     6924.00000
    31.2170     6927.00000
    31.2301     6676.00000
    31.2433     6850.00000
    31.2564     6830.00000
    31.2695     6948.00000
    31.2827     6989.00000
    31.2958     7022.00000
    31.3089     6933.00000
    31.3220     6988.00000
    31.3352     7011.00000
    31.3483     6917.00000
    31.3614     7070.00000
    31.3746     6901.00000
    31.3877     6955.00000
    31.4008     6855.00000
    31.4140     6951.00000
    31.4271     6863.00000
    31.4402     6897.00000
    31.4533     6696.00000
    31.4665     6882.00000
    31.4796     6765.00000
    31.4927     6895.00000
    31.5059     6844.00000
    31.5190     6838.00000
    31.5321     6832.00000
    31.5453     6652.00000
    31.5584     6778.00000
    31.5715     6846.00000
    31.5847     7010.00000
    31.5978     6788.00000
    31.6109     6820.00000
    31.6240     6922.00000
    31.6372     6779.00000
    31.6503     6769.00000
    31.6634     6862.00000
    31.6766     7018.00000
    31.6897     6898.00000
    31.7028     6871.00000
    31.7160     6919.00000
    31.7291     6774.00000
    31.7422     6845.00000
    31.7553     6860.00000
    31.7685     6849.00000
    31.7816     6817.00000
    31.7947     6905.00000
    31.8079     6797.00000
    31.8210     6858.00000
    31.8341     7011.00000
    31.8473     6968.00000
    31.8604     6912.00000
    31.8735     7031.00000
    31.8866     6899.00000
    31.8998     6950.00000
    31.9129     6766.00000
    31.9260     6956.00000
    31.9392     6849.00000
    31.9523     6858.00000
    31.9654     6870.00000
    31.9786     6656.00000
    31.9917     6756.00000
    32.0048     6854.00000
    32.0180     6870.00000
    32.0311     7107.00000
    32.0442     6621.00000
    32.0573     6969.00000
    32.0705     6798.00000
    32.0836     6782.00000
    32.0967     6730.00000
    32.1099     6723.00000
    32.1230     6836.00000
    32.1361     6951.00000
    32.1493     7091.00000
    32.1624     6836.00000
    32.1755     6995.00000
    32.1886     6935.00000
    32.2018     6803.00000
    32.2149     6654.00000
    32.2280     6800.00000
    32.2412     6828.00000
    32.2543     6964.00000
    32.2674     7069.00000
    32.2806     6859.00000
    32.2937     6920.00000
    32.3068     6961.00000
    32.3199     6923.00000
    32.3331     6945.00000
    32.3462     6810.00000
    32.3593     6929.00000
    32.3725     6782.00000
    32.3856     6916.00000
    32.3987     6983.00000
    32.4119     6864.00000
    32.4250     6972.00000
    32.4381     7168.00000
    32.4512     7194.00000
    32.4644     6922.00000
    32.4775     6717.00000
    32.4906     6865.00000
    32.5038     6880.00000
    32.5169     6820.00000
    32.5300     6767.00000
    32.5432     6945.00000
    32.5563     7004.00000
    32.5694     6873.00000
    32.5826     6968.00000
    32.5957     7132.00000
    32.6088     6881.00000
    32.6219     6730.00000
    32.6351     7011.00000
    32.6482     7020.00000
    32.6613     7026.00000
    32.6745     6962.00000
    32.6876     7073.00000
    32.7007     7096.00000
    32.7139     7123.00000
    32.7270     7512.00000
    32.7401     7536.00000
    32.7532     7614.00000
    32.7664     7868.00000
    32.7795     8641.00000
    32.7926     9990.00000
    32.8058    12252.00000
    32.8189    14401.00000
    32.8320    16213.00000
    32.8452    15615.00000
    32.8583    13639.00000
    32.8714    12411.00000
    32.8845    11711.00000
    32.8977    11828.00000
    32.9108    12205.00000
    32.9239    12446.00000
    32.9371    12283.00000
    32.9502    12070.00000
    32.9633    13521.00000
    32.9765    16324.00000
    32.9896    19408.00000
    33.0027    20854.00000
    33.0159    19560.00000
    33.0290    16662.00000
    33.0421    14180.00000
    33.0552    13344.00000
    33.0684    13615.00000
    33.0815    14369.00000
    33.0946    13947.00000
    33.1078    12203.00000
    33.1209    10571.00000
    33.1340     9156.00000
    33.1472     8511.00000
    33.1603     7652.00000
    33.1734     7422.00000
    33.1865     7347.00000
    33.1997     7124.00000
    33.2128     7010.00000
    33.2259     7104.00000
    33.2391     7196.00000
    33.2522     7179.00000
    33.2653     7174.00000
    33.2785     6949.00000
    33.2916     6945.00000
    33.3047     7022.00000
    33.3178     7071.00000
    33.3310     6868.00000
    33.3441     7006.00000
    33.3572     6926.00000
    33.3704     6961.00000
    33.3835     7008.00000
    33.3966     7110.00000
    33.4098     7161.00000
    33.4229     7141.00000
    33.4360     7055.00000
    33.4492     7174.00000
    33.4623     7244.00000
    33.4754     7433.00000
    33.4885     7326.00000
    33.5017     7530.00000
    33.5148     7605.00000
    33.5279     8019.00000
    33.5411     8667.00000
    33.5542     9997.00000
    33.5673    11655.00000
    33.5805    13488.00000
    33.5936    15111.00000
    33.6067    15324.00000
    33.6198    14735.00000
    33.6330    13156.00000
    33.6461    12010.00000
    33.6592    11490.00000
    33.6724    11438.00000
    33.6855    11508.00000
    33.6986    11267.00000
    33.7118    10220.00000
    33.7249     9363.00000
    33.7380     8344.00000
    33.7511     7797.00000
    33.7643     7429.00000
    33.7774     7564.00000
    33.7905     7186.00000
    33.8037     7224.00000
    33.8168     7190.00000
    33.8299     7054.00000
    33.8431     7008.00000
    33.8562     6969.00000
    33.8693     6878.00000
    33.8825     7119.00000
    33.8956     7291.00000
    33.9087     7456.00000
    33.9218     7658.00000
    33.9350     7656.00000
    33.9481     7976.00000
    33.9612     7760.00000
    33.9744     7845.00000
    33.9875     7697.00000
    34.0006     7564.00000
    34.0138     7717.00000
    34.0269     7856.00000
    34.0400     7725.00000
    34.0531     7860.00000
    34.0663     8257.00000
    34.0794     9299.00000
    34.0925    11004.00000
    34.1057    13185.00000
    34.1188    14830.00000
    34.1319    14676.00000
    34.1451    13243.00000
    34.1582    11184.00000
    34.1713    10411.00000
    34.1844    10049.00000
    34.1976    10838.00000
    34.2107    10812.00000
    34.2238    10219.00000
    34.2370     9600.00000
    34.2501     8495.00000
    34.2632     7626.00000
    34.2764     7328.00000
    34.2895     7089.00000
    34.3026     7067.00000
    34.3158     6952.00000
    34.3289     6821.00000
    34.3420     6958.00000
    34.3551     6912.00000
    34.3683     7004.00000
    34.3814     6805.00000
    34.3945     6887.00000
    34.4077     6816.00000
    34.4208     6813.00000
    34.4339     6888.00000
    34.4471     6678.00000
    34.4602     6765.00000
    34.4733     6796.00000
    34.4864     6886.00000
    34.4996     6884.00000
    34.5127     6953.00000
    34.5258     6737.00000
    34.5390     6864.00000
    34.5521     6859.00000
    34.5652     6809.00000
    34.5784     6812.00000
    34.5915     6672.00000
    34.6046     6748.00000
    34.6177     6807.00000
    34.6309     6808.00000
    34.6440     6688.00000
    34.6571     6889.00000
    34.6703     6839.00000
    34.6834     6880.00000
    34.6965     7016.00000
    34.7097     7110.00000
    34.7228     7340.00000
    34.7359     7407.00000
    34.7491     8027.00000
    34.7622     9314.00000
    34.7753    10783.00000
    34.7884    12094.00000
    34.8016    12361.00000
    34.8147    11927.00000
    34.8278    10965.00000
    34.8410    10064.00000
    34.8541     9524.00000
    34.8672     9608.00000
    34.8804     9842.00000
    34.8935     9857.00000
    34.9066     9164.00000
    34.9197     8599.00000
    34.9329     7941.00000
    34.9460     7618.00000
    34.9591     7392.00000
    34.9723     7414.00000
    34.9854     7379.00000
    34.9985     7170.00000
    35.0117     7544.00000
    35.0248     7590.00000
    35.0379     7266.00000
    35.0510     7246.00000
    35.0642     7020.00000
    35.0773     7085.00000
    35.0904     7063.00000
    35.1036     6893.00000
    35.1167     6889.00000
    35.1298     6918.00000
    35.1430     6878.00000
    35.1561     6790.00000
    35.1692     6600.00000
    35.1824     6653.00000
    35.1955     6710.00000
    35.2086     6647.00000
    35.2217     6553.00000
    35.2349     6729.00000
    35.2480     6456.00000
    35.2611     6714.00000
    35.2743     6644.00000
    35.2874     6604.00000
    35.3005     6536.00000
    35.3137     6542.00000
    35.3268     6510.00000
    35.3399     6633.00000
    35.3530     6663.00000
    35.3662     6527.00000
    35.3793     6550.00000
    35.3924     6699.00000
    35.4056     6579.00000
    35.4187     6640.00000
    35.4318     6651.00000
    35.4450     6570.00000
    35.4581     6568.00000
    35.4712     6593.00000
    35.4843     6719.00000
    35.4975     6639.00000
    35.5106     6539.00000
    35.5237     6658.00000
    35.5369     6634.00000
    35.5500     6456.00000
    35.5631     6691.00000
    35.5763     6598.00000
    35.5894     6488.00000
    35.6025     6537.00000
    35.6156     6549.00000
    35.6288     6488.00000
    35.6419     6574.00000
    35.6550     6539.00000
    35.6682     6563.00000
    35.6813     6578.00000
    35.6944     6567.00000
    35.7076     6593.00000
    35.7207     6722.00000
    35.7338     6484.00000
    35.7470     6515.00000
    35.7601     6639.00000
    35.7732     6478.00000
    35.7863     6400.00000
    35.7995     6706.00000
    35.8126     6652.00000
    35.8257     6669.00000
    35.8389     6622.00000
    35.8520     6613.00000
    35.8651     6557.00000
    35.8783     6631.00000
    35.8914     6562.00000
    35.9045     6523.00000
    35.9176     6468.00000
    35.9308     6617.00000
    35.9439     6555.00000
    35.9570     6549.00000
    35.9702     6535.00000
    35.9833     6543.00000
    35.9964     6486.00000
    36.0096     6480.00000
    36.0227     6507.00000
    36.0358     6489.00000
    36.0489     6703.00000
    36.0621     6594.00000
    36.0752     6582.00000
    36.0883     6583.00000
    36.1015     6513.00000
    36.1146     6762.00000
    36.1277     6620.00000
    36.1409     6574.00000
    36.1540     6669.00000
    36.1671     6665.00000
    36.1802     6646.00000
    36.1934     6633.00000
    36.2065     6548.00000
    36.2196     6719.00000
    36.2328     6633.00000
    36.2459     6549.00000
    36.2590     6654.00000
    36.2722     6554.00000
    36.2853     6704.00000
    36.2984     6883.00000
    36.3116     6682.00000
    36.3247     6731.00000
    36.3378     6748.00000
    36.3509     6676.00000
    36.3641     6672.00000
    36.3772     6745.00000
    36.3903     6680.00000
    36.4035     6834.00000
    36.4166     6943.00000
    36.4297     7137.00000
    36.4429     7597.00000
    36.4560     8178.00000
    36.4691     9046.00000
    36.4822     9962.00000
    36.4954     9949.00000
    36.5085     9553.00000
    36.5216     8616.00000
    36.5348     8082.00000
    36.5479     7805.00000
    36.5610     8027.00000
    36.5742     8532.00000
    36.5873     8552.00000
    36.6004     8273.00000
    36.6135     7691.00000
    36.6267     7318.00000
    36.6398     7038.00000
    36.6529     6875.00000
    36.6661     6585.00000
    36.6792     6738.00000
    36.6923     6640.00000
    36.7055     6776.00000
    36.7186     6689.00000
    36.7317     6625.00000
    36.7449     6537.00000
    36.7580     6580.00000
    36.7711     6636.00000
    36.7842     6426.00000
    36.7974     6657.00000
    36.8105     6699.00000
    36.8236     6564.00000
    36.8368     6496.00000
    36.8499     6676.00000
    36.8630     6605.00000
    36.8762     6569.00000
    36.8893     6714.00000
    36.9024     6535.00000
    36.9155     6558.00000
    36.9287     6577.00000
    36.9418     6746.00000
    36.9549     6571.00000
    36.9681     6481.00000
    36.9812     6543.00000
    36.9943     6804.00000
    37.0075     6513.00000
    37.0206     6334.00000
    37.0337     6537.00000
    37.0468     6498.00000
    37.0600     6558.00000
    37.0731     6504.00000
    37.0862     6566.00000
    37.0994     6524.00000
    37.1125     6565.00000
    37.1256     6462.00000
    37.1388     6483.00000
    37.1519     6608.00000
    37.1650     6357.00000
    37.1782     6623.00000
    37.1913     6610.00000
    37.2044     6644.00000
    37.2175     6637.00000
    37.2307     6536.00000
    37.2438     6550.00000
    37.2569     6543.00000
    37.2701     6713.00000
    37.2832     6610.00000
    37.2963     6570.00000
    37.3095     6544.00000
    37.3226     6693.00000
    37.3357     6762.00000
    37.3488     6895.00000
    37.3620     7251.00000
    37.3751     7180.00000
    37.3882     7490.00000
    37.4014     7602.00000
    37.4145     7395.00000
    37.4276     7155.00000
    37.4408     7095.00000
    37.4539     6897.00000
    37.4670     7270.00000
    37.4801     7324.00000
    37.4933     7291.00000
    37.5064     7730.00000
    37.5195     7867.00000
    37.5327     8111.00000
    37.5458     9133.00000
    37.5589    10237.00000
    37.5721    11424.00000
    37.5852    11883.00000
    37.5983    11510.00000
    37.6115    10509.00000
    37.6246     9493.00000
    37.6377     9009.00000
    37.6508     9518.00000
    37.6640    10238.00000
    37.6771    11008.00000
    37.6902    11162.00000
    37.7034    10777.00000
    37.7165    10208.00000
    37.7296     8900.00000
    37.7428     8242.00000
    37.7559     8009.00000
    37.7690     7802.00000
    37.7821     7773.00000
    37.7953     7819.00000
    37.8084     7855.00000
    37.8215     7577.00000
    37.8347     7305.00000
    37.8478     6873.00000
    37.8609     6753.00000
    37.8741     6621.00000
    37.8872     6571.00000
    37.9003     6660.00000
    37.9134     6753.00000
    37.9266     6566.00000
    37.9397     6721.00000
    37.9528     6488.00000
    37.9660     6594.00000
    37.9791     6557.00000
    37.9922     6598.00000
    38.0054     6575.00000
    38.0185     6514.00000
    38.0316     6654.00000
    38.0448     6401.00000
    38.0579     6681.00000
    38.0710     6557.00000
    38.0841     6639.00000
    38.0973     6704.00000
    38.1104     6562.00000
    38.1235     6623.00000
    38.1367     6374.00000
    38.1498     6587.00000
    38.1629     6631.00000
    38.1761     6542.00000
    38.1892     6531.00000
    38.2023     6626.00000
    38.2154     6542.00000
    38.2286     6453.00000
    38.2417     6356.00000
    38.2548     6390.00000
    38.2680     6456.00000
    38.2811     6357.00000
    38.2942     6400.00000
    38.3074     6391.00000
    38.3205     6490.00000
    38.3336     6392.00000
    38.3467     6565.00000
    38.3599     6614.00000
    38.3730     6441.00000
    38.3861     6349.00000
    38.3993     6370.00000
    38.4124     6453.00000
    38.4255     6401.00000
    38.4387     6405.00000
    38.4518     6382.00000
    38.4649     6420.00000
    38.4781     6687.00000
    38.4912     6475.00000
    38.5043     6347.00000
    38.5174     6518.00000
    38.5306     6488.00000
    38.5437     6474.00000
    38.5568     6294.00000
    38.5700     6608.00000
    38.5831     6459.00000
    38.5962     6372.00000
    38.6094     6431.00000
    38.6225     6448.00000
    38.6356     6487.00000
    38.6487     6524.00000
    38.6619     6306.00000
    38.6750     6388.00000
    38.6881     6463.00000
    38.7013     6477.00000
    38.7144     6381.00000
    38.7275     6433.00000
    38.7407     6501.00000
    38.7538     6608.00000
    38.7669     6556.00000
    38.7800     6568.00000
    38.7932     6497.00000
    38.8063     6496.00000
    38.8194     6400.00000
    38.8326     6436.00000
    38.8457     6423.00000
    38.8588     6541.00000
    38.8720     6566.00000
    38.8851     6453.00000
    38.8982     6418.00000
    38.9114     6535.00000
    38.9245     6587.00000
    38.9376     6716.00000
    38.9507     6427.00000
    38.9639     6566.00000
    38.9770     6474.00000
    38.9901     6405.00000
    39.0033     6649.00000
    39.0164     6613.00000
    39.0295     6697.00000
    39.0427     6641.00000
    39.0558     6576.00000
    39.0689     6625.00000
    39.0820     6820.00000
    39.0952     6943.00000
    39.1083     7274.00000
    39.1214     7850.00000
    39.1346     8496.00000
    39.1477     9121.00000
    39.1608     9291.00000
    39.1740     8899.00000
    39.1871     8412.00000
    39.2002     7913.00000
    39.2133     7579.00000
    39.2265     7469.00000
    39.2396     7692.00000
    39.2527     7779.00000
    39.2659     7795.00000
    39.2790     7704.00000
    39.2921     7221.00000
    39.3053     6942.00000
    39.3184     6729.00000
    39.3315     6848.00000
    39.3446     6674.00000
    39.3578     6489.00000
    39.3709     6539.00000
    39.3840     6388.00000
    39.3972     6554.00000
    39.4103     6488.00000
    39.4234     6456.00000
    39.4366     6523.00000
    39.4497     6600.00000
    39.4628     6350.00000
    39.4760     6173.00000
    39.4891     6479.00000
    39.5022     6692.00000
    39.5153     6614.00000
    39.5285     6436.00000
    39.5416     6403.00000
    39.5547     6568.00000
    39.5679     6447.00000
    39.5810     6387.00000
    39.5941     6480.00000
    39.6073     6507.00000
    39.6204     6560.00000
    39.6335     6467.00000
    39.6466     6326.00000
    39.6598     6403.00000
    39.6729     6491.00000
    39.6860     6352.00000
    39.6992     6537.00000
    39.7123     6499.00000
    39.7254     6485.00000
    39.7386     6527.00000
    39.7517     6352.00000
    39.7648     6668.00000
    39.7779     6498.00000
    39.7911     6878.00000
    39.8042     6563.00000
    39.8173     6653.00000
    39.8305     6478.00000
    39.8436     6441.00000
    39.8567     6539.00000
    39.8699     6638.00000
    39.8830     6451.00000
    39.8961     6578.00000
    39.9092     6514.00000
    39.9224     6546.00000
    39.9355     6523.00000
    39.9486     6397.00000
    39.9618     6511.00000
    39.9749     6499.00000
    39.9880     6579.00000
    40.0012     6613.00000
    40.0143     6668.00000
    40.0274     6569.00000
    40.0406     6440.00000
    40.0537     6615.00000
    40.0668     6570.00000
    40.0799     6586.00000
    40.0931     6837.00000
    40.1062     6856.00000
    40.1193     7009.00000
    40.1325     7302.00000
    40.1456     7748.00000
    40.1587     8414.00000
    40.1719     9154.00000
    40.1850    10044.00000
    40.1981    10406.00000
    40.2112    10270.00000
    40.2244     9631.00000
    40.2375     9060.00000
    40.2506     8499.00000
    40.2638     8097.00000
    40.2769     8196.00000
    40.2900     8546.00000
    40.3032     8634.00000
    40.3163     8494.00000
    40.3294     8026.00000
    40.3425     7638.00000
    40.3557     7197.00000
    40.3688     6994.00000
    40.3819     6742.00000
    40.3951     6718.00000
    40.4082     6650.00000
    40.4213     6750.00000
    40.4345     6657.00000
    40.4476     6492.00000
    40.4607     6527.00000
    40.4739     6425.00000
    40.4870     6344.00000
    40.5001     6458.00000
    40.5132     6440.00000
    40.5264     6392.00000
    40.5395     6471.00000
    40.5526     6452.00000
    40.5658     6668.00000
    40.5789     6553.00000
    40.5920     6524.00000
    40.6052     6701.00000
    40.6183     6289.00000
    40.6314     6385.00000
    40.6445     6706.00000
    40.6577     6540.00000
    40.6708     6534.00000
    40.6839     6477.00000
    40.6971     6620.00000
    40.7102     6577.00000
    40.7233     6503.00000
    40.7365     6345.00000
    40.7496     6487.00000
    40.7627     6683.00000
    40.7758     6649.00000
    40.7890     6460.00000
    40.8021     6574.00000
    40.8152     6631.00000
    40.8284     6641.00000
    40.8415     6791.00000
    40.8546     6735.00000
    40.8678     6796.00000
    40.8809     6869.00000
    40.8940     7006.00000
    40.9072     7210.00000
    40.9203     7812.00000
    40.9334     8062.00000
    40.9465     8839.00000
    40.9597     9484.00000
    40.9728    10008.00000
    40.9859    10696.00000
    40.9991    11398.00000
    41.0122    12206.00000
    41.0253    12133.00000
    41.0385    11653.00000
    41.0516    10924.00000
    41.0647    10413.00000
    41.0778    10313.00000
    41.0910    10671.00000
    41.1041    11407.00000
    41.1172    12253.00000
    41.1304    11978.00000
    41.1435    10920.00000
    41.1566     9762.00000
    41.1698     8879.00000
    41.1829     8286.00000
    41.1960     7891.00000
    41.2091     7924.00000
    41.2223     8134.00000
    41.2354     8149.00000
    41.2485     7828.00000
    41.2617     7649.00000
    41.2748     7077.00000
    41.2879     6870.00000
    41.3011     6752.00000
    41.3142     6798.00000
    41.3273     6506.00000
    41.3405     6727.00000
    41.3536     6729.00000
    41.3667     6467.00000
    41.3798     6658.00000
    41.3930     6634.00000
    41.4061     6538.00000
    41.4192     6601.00000
    41.4324     6297.00000
    41.4455     6530.00000
    41.4586     6572.00000
    41.4718     6470.00000
    41.4849     6421.00000
    41.4980     6466.00000
    41.5111     6417.00000
    41.5243     6256.00000
    41.5374     6390.00000
    41.5505     6384.00000
    41.5637     6483.00000
    41.5768     6510.00000
    41.5899     6355.00000
    41.6031     6458.00000
    41.6162     6429.00000
    41.6293     6374.00000
    41.6424     6613.00000
    41.6556     6251.00000
    41.6687     6300.00000
    41.6818     6357.00000
    41.6950     6444.00000
    41.7081     6514.00000
    41.7212     6466.00000
    41.7344     6402.00000
    41.7475     6429.00000
    41.7606     6379.00000
    41.7738     6333.00000
    41.7869     6484.00000
    41.8000     6360.00000
    41.8131     6428.00000
    41.8263     6449.00000
    41.8394     6285.00000
    41.8525     6367.00000
    41.8657     6320.00000
    41.8788     6396.00000
    41.8919     6534.00000
    41.9051     6398.00000
    41.9182     6639.00000
    41.9313     6460.00000
    41.9444     6382.00000
    41.9576     6397.00000
    41.9707     6514.00000
    41.9838     6463.00000
    41.9970     6404.00000
    42.0101     6339.00000
    42.0232     6465.00000
    42.0364     6645.00000
    42.0495     6485.00000
    42.0626     6511.00000
    42.0757     6441.00000
    42.0889     6336.00000
    42.1020     6357.00000
    42.1151     6385.00000
    42.1283     6349.00000
    42.1414     6603.00000
    42.1545     6442.00000
    42.1677     6452.00000
    42.1808     6547.00000
    42.1939     6588.00000
    42.2071     6402.00000
    42.2202     6337.00000
    42.2333     6459.00000
    42.2464     6406.00000
    42.2596     6464.00000
    42.2727     6470.00000
    42.2858     6307.00000
    42.2990     6368.00000
    42.3121     6415.00000
    42.3252     6233.00000
    42.3384     6329.00000
    42.3515     6463.00000
    42.3646     6440.00000
    42.3777     6562.00000
    42.3909     6373.00000
    42.4040     6634.00000
    42.4171     6412.00000
    42.4303     6285.00000
    42.4434     6457.00000
    42.4565     6427.00000
    42.4697     6230.00000
    42.4828     6368.00000
    42.4959     6360.00000
    42.5090     6357.00000
    42.5222     6363.00000
    42.5353     6482.00000
    42.5484     6427.00000
    42.5616     6378.00000
    42.5747     6438.00000
    42.5878     6338.00000
    42.6010     6467.00000
    42.6141     6399.00000
    42.6272     6170.00000
    42.6404     6151.00000
    42.6535     6399.00000
    42.6666     6490.00000
    42.6797     6458.00000
    42.6929     6512.00000
    42.7060     6390.00000
    42.7191     6203.00000
    42.7323     6336.00000
    42.7454     6446.00000
    42.7585     6301.00000
    42.7717     6391.00000
    42.7848     6394.00000
    42.7979     6305.00000
    42.8110     6275.00000
    42.8242     6195.00000
    42.8373     6296.00000
    42.8504     6326.00000
    42.8636     6530.00000
    42.8767     6521.00000
    42.8898     6493.00000
    42.9030     6330.00000
    42.9161     6412.00000
    42.9292     6236.00000
    42.9423     6439.00000
    42.9555     6395.00000
    42.9686     6368.00000
    42.9817     6538.00000
    42.9949     6383.00000
    43.0080     6199.00000
    43.0211     6412.00000
    43.0343     6488.00000
    43.0474     6448.00000
    43.0605     6304.00000
    43.0736     6424.00000
    43.0868     6388.00000
    43.0999     6355.00000
    43.1130     6229.00000
    43.1262     6313.00000
    43.1393     6366.00000
    43.1524     6272.00000
    43.1656     6370.00000
    43.1787     6494.00000
    43.1918     6391.00000
    43.2050     6362.00000
    43.2181     6464.00000
    43.2312     6422.00000
    43.2443     6533.00000
    43.2575     6294.00000
    43.2706     6621.00000
    43.2837     6424.00000
    43.2969     6388.00000
    43.3100     6305.00000
    43.3231     6327.00000
    43.3363     6318.00000
    43.3494     6323.00000
    43.3625     6270.00000
    43.3756     6528.00000
    43.3888     6541.00000
    43.4019     6488.00000
    43.4150     6498.00000
    43.4282     6414.00000
    43.4413     6732.00000
    43.4544     6956.00000
    43.4676     6931.00000
    43.4807     7305.00000
    43.4938     7623.00000
    43.5069     7844.00000
    43.5201     7725.00000
    43.5332     7393.00000
    43.5463     7083.00000
    43.5595     6984.00000
    43.5726     6748.00000
    43.5857     6988.00000
    43.5989     7045.00000
    43.6120     7373.00000
    43.6251     7470.00000
    43.6383     7125.00000
    43.6514     6931.00000
    43.6645     6778.00000
    43.6776     6811.00000
    43.6908     6584.00000
    43.7039     6639.00000
    43.7170     6602.00000
    43.7302     6476.00000
    43.7433     6482.00000
    43.7564     6488.00000
    43.7696     6647.00000
    43.7827     6466.00000
    43.7958     6389.00000
    43.8089     6464.00000
    43.8221     6508.00000
    43.8352     6472.00000
    43.8483     6419.00000
    43.8615     6307.00000
    43.8746     6447.00000
    43.8877     6285.00000
    43.9009     6373.00000
    43.9140     6248.00000
    43.9271     6412.00000
    43.9402     6589.00000
    43.9534     6441.00000
    43.9665     6521.00000
    43.9796     6438.00000
    43.9928     6539.00000
    44.0059     6689.00000
    44.0190     6843.00000
    44.0322     6699.00000
    44.0453     6806.00000
    44.0584     6672.00000
    44.0715     6654.00000
    44.0847     6639.00000
    44.0978     6633.00000
    44.1109     6613.00000
    44.1241     6506.00000
    44.1372     6718.00000
    44.1503     6753.00000
    44.1635     6533.00000
    44.1766     6617.00000
    44.1897     6466.00000
    44.2029     6443.00000
    44.2160     6528.00000
    44.2291     6536.00000
    44.2422     6481.00000
    44.2554     6603.00000
    44.2685     6556.00000
    44.2816     6595.00000
    44.2948     6568.00000
    44.3079     6704.00000
    44.3210     6602.00000
    44.3342     6795.00000
    44.3473     6626.00000
    44.3604     6722.00000
    44.3735     6800.00000
    44.3867     6858.00000
    44.3998     6928.00000
    44.4129     7119.00000
    44.4261     7641.00000
    44.4392     7831.00000
    44.4523     8584.00000
    44.4655     9684.00000
    44.4786    11165.00000
    44.4917    12663.00000
    44.5048    13519.00000
    44.5180    13143.00000
    44.5311    12348.00000
    44.5442    10702.00000
    44.5574     9688.00000
    44.5705     9183.00000
    44.5836     9336.00000
    44.5968     9546.00000
    44.6099    10206.00000
    44.6230    10443.00000
    44.6362    10190.00000
    44.6493     9305.00000
    44.6624     8708.00000
    44.6755     8086.00000
    44.6887     7519.00000
    44.7018     7277.00000
    44.7149     6904.00000
    44.7281     6917.00000
    44.7412     6830.00000
    44.7543     6644.00000
    44.7675     6645.00000
    44.7806     6656.00000
    44.7937     6690.00000
    44.8068     6600.00000
    44.8200     6572.00000
    44.8331     6534.00000
    44.8462     6567.00000
    44.8594     6535.00000
    44.8725     6603.00000
    44.8856     6373.00000
    44.8988     6519.00000
    44.9119     6473.00000
    44.9250     6609.00000
    44.9381     6395.00000
    44.9513     6427.00000
    44.9644     6293.00000
    44.9775     6356.00000
    44.9907     6328.00000
    45.0038     6425.00000
    45.0169     6388.00000
    45.0301     6575.00000
    45.0432     6420.00000
    45.0563     6274.00000
    45.0695     6312.00000
    45.0826     6360.00000
    45.0957     6429.00000
    45.1088     6422.00000
    45.1220     6379.00000
    45.1351     6268.00000
    45.1482     6273.00000
    45.1614     6228.00000
    45.1745     6319.00000
    45.1876     6470.00000
    45.2008     6344.00000
    45.2139     6481.00000
    45.2270     6545.00000
    45.2401     6233.00000
    45.2533     6449.00000
    45.2664     6407.00000
    45.2795     6409.00000
    45.2927     6318.00000
    45.3058     6324.00000
    45.3189     6371.00000
    45.3321     6490.00000
    45.3452     6432.00000
    45.3583     6457.00000
    45.3714     6583.00000
    45.3846     6410.00000
    45.3977     6419.00000
    45.4108     6435.00000
    45.4240     6584.00000
    45.4371     6512.00000
    45.4502     6436.00000
    45.4634     6414.00000
    45.4765     6333.00000
    45.4896     6285.00000
    45.5028     6404.00000
    45.5159     6327.00000
    45.5290     6355.00000
    45.5421     6451.00000
    45.5553     6546.00000
    45.5684     6467.00000
    45.5815     6315.00000
    45.5947     6482.00000
    45.6078     6447.00000
    45.6209     6374.00000
    45.6341     6499.00000
    45.6472     6434.00000
    45.6603     6414.00000
    45.6734     6388.00000
    45.6866     6409.00000
    45.6997     6569.00000
    45.7128     6593.00000
    45.7260     6444.00000
    45.7391     6336.00000
    45.7522     6625.00000
    45.7654     6440.00000
    45.7785     6439.00000
    45.7916     6640.00000
    45.8047     6560.00000
    45.8179     6740.00000
    45.8310     6884.00000
    45.8441     6836.00000
    45.8573     6793.00000
    45.8704     6852.00000
    45.8835     6862.00000
    45.8967     6836.00000
    45.9098     6937.00000
    45.9229     7023.00000
    45.9361     7252.00000
    45.9492     7323.00000
    45.9623     7666.00000
    45.9754     8064.00000
    45.9886     9121.00000
    46.0017    10746.00000
    46.0148    13294.00000
    46.0280    17413.00000
    46.0411    21192.00000
    46.0542    22554.00000
    46.0674    20454.00000
    46.0805    17243.00000
    46.0936    13566.00000
    46.1067    11272.00000
    46.1199    10551.00000
    46.1330    10873.00000
    46.1461    12149.00000
    46.1593    13865.00000
    46.1724    14750.00000
    46.1855    14036.00000
    46.1987    12251.00000
    46.2118    10361.00000
    46.2249     9047.00000
    46.2380     8170.00000
    46.2512     7809.00000
    46.2643     7935.00000
    46.2774     7720.00000
    46.2906     7523.00000
    46.3037     7268.00000
    46.3168     7281.00000
    46.3300     7023.00000
    46.3431     6754.00000
    46.3562     6928.00000
    46.3694     6970.00000
    46.3825     7041.00000
    46.3956     6941.00000
    46.4087     6737.00000
    46.4219     6909.00000
    46.4350     6847.00000
    46.4481     6656.00000
    46.4613     6660.00000
    46.4744     6659.00000
    46.4875     6626.00000
    46.5007     6583.00000
    46.5138     6532.00000
    46.5269     6612.00000
    46.5400     6544.00000
    46.5532     6413.00000
    46.5663     6582.00000
    46.5794     6641.00000
    46.5926     6493.00000
    46.6057     6475.00000
    46.6188     6453.00000
    46.6320     6415.00000
    46.6451     6432.00000
    46.6582     6236.00000
    46.6713     6431.00000
    46.6845     6538.00000
    46.6976     6481.00000
    46.7107     6566.00000
    46.7239     6523.00000
    46.7370     6529.00000
    46.7501     6372.00000
    46.7633     6477.00000
    46.7764     6328.00000
    46.7895     6418.00000
    46.8027     6509.00000
    46.8158     6483.00000
    46.8289     6477.00000
    46.8420     6419.00000
    46.8552     6418.00000
    46.8683     6482.00000
    46.8814     6574.00000
    46.8946     6439.00000
    46.9077     6426.00000
    46.9208     6492.00000
    46.9340     6572.00000
    46.9471     6542.00000
    46.9602     6409.00000
    46.9733     6521.00000
    46.9865     6296.00000
    46.9996     6583.00000
    47.0127     6463.00000
    47.0259     6683.00000
    47.0390     6611.00000
    47.0521     6433.00000
    47.0653     6461.00000
    47.0784     6572.00000
    47.0915     6384.00000
    47.1046     6457.00000
    47.1178     6394.00000
    47.1309     6562.00000
    47.1440     6478.00000
    47.1572     6455.00000
    47.1703     6674.00000
    47.1834     6510.00000
    47.1966     6505.00000
    47.2097     6845.00000
    47.2228     6818.00000
    47.2359     6854.00000
    47.2491     6865.00000
    47.2622     7097.00000
    47.2753     7581.00000
    47.2885     8043.00000
    47.3016     8584.00000
    47.3147     9212.00000
    47.3279     9191.00000
    47.3410     9005.00000
    47.3541     8548.00000
    47.3673     8095.00000
    47.3804     7793.00000
    47.3935     7511.00000
    47.4066     7539.00000
    47.4198     8016.00000
    47.4329     8068.00000
    47.4460     8562.00000
    47.4592     8591.00000
    47.4723     8817.00000
    47.4854     9282.00000
    47.4986    10013.00000
    47.5117    11334.00000
    47.5248    12878.00000
    47.5379    13628.00000
    47.5511    12806.00000
    47.5642    11169.00000
    47.5773     9420.00000
    47.5905     8745.00000
    47.6036     8325.00000
    47.6167     8389.00000
    47.6299     8952.00000
    47.6430     9394.00000
    47.6561    10288.00000
    47.6692     9938.00000
    47.6824     9514.00000
    47.6955     8437.00000
    47.7086     7838.00000
    47.7218     7676.00000
    47.7349     7345.00000
    47.7480     7111.00000
    47.7612     7155.00000
    47.7743     7199.00000
    47.7874     6989.00000
    47.8005     7077.00000
    47.8137     7010.00000
    47.8268     6995.00000
    47.8399     7005.00000
    47.8531     6994.00000
    47.8662     7170.00000
    47.8793     7046.00000
    47.8925     7335.00000
    47.9056     7139.00000
    47.9187     7285.00000
    47.9319     7355.00000
    47.9450     7486.00000
    47.9581     7592.00000
    47.9712     8051.00000
    47.9844     8534.00000
    47.9975     9276.00000
    48.0106    10557.00000
    48.0238    12158.00000
    48.0369    14369.00000
    48.0500    17329.00000
    48.0632    20101.00000
    48.0763    21237.00000
    48.0894    20103.00000
    48.1025    17486.00000
    48.1157    14660.00000
    48.1288    12694.00000
    48.1419    11644.00000
    48.1551    11769.00000
    48.1682    12183.00000
    48.1813    13440.00000
    48.1945    14082.00000
    48.2076    14187.00000
    48.2207    13366.00000
    48.2338    11644.00000
    48.2470    10223.00000
    48.2601     9234.00000
    48.2732     8351.00000
    48.2864     7799.00000
    48.2995     7493.00000
    48.3126     7338.00000
    48.3258     7101.00000
    48.3389     7064.00000
    48.3520     6851.00000
    48.3652     7002.00000
    48.3783     6803.00000
    48.3914     6609.00000
    48.4045     6696.00000
    48.4177     6811.00000
    48.4308     6655.00000
    48.4439     6821.00000
    48.4571     6705.00000
    48.4702     6575.00000
    48.4833     6435.00000
    48.4965     6670.00000
    48.5096     6680.00000
    48.5227     6584.00000
    48.5358     6532.00000
    48.5490     6699.00000
    48.5621     6691.00000
    48.5752     6697.00000
    48.5884     6461.00000
    48.6015     6525.00000
    48.6146     6585.00000
    48.6278     6738.00000
    48.6409     6866.00000
    48.6540     7004.00000
    48.6671     7095.00000
    48.6803     7542.00000
    48.6934     7730.00000
    48.7065     7905.00000
    48.7197     8059.00000
    48.7328     8125.00000
    48.7459     7774.00000
    48.7591     7731.00000
    48.7722     7888.00000
    48.7853     7643.00000
    48.7985     7577.00000
    48.8116     7811.00000
    48.8247     8134.00000
    48.8378     7807.00000
    48.8510     7784.00000
    48.8641     7631.00000
    48.8772     7657.00000
    48.8904     7591.00000
    48.9035     7356.00000
    48.9166     7297.00000
    48.9298     7379.00000
    48.9429     7205.00000
    48.9560     7192.00000
    48.9691     7202.00000
    48.9823     7469.00000
    48.9954     7269.00000
    49.0085     7374.00000
    49.0217     7349.00000
    49.0348     7599.00000
    49.0479     7722.00000
    49.0611     7952.00000
    49.0742     8222.00000
    49.0873     9029.00000
    49.1004    10284.00000
    49.1136    12279.00000
    49.1267    14292.00000
    49.1398    16200.00000
    49.1530    16732.00000
    49.1661    15541.00000
    49.1792    13419.00000
    49.1924    11539.00000
    49.2055    10509.00000
    49.2186     9845.00000
    49.2318    10190.00000
    49.2449    11172.00000
    49.2580    12467.00000
    49.2711    13890.00000
    49.2843    14562.00000
    49.2974    14347.00000
    49.3105    12815.00000
    49.3237    11206.00000
    49.3368     9843.00000
    49.3499     8867.00000
    49.3631     8844.00000
    49.3762     8609.00000
    49.3893     8647.00000
    49.4024     8495.00000
    49.4156     8773.00000
    49.4287     8535.00000
    49.4418     8355.00000
    49.4550     7906.00000
    49.4681     7611.00000
    49.4812     7516.00000
    49.4944     7454.00000
    49.5075     7017.00000
    49.5206     6895.00000
    49.5337     6790.00000
    49.5469     6919.00000
    49.5600     6787.00000
    49.5731     6848.00000
    49.5863     6850.00000
    49.5994     6776.00000
    49.6125     6932.00000
    49.6257     7004.00000
    49.6388     6987.00000
    49.6519     7052.00000
    49.6651     7011.00000
    49.6782     6798.00000
    49.6913     7063.00000
    49.7044     6917.00000
    49.7176     6921.00000
    49.7307     6953.00000
    49.7438     7190.00000
    49.7570     7287.00000
    49.7701     7330.00000
    49.7832     7807.00000
    49.7964     7907.00000
    49.8095     8690.00000
    49.8226     9727.00000
    49.8357    11630.00000
    49.8489    13890.00000
    49.8620    16630.00000
    49.8751    19101.00000
    49.8883    19890.00000
    49.9014    19091.00000
    49.9145    17073.00000
    49.9277    14196.00000
    49.9408    12067.00000
    49.9539    10847.00000
    49.9670    10778.00000
    49.9802    11259.00000
    49.9933    12239.00000
    50.0064    13271.00000
    50.0196    13471.00000
    50.0327    13255.00000
    50.0458    12083.00000
    50.0590    10399.00000
    50.0721     9325.00000
    50.0852     8464.00000
    50.0984     7844.00000
    50.1115     7431.00000
    50.1246     7443.00000
    50.1377     7124.00000
    50.1509     7030.00000
    50.1640     7153.00000
    50.1771     6996.00000
    50.1903     6898.00000
    50.2034     6864.00000
    50.2165     6868.00000
    50.2297     6808.00000
    50.2428     6822.00000
    50.2559     6712.00000
    50.2690     6807.00000
    50.2822     6804.00000
    50.2953     7001.00000
    50.3084     6861.00000
    50.3216     7160.00000
    50.3347     7276.00000
    50.3478     7410.00000
    50.3610     7649.00000
    50.3741     7633.00000
    50.3872     7502.00000
    50.4003     7160.00000
    50.4135     7352.00000
    50.4266     7193.00000
    50.4397     7206.00000
    50.4529     7255.00000
    50.4660     7304.00000
    50.4791     7519.00000
    50.4923     7684.00000
    50.5054     7752.00000
    50.5185     8355.00000
    50.5317     8648.00000
    50.5448     9331.00000
    50.5579    10297.00000
    50.5710    10670.00000
    50.5842    11204.00000
    50.5973    10993.00000
    50.6104    10624.00000
    50.6236     9757.00000
    50.6367     8936.00000
    50.6498     8651.00000
    50.6630     8302.00000
    50.6761     8366.00000
    50.6892     8599.00000
    50.7023     8810.00000
    50.7155     8824.00000
    50.7286     8714.00000
    50.7417     8594.00000
    50.7549     8241.00000
    50.7680     7741.00000
    50.7811     7540.00000
    50.7943     7041.00000
    50.8074     7062.00000
    50.8205     6868.00000
    50.8336     6722.00000
    50.8468     6504.00000
    50.8599     6476.00000
    50.8730     6602.00000
    50.8862     6615.00000
    50.8993     6483.00000
    50.9124     6486.00000
    50.9256     6677.00000
    50.9387     6633.00000
    50.9518     6564.00000
    50.9649     6510.00000
    50.9781     6467.00000
    50.9912     6313.00000
    51.0043     6426.00000
    51.0175     6373.00000
    51.0306     6615.00000
    51.0437     6426.00000
    51.0569     6536.00000
    51.0700     6544.00000
    51.0831     6540.00000
    51.0963     6588.00000
    51.1094     6488.00000
    51.1225     6601.00000
    51.1356     6466.00000
    51.1488     6542.00000
    51.1619     6468.00000
    51.1750     6716.00000
    51.1882     6462.00000
    51.2013     6664.00000
    51.2144     6563.00000
    51.2276     6667.00000
    51.2407     6642.00000
    51.2538     6591.00000
    51.2669     6505.00000
    51.2801     6611.00000
    51.2932     6520.00000
    51.3063     6585.00000
    51.3195     6763.00000
    51.3326     6577.00000
    51.3457     6494.00000
    51.3589     6541.00000
    51.3720     6733.00000
    51.3851     6483.00000
    51.3982     6664.00000
    51.4114     6742.00000
    51.4245     6856.00000
    51.4376     6712.00000
    51.4508     6749.00000
    51.4639     6616.00000
    51.4770     6714.00000
    51.4902     7060.00000
    51.5033     7178.00000
    51.5164     7399.00000
    51.5296     7567.00000
    51.5427     8139.00000
    51.5558     8668.00000
    51.5689     8985.00000
    51.5821     8923.00000
    51.5952     8822.00000
    51.6083     8685.00000
    51.6215     8561.00000
    51.6346     9020.00000
    51.6477    10134.00000
    51.6609    11699.00000
    51.6740    13872.00000
    51.6871    15439.00000
    51.7002    15915.00000
    51.7134    14526.00000
    51.7265    12931.00000
    51.7396    10975.00000
    51.7528     9497.00000
    51.7659     9067.00000
    51.7790     8979.00000
    51.7922     9114.00000
    51.8053     9761.00000
    51.8184    10749.00000
    51.8315    10880.00000
    51.8447    10562.00000
    51.8578     9667.00000
    51.8709     8830.00000
    51.8841     8173.00000
    51.8972     7688.00000
    51.9103     6973.00000
    51.9235     7082.00000
    51.9366     6823.00000
    51.9497     6661.00000
    51.9628     6793.00000
    51.9760     6594.00000
    51.9891     6594.00000
    52.0022     6647.00000
    52.0154     6549.00000
    52.0285     6478.00000
    52.0416     6489.00000
    52.0548     6426.00000
    52.0679     6371.00000
    52.0810     6548.00000
    52.0942     6395.00000
    52.1073     6581.00000
    52.1204     6541.00000
    52.1335     6605.00000
    52.1467     6437.00000
    52.1598     6473.00000
    52.1729     6504.00000
    52.1861     6365.00000
    52.1992     6460.00000
    52.2123     6387.00000
    52.2255     6456.00000
    52.2386     6458.00000
    52.2517     6748.00000
    52.2648     6634.00000
    52.2780     6268.00000
    52.2911     6417.00000
    52.3042     6532.00000
    52.3174     6476.00000
    52.3305     6244.00000
    52.3436     6413.00000
    52.3568     6379.00000
    52.3699     6400.00000
    52.3830     6441.00000
    52.3961     6531.00000
    52.4093     6417.00000
    52.4224     6419.00000
    52.4355     6363.00000
    52.4487     6271.00000
    52.4618     6514.00000
    52.4749     6338.00000
    52.4881     6506.00000
    52.5012     6548.00000
    52.5143     6540.00000
    52.5275     6279.00000
    52.5406     6451.00000
    52.5537     6460.00000
    52.5668     6586.00000
    52.5800     6537.00000
    52.5931     6380.00000
    52.6062     6500.00000
    52.6194     6790.00000
    52.6325     6867.00000
    52.6456     7350.00000
    52.6588     7743.00000
    52.6719     8233.00000
    52.6850     8302.00000
    52.6981     8014.00000
    52.7113     7752.00000
    52.7244     7298.00000
    52.7375     6857.00000
    52.7507     6721.00000
    52.7638     6693.00000
    52.7769     6979.00000
    52.7901     7108.00000
    52.8032     7048.00000
    52.8163     7355.00000
    52.8294     7563.00000
    52.8426     7327.00000
    52.8557     6863.00000
    52.8688     6710.00000
    52.8820     6460.00000
    52.8951     6496.00000
    52.9082     6520.00000
    52.9214     6498.00000
    52.9345     6341.00000
    52.9476     6433.00000
    52.9608     6401.00000
    52.9739     6370.00000
    52.9870     6521.00000
    53.0001     6327.00000
    53.0133     6482.00000
    53.0264     6248.00000
    53.0395     6231.00000
    53.0527     6312.00000
    53.0658     6348.00000
    53.0789     6374.00000
    53.0921     6250.00000
    53.1052     6210.00000
    53.1183     6298.00000
    53.1314     6326.00000
    53.1446     6404.00000
    53.1577     6453.00000
    53.1708     6529.00000
    53.1840     6529.00000
    53.1971     6502.00000
    53.2102     6472.00000
    53.2234     6473.00000
    53.2365     6608.00000
    53.2496     6441.00000
    53.2627     6458.00000
    53.2759     6383.00000
    53.2890     6444.00000
    53.3021     6527.00000
    53.3153     6438.00000
    53.3284     6395.00000
    53.3415     6396.00000
    53.3547     6544.00000
    53.3678     6463.00000
    53.3809     6434.00000
    53.3941     6434.00000
    53.4072     6473.00000
    53.4203     6555.00000
    53.4334     6459.00000
    53.4466     6355.00000
    53.4597     6288.00000
    53.4728     6370.00000
    53.4860     6374.00000
    53.4991     6248.00000
    53.5122     6266.00000
    53.5254     6349.00000
    53.5385     6195.00000
    53.5516     6258.00000
    53.5647     6326.00000
    53.5779     6268.00000
    53.5910     6422.00000
    53.6041     6362.00000
    53.6173     6283.00000
    53.6304     6489.00000
    53.6435     6298.00000
    53.6567     6425.00000
    53.6698     6538.00000
    53.6829     6340.00000
    53.6960     6490.00000
    53.7092     6453.00000
    53.7223     6507.00000
    53.7354     6614.00000
    53.7486     6411.00000
    53.7617     6337.00000
    53.7748     6319.00000
    53.7880     6501.00000
    53.8011     6571.00000
    53.8142     6278.00000
    53.8274     6414.00000
    53.8405     6647.00000
    53.8536     6462.00000
    53.8667     6452.00000
    53.8799     6567.00000
    53.8930     6267.00000
    53.9061     6299.00000
    53.9193     6366.00000
    53.9324     6407.00000
    53.9455     6313.00000
    53.9587     6293.00000
    53.9718     6344.00000
    53.9849     6351.00000
    53.9980     6285.00000
    54.0112     6477.00000
    54.0243     6549.00000
    54.0374     6217.00000
    54.0506     6307.00000
    54.0637     6432.00000
    54.0768     6273.00000
    54.0900     6380.00000
    54.1031     6405.00000
    54.1162     6271.00000
    54.1293     6294.00000
    54.1425     6319.00000
    54.1556     6348.00000
    54.1687     6460.00000
    54.1819     6300.00000
    54.1950     6392.00000
    54.2081     6262.00000
    54.2213     6241.00000
    54.2344     6325.00000
    54.2475     6345.00000
    54.2607     6169.00000
    54.2738     6282.00000
    54.2869     6440.00000
    54.3000     6324.00000
    54.3132     6355.00000
    54.3263     6418.00000
    54.3394     6359.00000
    54.3526     6330.00000
    54.3657     6273.00000
    54.3788     6319.00000
    54.3920     6251.00000
    54.4051     6401.00000
    54.4182     6263.00000
    54.4313     6275.00000
    54.4445     6285.00000
    54.4576     6399.00000
    54.4707     6287.00000
    54.4839     6360.00000
    54.4970     6378.00000
    54.5101     6381.00000
    54.5233     6145.00000
    54.5364     6260.00000
    54.5495     6268.00000
    54.5626     6379.00000
    54.5758     6404.00000
    54.5889     6570.00000
    54.6020     6214.00000
    54.6152     6321.00000
    54.6283     6247.00000
    54.6414     6288.00000
    54.6546     6433.00000
    54.6677     6236.00000
    54.6808     6192.00000
    54.6940     6379.00000
    54.7071     6429.00000
    54.7202     6332.00000
    54.7333     6272.00000
    54.7465     6153.00000
    54.7596     6304.00000
    54.7727     6352.00000
    54.7859     6258.00000
    54.7990     6291.00000
    54.8121     6362.00000
    54.8253     6172.00000
    54.8384     6273.00000
    54.8515     6259.00000
    54.8646     6438.00000
    54.8778     6361.00000
    54.8909     6288.00000
    54.9040     6351.00000
    54.9172     6239.00000
    54.9303     6425.00000
    54.9434     6468.00000
    54.9566     6357.00000
    54.9697     6516.00000
    54.9828     6370.00000
    54.9959     6291.00000
    55.0091     6356.00000
    55.0222     6296.00000
    55.0353     6534.00000
    55.0485     6376.00000
    55.0616     6344.00000
    55.0747     6359.00000
    55.0879     6390.00000
    55.1010     6396.00000
    55.1141     6285.00000
    55.1272     6164.00000
    55.1404     6483.00000
    55.1535     6326.00000
    55.1666     6499.00000
    55.1798     6352.00000
    55.1929     6254.00000
    55.2060     6219.00000
    55.2192     6413.00000
    55.2323     6570.00000
    55.2454     6524.00000
    55.2586     6300.00000
    55.2717     6416.00000
    55.2848     6521.00000
    55.2979     6519.00000
    55.3111     6414.00000
    55.3242     6504.00000
    55.3373     6580.00000
    55.3505     6628.00000
    55.3636     6642.00000
    55.3767     6549.00000
    55.3899     6671.00000
    55.4030     6589.00000
    55.4161     6919.00000
    55.4292     7052.00000
    55.4424     7098.00000
    55.4555     7577.00000
    55.4686     8142.00000
    55.4818     8839.00000
    55.4949     9424.00000
    55.5080     9454.00000
    55.5212     9363.00000
    55.5343     8712.00000
    55.5474     8428.00000
    55.5605     8595.00000
    55.5737     8727.00000
    55.5868     8877.00000
    55.5999     9575.00000
    55.6131    10722.00000
    55.6262    12362.00000
    55.6393    14001.00000
    55.6525    15182.00000
    55.6656    14454.00000
    55.6787    13224.00000
    55.6918    11485.00000
    55.7050    10266.00000
    55.7181     9246.00000
    55.7312     8697.00000
    55.7444     8644.00000
    55.7575     8829.00000
    55.7706     9044.00000
    55.7838     9653.00000
    55.7969    10262.00000
    55.8100    10303.00000
    55.8232     9753.00000
    55.8363     9079.00000
    55.8494     8268.00000
    55.8625     7902.00000
    55.8757     7587.00000
    55.8888     7299.00000
    55.9019     7267.00000
    55.9151     7215.00000
    55.9282     7276.00000
    55.9413     7346.00000
    55.9545     7181.00000
    55.9676     7158.00000
    55.9807     6957.00000
    55.9938     6618.00000
    56.0070     6630.00000
    56.0201     6736.00000
    56.0332     6829.00000
    56.0464     6644.00000
    56.0595     6789.00000
    56.0726     6798.00000
    56.0858     6911.00000
    56.0989     6909.00000
    56.1120     6799.00000
    56.1251     6585.00000
    56.1383     6993.00000
    56.1514     6810.00000
    56.1645     6874.00000
    56.1777     7146.00000
    56.1908     7442.00000
    56.2039     8127.00000
    56.2171     8811.00000
    56.2302     9532.00000
    56.2433     9697.00000
    56.2565     9443.00000
    56.2696     8844.00000
    56.2827     8103.00000
    56.2958     7594.00000
    56.3090     7357.00000
    56.3221     7430.00000
    56.3352     7239.00000
    56.3484     7434.00000
    56.3615     7867.00000
    56.3746     8316.00000
    56.3878     8656.00000
    56.4009     8612.00000
    56.4140     8118.00000
    56.4271     7878.00000
    56.4403     7546.00000
    56.4534     7384.00000
    56.4665     7313.00000
    56.4797     7710.00000
    56.4928     8292.00000
    56.5059     8745.00000
    56.5191     9441.00000
    56.5322    10474.00000
    56.5453    11012.00000
    56.5584    11077.00000
    56.5716    10916.00000
    56.5847     9946.00000
    56.5978     9113.00000
    56.6110     8341.00000
    56.6241     7898.00000
    56.6372     7657.00000
    56.6504     7728.00000
    56.6635     7840.00000
    56.6766     8082.00000
    56.6898     8465.00000
    56.7029     8829.00000
    56.7160     8718.00000
    56.7291     8746.00000
    56.7423     8224.00000
    56.7554     7880.00000
    56.7685     7687.00000
    56.7817     7489.00000
    56.7948     7380.00000
    56.8079     7364.00000
    56.8211     7232.00000
    56.8342     7247.00000
    56.8473     6889.00000
    56.8604     6721.00000
    56.8736     6802.00000
    56.8867     6748.00000
    56.8998     6606.00000
    56.9130     6615.00000
    56.9261     6695.00000
    56.9392     6821.00000
    56.9524     6840.00000
    56.9655     6803.00000
    56.9786     6733.00000
    56.9917     6664.00000
    57.0049     6583.00000
    57.0180     6532.00000
    57.0311     6643.00000
    57.0443     6427.00000
    57.0574     6417.00000
    57.0705     6520.00000
    57.0837     6495.00000
    57.0968     6439.00000
    57.1099     6250.00000
    57.1231     6301.00000
    57.1362     6268.00000
    57.1493     6477.00000
    57.1624     6410.00000
    57.1756     6414.00000
    57.1887     6386.00000
    57.2018     6340.00000
    57.2150     6427.00000
    57.2281     6380.00000
    57.2412     6367.00000
    57.2544     6594.00000
    57.2675     6554.00000
    57.2806     6439.00000
    57.2937     6465.00000
    57.3069     6491.00000
    57.3200     6542.00000
    57.3331     6595.00000
    57.3463     6547.00000
    57.3594     6574.00000
    57.3725     6412.00000
    57.3857     6517.00000
    57.3988     6262.00000
    57.4119     6493.00000
    57.4250     6530.00000
    57.4382     6511.00000
    57.4513     6301.00000
    57.4644     6442.00000
    57.4776     6349.00000
    57.4907     6358.00000
    57.5038     6441.00000
    57.5170     6537.00000
    57.5301     6345.00000
    57.5432     6431.00000
    57.5564     6714.00000
    57.5695     6572.00000
    57.5826     6662.00000
    57.5957     6908.00000
    57.6089     7069.00000
    57.6220     7093.00000
    57.6351     7443.00000
    57.6483     7822.00000
    57.6614     8055.00000
    57.6745     8807.00000
    57.6877     9499.00000
    57.7008     9718.00000
    57.7139     9661.00000
    57.7270     9176.00000
    57.7402     8805.00000
    57.7533     8084.00000
    57.7664     7918.00000
    57.7796     7751.00000
    57.7927     8052.00000
    57.8058     8255.00000
    57.8190     8796.00000
    57.8321     9091.00000
    57.8452     9860.00000
    57.8583    10517.00000
    57.8715    10927.00000
    57.8846    10965.00000
    57.8977    10648.00000
    57.9109    10406.00000
    57.9240     9474.00000
    57.9371     8949.00000
    57.9503     8372.00000
    57.9634     8031.00000
    57.9765     7924.00000
    57.9897     7618.00000
    58.0028     7835.00000
    58.0159     8018.00000
    58.0290     8165.00000
    58.0422     8480.00000
    58.0553     8259.00000
    58.0684     8079.00000
    58.0816     7830.00000
    58.0947     7554.00000
    58.1078     7213.00000
    58.1210     7301.00000
    58.1341     7120.00000
    58.1472     6729.00000
    58.1603     6821.00000
    58.1735     6601.00000
    58.1866     6527.00000
    58.1997     6640.00000
    58.2129     6623.00000
    58.2260     6416.00000
    58.2391     6655.00000
    58.2523     6463.00000
    58.2654     6495.00000
    58.2785     6445.00000
    58.2916     6501.00000
    58.3048     6431.00000
    58.3179     6525.00000
    58.3310     6323.00000
    58.3442     6354.00000
    58.3573     6434.00000
    58.3704     6507.00000
    58.3836     6681.00000
    58.3967     6705.00000
    58.4098     6849.00000
    58.4230     6932.00000
    58.4361     7021.00000
    58.4492     7198.00000
    58.4623     7514.00000
    58.4755     7646.00000
    58.4886     7641.00000
    58.5017     7526.00000
    58.5149     7766.00000
    58.5280     7762.00000
    58.5411     7859.00000
    58.5543     7546.00000
    58.5674     7297.00000
    58.5805     7467.00000
    58.5936     7281.00000
    58.6068     7337.00000
    58.6199     7527.00000
    58.6330     7590.00000
    58.6462     7739.00000
    58.6593     8094.00000
    58.6724     8591.00000
    58.6856     9311.00000
    58.6987     9786.00000
    58.7118    10416.00000
    58.7249    10294.00000
    58.7381    10464.00000
    58.7512    10443.00000
    58.7643    10825.00000
    58.7775    11061.00000
    58.7906    10813.00000
    58.8037    10633.00000
    58.8169     9925.00000
    58.8300     9598.00000
    58.8431     9356.00000
    58.8562     9127.00000
    58.8694     9075.00000
    58.8825     9230.00000
    58.8956     9020.00000
    58.9088     9350.00000
    58.9219     9585.00000
    58.9350     9955.00000
    58.9482    10557.00000
    58.9613    10410.00000
    58.9744    10183.00000
    58.9876     9974.00000
    59.0007     9641.00000
    59.0138     9217.00000
    59.0269     8895.00000
    59.0401     8948.00000
    59.0532     9302.00000
    59.0663     9584.00000
    59.0795    10344.00000
    59.0926    11088.00000
    59.1057    11059.00000
    59.1189    10455.00000
    59.1320     9854.00000
    59.1451     9155.00000
    59.1582     8609.00000
    59.1714     7995.00000
    59.1845     7969.00000
    59.1976     7949.00000
    59.2108     7885.00000
    59.2239     7846.00000
    59.2370     8233.00000
    59.2502     8453.00000
    59.2633     8481.00000
    59.2764     7909.00000
    59.2895     7649.00000
    59.3027     7270.00000
    59.3158     7226.00000
    59.3289     6821.00000
    59.3421     6587.00000
    59.3552     6496.00000
    59.3683     6673.00000
    59.3815     6603.00000
    59.3946     6467.00000
    59.4077     6618.00000
    59.4208     6368.00000
    59.4340     6380.00000
    59.4471     6412.00000
    59.4602     6282.00000
    59.4734     6311.00000
    59.4865     6314.00000
    59.4996     6273.00000
    59.5128     6485.00000
    59.5259     6242.00000
    59.5390     6337.00000
    59.5522     6309.00000
    59.5653     6267.00000
    59.5784     6345.00000
    59.5915     6342.00000
    59.6047     6362.00000
    59.6178     6222.00000
    59.6309     6392.00000
    59.6441     6324.00000
    59.6572     6443.00000
    59.6703     6414.00000
    59.6835     6349.00000
    59.6966     6476.00000
    59.7097     6354.00000
    59.7228     6560.00000
    59.7360     6736.00000
    59.7491     6552.00000
    59.7622     6550.00000
    59.7754     6606.00000
    59.7885     6508.00000
    59.8016     6527.00000
    59.8148     6596.00000
    59.8279     6512.00000
    59.8410     6582.00000
    59.8541     6692.00000
    59.8673     6804.00000
    59.8804     6901.00000
    59.8935     6925.00000
    59.9067     7264.00000
    59.9198     8055.00000
    59.9329     8700.00000
    59.9461     9697.00000
    59.9592    10939.00000
    59.9723    12203.00000
    59.9855    12744.00000
    59.9986    12558.00000
    60.0117    11216.00000
    60.0248     9976.00000
    60.0380     9012.00000
    60.0511     8217.00000
    60.0642     7753.00000
    60.0774     7777.00000
    60.0905     7711.00000
    60.1036     7915.00000
    60.1168     8517.00000
    60.1299     9116.00000
    60.1430     9492.00000
    60.1561     9609.00000
    60.1693     9137.00000
    60.1824     8830.00000
    60.1955     7852.00000
    60.2087     7558.00000
    60.2218     7283.00000
    60.2349     6903.00000
    60.2481     6983.00000
    60.2612     6858.00000
    60.2743     6542.00000
    60.2874     6494.00000
    60.3006     6413.00000
    60.3137     6447.00000
    60.3268     6468.00000
    60.3400     6386.00000
    60.3531     6522.00000
    60.3662     6588.00000
    60.3794     6633.00000
    60.3925     6722.00000
    60.4056     6788.00000
    60.4188     7000.00000
    60.4319     7109.00000
    60.4450     7299.00000
    60.4581     7969.00000
    60.4713     8465.00000
    60.4844     8965.00000
    60.4975     8998.00000
    60.5107     8871.00000
    60.5238     8359.00000
    60.5369     7951.00000
    60.5501     7591.00000
    60.5632     7273.00000
    60.5763     7177.00000
    60.5894     7077.00000
    60.6026     6979.00000
    60.6157     7258.00000
    60.6288     7487.00000
    60.6420     7765.00000
    60.6551     7918.00000
    60.6682     7890.00000
    60.6814     7755.00000
    60.6945     7403.00000
    60.7076     7285.00000
    60.7207     6874.00000
    60.7339     7015.00000
    60.7470     6813.00000
    60.7601     6721.00000
    60.7733     6509.00000
    60.7864     6610.00000
    60.7995     6693.00000
    60.8127     6625.00000
    60.8258     6695.00000
    60.8389     6652.00000
    60.8521     6680.00000
    60.8652     6620.00000
    60.8783     6754.00000
    60.8914     6598.00000
    60.9046     6548.00000
    60.9177     6699.00000
    60.9308     6612.00000
    60.9440     6728.00000
    60.9571     6748.00000
    60.9702     6734.00000
    60.9834     6652.00000
    60.9965     7107.00000
    61.0096     6995.00000
    61.0227     7299.00000
    61.0359     7436.00000
    61.0490     7810.00000
    61.0621     8330.00000
    61.0753     9304.00000
    61.0884    10151.00000
    61.1015    11153.00000
    61.1147    11515.00000
    61.1278    11970.00000
    61.1409    12485.00000
    61.1540    12915.00000
    61.1672    13521.00000
    61.1803    13945.00000
    61.1934    13492.00000
    61.2066    12245.00000
    61.2197    10977.00000
    61.2328    10071.00000
    61.2460     9534.00000
    61.2591     9438.00000
    61.2722     9394.00000
    61.2854     9407.00000
    61.2985     9620.00000
    61.3116     9557.00000
    61.3247     9842.00000
    61.3379    10130.00000
    61.3510    10074.00000
    61.3641     9825.00000
    61.3773     9134.00000
    61.3904     8333.00000
    61.4035     7836.00000
    61.4167     7370.00000
    61.4298     7254.00000
    61.4429     6973.00000
    61.4560     6723.00000
    61.4692     6547.00000
    61.4823     6650.00000
    61.4954     6559.00000
    61.5086     6258.00000
    61.5217     6408.00000
    61.5348     6551.00000
    61.5480     6453.00000
    61.5611     6676.00000
    61.5742     6505.00000
    61.5873     6526.00000
    61.6005     6661.00000
    61.6136     6628.00000
    61.6267     6902.00000
    61.6399     7221.00000
    61.6530     7410.00000
    61.6661     7570.00000
    61.6793     7444.00000
    61.6924     7266.00000
    61.7055     7137.00000
    61.7187     6838.00000
    61.7318     6682.00000
    61.7449     6388.00000
    61.7580     6393.00000
    61.7712     6451.00000
    61.7843     6287.00000
    61.7974     6620.00000
    61.8106     6696.00000
    61.8237     6880.00000
    61.8368     6741.00000
    61.8500     6485.00000
    61.8631     6658.00000
    61.8762     6628.00000
    61.8893     6426.00000
    61.9025     6333.00000
    61.9156     6178.00000
    61.9287     6462.00000
    61.9419     6215.00000
    61.9550     6078.00000
    61.9681     6206.00000
    61.9813     6288.00000
    61.9944     6195.00000
    62.0075     6168.00000
    62.0206     6230.00000
    62.0338     6074.00000
    62.0469     6216.00000
    62.0600     6134.00000
    62.0732     6280.00000
    62.0863     6202.00000
    62.0994     6141.00000
    62.1126     6025.00000
    62.1257     6167.00000
    62.1388     5963.00000
    62.1520     6136.00000
    62.1651     6263.00000
    62.1782     6175.00000
    62.1913     6047.00000
    62.2045     6167.00000
    62.2176     6148.00000
    62.2307     6158.00000
    62.2439     6013.00000
    62.2570     6175.00000
    62.2701     6006.00000
    62.2833     6082.00000
    62.2964     6052.00000
    62.3095     6171.00000
    62.3226     6236.00000
    62.3358     6020.00000
    62.3489     6120.00000
    62.3620     6134.00000
    62.3752     6081.00000
    62.3883     6169.00000
    62.4014     6208.00000
    62.4146     6233.00000
    62.4277     6197.00000
    62.4408     6118.00000
    62.4539     6152.00000
    62.4671     6134.00000
    62.4802     6151.00000
    62.4933     6060.00000
    62.5065     6084.00000
    62.5196     6024.00000
    62.5327     5961.00000
    62.5459     6031.00000
    62.5590     6095.00000
    62.5721     6110.00000
    62.5852     6168.00000
    62.5984     6167.00000
    62.6115     6115.00000
    62.6246     6227.00000
    62.6378     6125.00000
    62.6509     6160.00000
    62.6640     6133.00000
    62.6772     6161.00000
    62.6903     6139.00000
    62.7034     6139.00000
    62.7166     6161.00000
    62.7297     6107.00000
    62.7428     6177.00000
    62.7559     6264.00000
    62.7691     6265.00000
    62.7822     6189.00000
    62.7953     6215.00000
    62.8085     6241.00000
    62.8216     6197.00000
    62.8347     6126.00000
    62.8479     6104.00000
    62.8610     6155.00000
    62.8741     6142.00000
    62.8872     6277.00000
    62.9004     6403.00000
    62.9135     6082.00000
    62.9266     6219.00000
    62.9398     6163.00000
    62.9529     6153.00000
    62.9660     6150.00000
    62.9792     6321.00000
    62.9923     6394.00000
    63.0054     6239.00000
    63.0185     6290.00000
    63.0317     6191.00000
    63.0448     6279.00000
    63.0579     6555.00000
    63.0711     6433.00000
    63.0842     6669.00000
    63.0973     6797.00000
    63.1105     6999.00000
    63.1236     7474.00000
    63.1367     7322.00000
    63.1499     7520.00000
    63.1630     7178.00000
    63.1761     7163.00000
    63.1892     6784.00000
    63.2024     6688.00000
    63.2155     6549.00000
    63.2286     6653.00000
    63.2418     6472.00000
    63.2549     6633.00000
    63.2680     6807.00000
    63.2812     6831.00000
    63.2943     6874.00000
    63.3074     7125.00000
    63.3205     7272.00000
    63.3337     6996.00000
    63.3468     6993.00000
    63.3599     6709.00000
    63.3731     6611.00000
    63.3862     6709.00000
    63.3993     6622.00000
    63.4125     6919.00000
    63.4256     7187.00000
    63.4387     7428.00000
    63.4518     7587.00000
    63.4650     7974.00000
    63.4781     8072.00000
    63.4912     7679.00000
    63.5044     7602.00000
    63.5175     6995.00000
    63.5306     6978.00000
    63.5438     6786.00000
    63.5569     6693.00000
    63.5700     6613.00000
    63.5831     6837.00000
    63.5963     6985.00000
    63.6094     6966.00000
    63.6225     7043.00000
    63.6357     7095.00000
    63.6488     7308.00000
    63.6619     7142.00000
    63.6751     6884.00000
    63.6882     6664.00000
    63.7013     6518.00000
    63.7145     6267.00000
    63.7276     6303.00000
    63.7407     6316.00000
    63.7538     6394.00000
    63.7670     6412.00000
    63.7801     6265.00000
    63.7932     6115.00000
    63.8064     6232.00000
    63.8195     6166.00000
    63.8326     6093.00000
    63.8458     6195.00000
    63.8589     5946.00000
    63.8720     6152.00000
    63.8851     6339.00000
    63.8983     6098.00000
    63.9114     6105.00000
    63.9245     6167.00000
    63.9377     6304.00000
    63.9508     6134.00000
    63.9639     6071.00000
    63.9771     6129.00000
    63.9902     6008.00000
    64.0033     6174.00000
    64.0164     6140.00000
    64.0296     6178.00000
    64.0427     6048.00000
    64.0558     6357.00000
    64.0690     6281.00000
    64.0821     6388.00000
    64.0952     6345.00000
    64.1084     6381.00000
    64.1215     6250.00000
    64.1346     6520.00000
    64.1478     6782.00000
    64.1609     7012.00000
    64.1740     7255.00000
    64.1871     7475.00000
    64.2003     7453.00000
    64.2134     7558.00000
    64.2265     7108.00000
    64.2397     7082.00000
    64.2528     6830.00000
    64.2659     6528.00000
    64.2791     6490.00000
    64.2922     6268.00000
    64.3053     6411.00000
    64.3184     6497.00000
    64.3316     6584.00000
    64.3447     6542.00000
    64.3578     6804.00000
    64.3710     6816.00000
    64.3841     6918.00000
    64.3972     6665.00000
    64.4104     6523.00000
    64.4235     6562.00000
    64.4366     6562.00000
    64.4498     6394.00000
    64.4629     6166.00000
    64.4760     6185.00000
    64.4891     6309.00000
    64.5023     6118.00000
    64.5154     6180.00000
    64.5285     6366.00000
    64.5417     6206.00000
    64.5548     6383.00000
    64.5679     6028.00000
    64.5811     6219.00000
    64.5942     6205.00000
    64.6073     6210.00000
    64.6204     6205.00000
    64.6336     6187.00000
    64.6467     6091.00000
    64.6598     6188.00000
    64.6730     5935.00000
    64.6861     6048.00000
    64.6992     6189.00000
    64.7124     6077.00000
    64.7255     6186.00000
    64.7386     6179.00000
    64.7517     6135.00000
    64.7649     6122.00000
    64.7780     6027.00000
    64.7911     6135.00000
    64.8043     6149.00000
    64.8174     6064.00000
    64.8305     6255.00000
    64.8437     6164.00000
    64.8568     6165.00000
    64.8699     6053.00000
    64.8830     5971.00000
    64.8962     6020.00000
    64.9093     5932.00000
    64.9224     5992.00000
    64.9356     6211.00000
    64.9487     6047.00000
    64.9618     6116.00000
    64.9750     6047.00000
    64.9881     6239.00000
    65.0012     6084.00000
    65.0144     6004.00000
    65.0275     6115.00000
    65.0406     5981.00000
    65.0537     6144.00000
    65.0669     6080.00000
    65.0800     6137.00000
    65.0931     6015.00000
    65.1063     6035.00000
    65.1194     6047.00000
    65.1325     6081.00000
    65.1457     6202.00000
    65.1588     6166.00000
    65.1719     6154.00000
    65.1850     6182.00000
    65.1982     6057.00000
    65.2113     5982.00000
    65.2244     6046.00000
    65.2376     6156.00000
    65.2507     6118.00000
    65.2638     6115.00000
    65.2770     6007.00000
    65.2901     5963.00000
    65.3032     6184.00000
    65.3163     6235.00000
    65.3295     6202.00000
    65.3426     6193.00000
    65.3557     5898.00000
    65.3689     6150.00000
    65.3820     6208.00000
    65.3951     6092.00000
    65.4083     6064.00000
    65.4214     6186.00000
    65.4345     6188.00000
    65.4476     6018.00000
    65.4608     6092.00000
    65.4739     5985.00000
    65.4870     5975.00000
    65.5002     6013.00000
    65.5133     6208.00000
    65.5264     5952.00000
    65.5396     6149.00000
    65.5527     6099.00000
    65.5658     6102.00000
    65.5790     6039.00000
    65.5921     6079.00000
    65.6052     5938.00000
    65.6183     5896.00000
    65.6315     5957.00000
    65.6446     6057.00000
    65.6577     5998.00000
    65.6709     6156.00000
    65.6840     6001.00000
    65.6971     5950.00000
    65.7103     5954.00000
    65.7234     5951.00000
    65.7365     6043.00000
    65.7496     6123.00000
    65.7628     5884.00000
    65.7759     5857.00000
    65.7890     6001.00000
    65.8022     5864.00000
    65.8153     6083.00000
    65.8284     5965.00000
    65.8416     5994.00000
    65.8547     6046.00000
    65.8678     6093.00000
    65.8810     6163.00000
    65.8941     5971.00000
    65.9072     5879.00000
    65.9203     6034.00000
    65.9335     6121.00000
    65.9466     5995.00000
    65.9597     6052.00000
    65.9729     6019.00000
    65.9860     6012.00000
    65.9991     6088.00000
    66.0123     6033.00000
    66.0254     6221.00000
    66.0385     6147.00000
    66.0516     6001.00000
    66.0648     5937.00000
    66.0779     6015.00000
    66.0910     6238.00000
    66.1042     6092.00000
    66.1173     6062.00000
    66.1304     6049.00000
    66.1436     6065.00000
    66.1567     6201.00000
    66.1698     6137.00000
    66.1829     6165.00000
    66.1961     6052.00000
    66.2092     5907.00000
    66.2223     5841.00000
    66.2355     6063.00000
    66.2486     6075.00000
    66.2617     6140.00000
    66.2749     6077.00000
    66.2880     6030.00000
    66.3011     6073.00000
    66.3142     5930.00000
    66.3274     5975.00000
    66.3405     6166.00000
    66.3536     6153.00000
    66.3668     6233.00000
    66.3799     5921.00000
    66.3930     6018.00000
    66.4062     6044.00000
    66.4193     5962.00000
    66.4324     6086.00000
    66.4455     6047.00000
    66.4587     6202.00000
    66.4718     6214.00000
    66.4849     6143.00000
    66.4981     6199.00000
    66.5112     6027.00000
    66.5243     5924.00000
    66.5375     6082.00000
    66.5506     5988.00000
    66.5637     6018.00000
    66.5769     6082.00000
    66.5900     5864.00000
    66.6031     5947.00000
    66.6162     6072.00000
    66.6294     6087.00000
    66.6425     6166.00000
    66.6556     5972.00000
    66.6688     6062.00000
    66.6819     5934.00000
    66.6950     5888.00000
    66.7082     6094.00000
    66.7213     6180.00000
    66.7344     6203.00000
    66.7476     5919.00000
    66.7607     5785.00000
    66.7738     6056.00000
    66.7869     5976.00000
    66.8001     5977.00000
    66.8132     5785.00000
    66.8263     5956.00000
    66.8395     5915.00000
    66.8526     5947.00000
    66.8657     6029.00000
    66.8789     6130.00000
    66.8920     6009.00000
    66.9051     5946.00000
    66.9182     5864.00000
    66.9314     6014.00000
    66.9445     6058.00000
    66.9576     6043.00000
    66.9708     5981.00000
    66.9839     5831.00000
    66.9970     5936.00000
    67.0102     6113.00000
    67.0233     6079.00000
    67.0364     5896.00000
    67.0495     5947.00000
    67.0627     6028.00000
    67.0758     6036.00000
    67.0889     6025.00000
    67.1021     5910.00000
    67.1152     5983.00000
    67.1283     6109.00000
    67.1415     6106.00000
    67.1546     6009.00000
    67.1677     5950.00000
    67.1808     5926.00000
    67.1940     5850.00000
    67.2071     5966.00000
    67.2202     6143.00000
    67.2334     6014.00000
    67.2465     6086.00000
    67.2596     5930.00000
    67.2728     6106.00000
    67.2859     6032.00000
    67.2990     6044.00000
    67.3121     6182.00000
    67.3253     6372.00000
    67.3384     6203.00000
    67.3515     5998.00000
    67.3647     6062.00000
    67.3778     6148.00000
    67.3909     6358.00000
    67.4041     6233.00000
    67.4172     6148.00000
    67.4303     6137.00000
    67.4435     6052.00000
    67.4566     5956.00000
    67.4697     5810.00000
    67.4828     6061.00000
    67.4960     5945.00000
    67.5091     6085.00000
    67.5222     6066.00000
    67.5354     6136.00000
    67.5485     6208.00000
    67.5616     6018.00000
    67.5748     5964.00000
    67.5879     6197.00000
    67.6010     5972.00000
    67.6142     6050.00000
    67.6273     6037.00000
    67.6404     6128.00000
    67.6535     6070.00000
    67.6667     6103.00000
    67.6798     6016.00000
    67.6929     5877.00000
    67.7061     6124.00000
    67.7192     5992.00000
    67.7323     6100.00000
    67.7455     6036.00000
    67.7586     5984.00000
    67.7717     6161.00000
    67.7848     6032.00000
    67.7980     6132.00000
    67.8111     6125.00000
    67.8242     6184.00000
    67.8374     6034.00000
    67.8505     6253.00000
    67.8636     6116.00000
    67.8768     5995.00000
    67.8899     6122.00000
    67.9030     5938.00000
    67.9161     6026.00000
    67.9293     5964.00000
    67.9424     5880.00000
    67.9555     5954.00000
    67.9687     6122.00000
    67.9818     6097.00000
    67.9949     5983.00000
    68.0081     6125.00000
    68.0212     6118.00000
    68.0343     5914.00000
    68.0474     6007.00000
    68.0606     5977.00000
    68.0737     5978.00000
    68.0868     6003.00000
    68.1000     6016.00000
    68.1131     6011.00000
    68.1262     6125.00000
    68.1394     6079.00000
    68.1525     6106.00000
    68.1656     5983.00000
    68.1787     5977.00000
    68.1919     5938.00000
    68.2050     6241.00000
    68.2181     6076.00000
    68.2313     6101.00000
    68.2444     6062.00000
    68.2575     6074.00000
    68.2707     6012.00000
    68.2838     6045.00000
    68.2969     6107.00000
    68.3101     6055.00000
    68.3232     6111.00000
    68.3363     5961.00000
    68.3494     6066.00000
    68.3626     5985.00000
    68.3757     6099.00000
    68.3888     6344.00000
    68.4020     6078.00000
    68.4151     6012.00000
    68.4282     6064.00000
    68.4414     5980.00000
    68.4545     6074.00000
    68.4676     6002.00000
    68.4807     6083.00000
    68.4939     6115.00000
    68.5070     6024.00000
    68.5201     6189.00000
    68.5333     6012.00000
    68.5464     6203.00000
    68.5595     6262.00000
    68.5727     6000.00000
    68.5858     6237.00000
    68.5989     6177.00000
    68.6120     6183.00000
    68.6252     6387.00000
    68.6383     6324.00000
    68.6514     6477.00000
    68.6646     6429.00000
    68.6777     6354.00000
    68.6908     6644.00000
    68.7040     6655.00000
    68.7171     6791.00000
    68.7302     6596.00000
    68.7434     6689.00000
    68.7565     6923.00000
    68.7696     7053.00000
    68.7827     7105.00000
    68.7959     7471.00000
    68.8090     7631.00000
    68.8221     7569.00000
    68.8353     7709.00000
    68.8484     7341.00000
    68.8615     7143.00000
    68.8747     6760.00000
    68.8878     6638.00000
    68.9009     6685.00000
    68.9140     6553.00000
    68.9272     6598.00000
    68.9403     6540.00000
    68.9534     6630.00000
    68.9666     6603.00000
    68.9797     6819.00000
    68.9928     6801.00000
    69.0060     6978.00000
    69.0191     7077.00000
    69.0322     6814.00000
    69.0453     6758.00000
    69.0585     6686.00000
    69.0716     6455.00000
    69.0847     6555.00000
    69.0979     6615.00000
    69.1110     6533.00000
    69.1241     6773.00000
    69.1373     6853.00000
    69.1504     7095.00000
    69.1635     7257.00000
    69.1767     7890.00000
    69.1898     8238.00000
    69.2029     8634.00000
    69.2160     8867.00000
    69.2292     8929.00000
    69.2423     8769.00000
    69.2554     8947.00000
    69.2686     8673.00000
    69.2817     8352.00000
    69.2948     8094.00000
    69.3080     7517.00000
    69.3211     7198.00000
    69.3342     7075.00000
    69.3473     7034.00000
    69.3605     7128.00000
    69.3736     7318.00000
    69.3867     7487.00000
    69.3999     7858.00000
    69.4130     8122.00000
    69.4261     8121.00000
    69.4393     8329.00000
    69.4524     8462.00000
    69.4655     8291.00000
    69.4786     8106.00000
    69.4918     7486.00000
    69.5049     7311.00000
    69.5180     6941.00000
    69.5312     6679.00000
    69.5443     6548.00000
    69.5574     6524.00000
    69.5706     6445.00000
    69.5837     6426.00000
    69.5968     6229.00000
    69.6099     6529.00000
    69.6231     6557.00000
    69.6362     6556.00000
    69.6493     6737.00000
    69.6625     6823.00000
    69.6756     6682.00000
    69.6887     6356.00000
    69.7019     6408.00000
    69.7150     6492.00000
    69.7281     6132.00000
    69.7413     6289.00000
    69.7544     6403.00000
    69.7675     6404.00000
    69.7806     6911.00000
    69.7938     6829.00000
    69.8069     7064.00000
    69.8200     7302.00000
    69.8332     7503.00000
    69.8463     7809.00000
    69.8594     7512.00000
    69.8726     7401.00000
    69.8857     6974.00000
    69.8988     6831.00000
    69.9119     6880.00000
    69.9251     6477.00000
    69.9382     6410.00000
    69.9513     6567.00000
    69.9645     6459.00000
    69.9776     6672.00000
    69.9907     6670.00000
    70.0039     6874.00000
    70.0170     6748.00000
    70.0301     7060.00000
    70.0433     6898.00000
    70.0564     6950.00000
    70.0695     6859.00000
    70.0826     6538.00000
    70.0958     6471.00000
    70.1089     6504.00000
    70.1220     6480.00000
    70.1352     6345.00000
    70.1483     6441.00000
    70.1614     6371.00000
    70.1746     6420.00000
    70.1877     6248.00000
    70.2008     6131.00000
    70.2139     6166.00000
    70.2271     6159.00000
    70.2402     6252.00000
    70.2533     6167.00000
    70.2665     6162.00000
    70.2796     6118.00000
    70.2927     6314.00000
    70.3059     6166.00000
    70.3190     6146.00000
    70.3321     6350.00000
    70.3452     6168.00000
    70.3584     6225.00000
    70.3715     6414.00000
    70.3846     6339.00000
    70.3978     6637.00000
    70.4109     6553.00000
    70.4240     6687.00000
    70.4372     6715.00000
    70.4503     6674.00000
    70.4634     6614.00000
    70.4765     6558.00000
    70.4897     6615.00000
    70.5028     6507.00000
    70.5159     6401.00000
    70.5291     6457.00000
    70.5422     6480.00000
    70.5553     6451.00000
    70.5685     6666.00000
    70.5816     6793.00000
    70.5947     6901.00000
    70.6078     7090.00000
    70.6210     7027.00000
    70.6341     7140.00000
    70.6472     6910.00000
    70.6604     6687.00000
    70.6735     6558.00000
    70.6866     6699.00000
    70.6998     6482.00000
    70.7129     6304.00000
    70.7260     6384.00000
    70.7392     6374.00000
    70.7523     6504.00000
    70.7654     6447.00000
    70.7785     6458.00000
    70.7917     6439.00000
    70.8048     6608.00000
    70.8179     6548.00000
    70.8311     6440.00000
    70.8442     6256.00000
    70.8573     6286.00000
    70.8705     6224.00000
    70.8836     6183.00000
    70.8967     6251.00000
    70.9099     6147.00000
    70.9230     5983.00000
    70.9361     6091.00000
    70.9492     6250.00000
    70.9624     6248.00000
    70.9755     6075.00000
    70.9886     5989.00000
    71.0018     6018.00000
    71.0149     6189.00000
    71.0280     5991.00000
    71.0412     6138.00000
    71.0543     6179.00000
    71.0674     6026.00000
    71.0805     6003.00000
    71.0937     6109.00000
    71.1068     6148.00000
    71.1199     5940.00000
    71.1331     5942.00000
    71.1462     6091.00000
    71.1593     6075.00000
    71.1725     5809.00000
    71.1856     6113.00000
    71.1987     6042.00000
    71.2118     6031.00000
    71.2250     6038.00000
    71.2381     5967.00000
    71.2512     5950.00000
    71.2644     5906.00000
    71.2775     6115.00000
    71.2906     6124.00000
    71.3038     6122.00000
    71.3169     6045.00000
    71.3300     6021.00000
    71.3431     6144.00000
    71.3563     6081.00000
    71.3694     5898.00000
    71.3825     6209.00000
    71.3957     6186.00000
    71.4088     6215.00000
    71.4219     6212.00000
    71.4351     6323.00000
    71.4482     6534.00000
    71.4613     6309.00000
    71.4744     6226.00000
    71.4876     6222.00000
    71.5007     6119.00000
    71.5138     6182.00000
    71.5270     6359.00000
    71.5401     6260.00000
    71.5532     6495.00000
    71.5664     6374.00000
    71.5795     6308.00000
    71.5926     6529.00000
    71.6058     6598.00000
    71.6189     6543.00000
    71.6320     6164.00000
    71.6451     6412.00000
    71.6583     6335.00000
    71.6714     6460.00000
    71.6845     6570.00000
    71.6977     6648.00000
    71.7108     6494.00000
    71.7239     6480.00000
    71.7371     6554.00000
    71.7502     6767.00000
    71.7633     6959.00000
    71.7764     7347.00000
    71.7896     7497.00000
    71.8027     8163.00000
    71.8158     8548.00000
    71.8290     8973.00000
    71.8421     8859.00000
    71.8552     8884.00000
    71.8684     8415.00000
    71.8815     8005.00000
    71.8946     7490.00000
    71.9078     7359.00000
    71.9209     6887.00000
    71.9340     6807.00000
    71.9471     6698.00000
    71.9603     6522.00000
    71.9734     6537.00000
    71.9865     6814.00000
    71.9997     7028.00000
    72.0128     7097.00000
    72.0259     7548.00000
    72.0391     7527.00000
    72.0522     7454.00000
    72.0653     7551.00000
    72.0784     7196.00000
    72.0916     6872.00000
    72.1047     6778.00000
    72.1178     6613.00000
    72.1310     6281.00000
    72.1441     6346.00000
    72.1572     6207.00000
    72.1704     6215.00000
    72.1835     6094.00000
    72.1966     6285.00000
    72.2097     6182.00000
    72.2229     5957.00000
    72.2360     6047.00000
    72.2491     5915.00000
    72.2623     5973.00000
    72.2754     6055.00000
    72.2885     6126.00000
    72.3017     6174.00000
    72.3148     6055.00000
    72.3279     5967.00000
    72.3410     5944.00000
    72.3542     6049.00000
    72.3673     6066.00000
    72.3804     6046.00000
    72.3936     6056.00000
    72.4067     6108.00000
    72.4198     6245.00000
    72.4330     6346.00000
    72.4461     6252.00000
    72.4592     6424.00000
    72.4724     6651.00000
    72.4855     6503.00000
    72.4986     6588.00000
    72.5117     6499.00000
    72.5249     6506.00000
    72.5380     6505.00000
    72.5511     6399.00000
    72.5643     6188.00000
    72.5774     5988.00000
    72.5905     6286.00000
    72.6037     6272.00000
    72.6168     6102.00000
    72.6299     6246.00000
    72.6430     6248.00000
    72.6562     6044.00000
    72.6693     6182.00000
    72.6824     6125.00000
    72.6956     6306.00000
    72.7087     6465.00000
    72.7218     6529.00000
    72.7350     6127.00000
    72.7481     6186.00000
    72.7612     6269.00000
    72.7743     6126.00000
    72.7875     6290.00000
    72.8006     6206.00000
    72.8137     6180.00000
    72.8269     6286.00000
    72.8400     6248.00000
    72.8531     6239.00000
    72.8663     6233.00000
    72.8794     6151.00000
    72.8925     6028.00000
    72.9057     6108.00000
    72.9188     6285.00000
    72.9319     6172.00000
    72.9450     6295.00000
    72.9582     6279.00000
    72.9713     6026.00000
    72.9844     6077.00000
    72.9976     6207.00000
    73.0107     6084.00000
    73.0238     6189.00000
    73.0370     6492.00000
    73.0501     6530.00000
    73.0632     6622.00000
    73.0763     6852.00000
    73.0895     6935.00000
    73.1026     7407.00000
    73.1157     7341.00000
    73.1289     7491.00000
    73.1420     7679.00000
    73.1551     7655.00000
    73.1683     7264.00000
    73.1814     6967.00000
    73.1945     6791.00000
    73.2076     6659.00000
    73.2208     6485.00000
    73.2339     6385.00000
    73.2470     6298.00000
    73.2602     6419.00000
    73.2733     6505.00000
    73.2864     6433.00000
    73.2996     6398.00000
    73.3127     6509.00000
    73.3258     6616.00000
    73.3390     6789.00000
    73.3521     6835.00000
    73.3652     6978.00000
    73.3783     6709.00000
    73.3915     6642.00000
    73.4046     6457.00000
    73.4177     6287.00000
    73.4309     6432.00000
    73.4440     6318.00000
    73.4571     6260.00000
    73.4703     6199.00000
    73.4834     6185.00000
    73.4965     6231.00000
    73.5096     6091.00000
    73.5228     6230.00000
    73.5359     6183.00000
    73.5490     6048.00000
    73.5622     5951.00000
    73.5753     5976.00000
    73.5884     6067.00000
    73.6016     6202.00000
    73.6147     6128.00000
    73.6278     6136.00000
    73.6409     6364.00000
    73.6541     6076.00000
    73.6672     6181.00000
    73.6803     6183.00000
    73.6935     6190.00000
    73.7066     6386.00000
    73.7197     6262.00000
    73.7329     6366.00000
    73.7460     6124.00000
    73.7591     6186.00000
    73.7722     6113.00000
    73.7854     6171.00000
    73.7985     6161.00000
    73.8116     6196.00000
    73.8248     6197.00000
    73.8379     6281.00000
    73.8510     5986.00000
    73.8642     6297.00000
    73.8773     6232.00000
    73.8904     6370.00000
    73.9035     6255.00000
    73.9167     6425.00000
    73.9298     6698.00000
    73.9429     6757.00000
    73.9561     6931.00000
    73.9692     6958.00000
    73.9823     6928.00000
    73.9955     6903.00000
    74.0086     6856.00000
    74.0217     7211.00000
    74.0349     7123.00000
    74.0480     7348.00000
    74.0611     7467.00000
    74.0742     7597.00000
    74.0874     7394.00000
    74.1005     7264.00000
    74.1136     6984.00000
    74.1268     6742.00000
    74.1399     6836.00000
    74.1530     6757.00000
    74.1662     6874.00000
    74.1793     6907.00000
    74.1924     7057.00000
    74.2056     7213.00000
    74.2187     7164.00000
    74.2318     7325.00000
    74.2449     7121.00000
    74.2581     7112.00000
    74.2712     6973.00000
    74.2843     6645.00000
    74.2975     6717.00000
    74.3106     6707.00000
    74.3237     6599.00000
    74.3369     6418.00000
    74.3500     6359.00000
    74.3631     6212.00000
    74.3762     6173.00000
    74.3894     6157.00000
    74.4025     6340.00000
    74.4156     6246.00000
    74.4288     6349.00000
    74.4419     6391.00000
    74.4550     6203.00000
    74.4682     6328.00000
    74.4813     6231.00000
    74.4944     6160.00000
    74.5075     6187.00000
    74.5207     6004.00000
    74.5338     6219.00000
    74.5469     6345.00000
    74.5601     6187.00000
    74.5732     6173.00000
    74.5863     6308.00000
    74.5995     6152.00000
    74.6126     6087.00000
    74.6257     6020.00000
    74.6388     6131.00000
    74.6520     5927.00000
    74.6651     5872.00000
    74.6782     6068.00000
    74.6914     5929.00000
    74.7045     5758.00000
    74.7176     5898.00000
    74.7308     5862.00000
    74.7439     5867.00000
    74.7570     5982.00000
    74.7701     5897.00000
    74.7833     6131.00000
    74.7964     6127.00000
    74.8095     6069.00000
    74.8227     6263.00000
    74.8358     6036.00000
    74.8489     6085.00000
    74.8621     6029.00000
    74.8752     5955.00000
    74.8883     6153.00000
    74.9015     6099.00000
    74.9146     5920.00000
    74.9277     5969.00000
    74.9408     5990.00000
    74.9540     5956.00000
    74.9671     5843.00000
    74.9802     5953.00000
    74.9934     6058.00000
    75.0065     6085.00000
    75.0196     6143.00000
    75.0328     6041.00000
    75.0459     5861.00000
    75.0590     5776.00000
    75.0722     5881.00000
    75.0853     5992.00000
    75.0984     5935.00000
    75.1115     5869.00000
    75.1247     5892.00000
    75.1378     5936.00000
    75.1509     5865.00000
    75.1641     5886.00000
    75.1772     5877.00000
    75.1903     6020.00000
    75.2035     6030.00000
    75.2166     5817.00000
    75.2297     5870.00000
    75.2428     5806.00000
    75.2560     5709.00000
    75.2691     5775.00000
    75.2822     5934.00000
    75.2954     5924.00000
    75.3085     5877.00000
    75.3216     5884.00000
    75.3348     5899.00000
    75.3479     5801.00000
    75.3610     5884.00000
    75.3741     5784.00000
    75.3873     5833.00000
    75.4004     5844.00000
    75.4135     6082.00000
    75.4267     5800.00000
    75.4398     5918.00000
    75.4529     5904.00000
    75.4661     5935.00000
    75.4792     5929.00000
    75.4923     6000.00000
    75.5054     6039.00000
    75.5186     5722.00000
    75.5317     6045.00000
    75.5448     6013.00000
    75.5580     5994.00000
    75.5711     5980.00000
    75.5842     6073.00000
    75.5974     6049.00000
    75.6105     6010.00000
    75.6236     5917.00000
    75.6367     5919.00000
    75.6499     6168.00000
    75.6630     6194.00000
    75.6761     6335.00000
    75.6893     6306.00000
    75.7024     6417.00000
    75.7155     6432.00000
    75.7287     6235.00000
    75.7418     6272.00000
    75.7549     6174.00000
    75.7681     6084.00000
    75.7812     6087.00000
    75.7943     6097.00000
    75.8074     6012.00000
    75.8206     6037.00000
    75.8337     6181.00000
    75.8468     6012.00000
    75.8600     5971.00000
    75.8731     5896.00000
    75.8862     6126.00000
    75.8994     6246.00000
    75.9125     6213.00000
    75.9256     6072.00000
    75.9387     6109.00000
    75.9519     6154.00000
    75.9650     6190.00000
    75.9781     5986.00000
    75.9913     6060.00000
    76.0044     6050.00000
    76.0175     5973.00000
    76.0307     6164.00000
    76.0438     5846.00000
    76.0569     5844.00000
    76.0701     5988.00000
    76.0832     6093.00000
    76.0963     6154.00000
    76.1094     5942.00000
    76.1226     5996.00000
    76.1357     5974.00000
    76.1488     5900.00000
    76.1620     6114.00000
    76.1751     6210.00000
    76.1882     5986.00000
    76.2014     5987.00000
    76.2145     6102.00000
    76.2276     6001.00000
    76.2407     6088.00000
    76.2539     5887.00000
    76.2670     6057.00000
    76.2801     5972.00000
    76.2933     6077.00000
    76.3064     6094.00000
    76.3195     6038.00000
    76.3327     6064.00000
    76.3458     6127.00000
    76.3589     6171.00000
    76.3720     6169.00000
    76.3852     6290.00000
    76.3983     6359.00000
    76.4114     6580.00000
    76.4246     6557.00000
    76.4377     6459.00000
    76.4508     6535.00000
    76.4640     6452.00000
    76.4771     6563.00000
    76.4902     6408.00000
    76.5033     6438.00000
    76.5165     6506.00000
    76.5296     6626.00000
    76.5427     6708.00000
    76.5559     6888.00000
    76.5690     7031.00000
    76.5821     7178.00000
    76.5953     7223.00000
    76.6084     7450.00000
    76.6215     7315.00000
    76.6347     7126.00000
    76.6478     6860.00000
    76.6609     6799.00000
    76.6740     6581.00000
    76.6872     6629.00000
    76.7003     6414.00000
    76.7134     6240.00000
    76.7266     6458.00000
    76.7397     6381.00000
    76.7528     6597.00000
    76.7660     6490.00000
    76.7791     6789.00000
    76.7922     6763.00000
    76.8053     6994.00000
    76.8185     7281.00000
    76.8316     7634.00000
    76.8447     7778.00000
    76.8579     7863.00000
    76.8710     7684.00000
    76.8841     7141.00000
    76.8973     6866.00000
    76.9104     6663.00000
    76.9235     6344.00000
    76.9366     6330.00000
    76.9498     6212.00000
    76.9629     6004.00000
    76.9760     6157.00000
    76.9892     6249.00000
    77.0023     6276.00000
    77.0154     6234.00000
    77.0286     6177.00000
    77.0417     6212.00000
    77.0548     6314.00000
    77.0679     6501.00000
    77.0811     6681.00000
    77.0942     6537.00000
    77.1073     6366.00000
    77.1205     6384.00000
    77.1336     6259.00000
    77.1467     6148.00000
    77.1599     6232.00000
    77.1730     6155.00000
    77.1861     6266.00000
    77.1993     6274.00000
    77.2124     6222.00000
    77.2255     6066.00000
    77.2386     6143.00000
    77.2518     6027.00000
    77.2649     6107.00000
    77.2780     5918.00000
    77.2912     6113.00000
    77.3043     5850.00000
    77.3174     6051.00000
    77.3306     6167.00000
    77.3437     6054.00000
    77.3568     6102.00000
    77.3699     6294.00000
    77.3831     6146.00000
    77.3962     6467.00000
    77.4093     6451.00000
    77.4225     6498.00000
    77.4356     6640.00000
    77.4487     6658.00000
    77.4619     6678.00000
    77.4750     6830.00000
    77.4881     6778.00000
    77.5013     6882.00000
    77.5144     6771.00000
    77.5275     6719.00000
    77.5406     6467.00000
    77.5538     6313.00000
    77.5669     6206.00000
    77.5800     6175.00000
    77.5932     6161.00000
    77.6063     6156.00000
    77.6194     6439.00000
    77.6326     6231.00000
    77.6457     6213.00000
    77.6588     6364.00000
    77.6719     6247.00000
    77.6851     6407.00000
    77.6982     6337.00000
    77.7113     6415.00000
    77.7245     6268.00000
    77.7376     6330.00000
    77.7507     6451.00000
    77.7639     6136.00000
    77.7770     6124.00000
    77.7901     6005.00000
    77.8032     5944.00000
    77.8164     5932.00000
    77.8295     6082.00000
    77.8426     5936.00000
    77.8558     6069.00000
    77.8689     6186.00000
    77.8820     5874.00000
    77.8952     5949.00000
    77.9083     5778.00000
    77.9214     5842.00000
    77.9345     5938.00000
    77.9477     5918.00000
    77.9608     5832.00000
    77.9739     5750.00000
    77.9871     5967.00000
    78.0002     6013.00000
    78.0133     5901.00000
    78.0265     5819.00000
    78.0396     5900.00000
    78.0527     5813.00000
    78.0658     5892.00000
    78.0790     5825.00000
    78.0921     5951.00000
    78.1052     5971.00000
    78.1184     5957.00000
    78.1315     5846.00000
    78.1446     5872.00000
    78.1578     5923.00000
    78.1709     5744.00000
    78.1840     5997.00000
    78.1972     5742.00000
    78.2103     5724.00000
    78.2234     5845.00000
    78.2365     5855.00000
    78.2497     5921.00000
    78.2628     5872.00000
    78.2759     5957.00000
    78.2891     6095.00000
    78.3022     5932.00000
    78.3153     5713.00000
    78.3285     5991.00000
    78.3416     5974.00000
    78.3547     5854.00000
    78.3679     5909.00000
    78.3810     5856.00000
    78.3941     5970.00000
    78.4072     5899.00000
    78.4204     6020.00000
    78.4335     5951.00000
    78.4466     6100.00000
    78.4598     6054.00000
    78.4729     6135.00000
    78.4860     6009.00000
    78.4992     6006.00000
    78.5123     6108.00000
    78.5254     6155.00000
    78.5385     6020.00000
    78.5517     5897.00000
    78.5648     5756.00000
    78.5779     6036.00000
    78.5911     6196.00000
    78.6042     6025.00000
    78.6173     5952.00000
    78.6305     5967.00000
    78.6436     6233.00000
    78.6567     6062.00000
    78.6698     6247.00000
    78.6830     6217.00000
    78.6961     6247.00000
    78.7092     6386.00000
    78.7224     6411.00000
    78.7355     6700.00000
    78.7486     6749.00000
    78.7618     6982.00000
    78.7749     7009.00000
    78.7880     7094.00000
    78.8011     7269.00000
    78.8143     7037.00000
    78.8274     6952.00000
    78.8405     6851.00000
    78.8537     6715.00000
    78.8668     6435.00000
    78.8799     6375.00000
    78.8931     6479.00000
    78.9062     6429.00000
    78.9193     6332.00000
    78.9324     6481.00000
    78.9456     6619.00000
    78.9587     6687.00000
    78.9718     6707.00000
    78.9850     6636.00000
    78.9981     6847.00000
    79.0112     6708.00000
    79.0244     6834.00000
    79.0375     6887.00000
    79.0506     6897.00000
    79.0638     6751.00000
    79.0769     6901.00000
    79.0900     6759.00000
    79.1031     6845.00000
    79.1163     6709.00000
    79.1294     6418.00000
    79.1425     6422.00000
    79.1557     6188.00000
    79.1688     6231.00000
    79.1819     6214.00000
    79.1951     6177.00000
    79.2082     6295.00000
    79.2213     6225.00000
    79.2345     6179.00000
    79.2476     6146.00000
    79.2607     6171.00000
    79.2738     6033.00000
    79.2870     6177.00000
    79.3001     6217.00000
    79.3132     6313.00000
    79.3264     6183.00000
    79.3395     6197.00000
    79.3526     6264.00000
    79.3658     6277.00000
    79.3789     6045.00000
    79.3920     6088.00000
    79.4051     6072.00000
    79.4183     6014.00000
    79.4314     6075.00000
    79.4445     6240.00000
    79.4577     6120.00000
    79.4708     6224.00000
    79.4839     6274.00000
    79.4971     6361.00000
    79.5102     6553.00000
    79.5233     6564.00000
    79.5364     6732.00000
    79.5496     6974.00000
    79.5627     7156.00000
    79.5758     7170.00000
    79.5890     7034.00000
    79.6021     6798.00000
    79.6152     6723.00000
    79.6284     6481.00000
    79.6415     6363.00000
    79.6546     6402.00000
    79.6677     6270.00000
    79.6809     6210.00000
    79.6940     6157.00000
    79.7071     6372.00000
    79.7203     6434.00000
    79.7334     6483.00000
    79.7465     6564.00000
    79.7597     6743.00000
    79.7728     6755.00000
    79.7859     6985.00000
    79.7990     6946.00000
    79.8122     6978.00000
    79.8253     7004.00000
    79.8384     7083.00000
    79.8516     6834.00000
    79.8647     6695.00000
    79.8778     6582.00000
    79.8910     6522.00000
    79.9041     6372.00000
    79.9172     6333.00000
    79.9304     6253.00000
    79.9435     6111.00000
    79.9566     6164.00000
    79.9697     6252.00000
    79.9829     6329.00000
    79.9960     6127.00000
    80.0091     6150.00000
    80.0223     6289.00000
    80.0354     6178.00000
    80.0485     6021.00000
    80.0617     6205.00000
    80.0748     6188.00000
    80.0879     6177.00000
    80.1010     6129.00000
    80.1142     6015.00000
    80.1273     6040.00000
    80.1404     6046.00000
    80.1536     5942.00000
    80.1667     6000.00000
    80.1798     6080.00000
    80.1930     6019.00000
    80.2061     6007.00000
    80.2192     5913.00000
    80.2323     6096.00000
    80.2455     6015.00000
    80.2586     5995.00000
    80.2717     6070.00000
    80.2849     5816.00000
    80.2980     5837.00000
    80.3111     6061.00000
    80.3243     6110.00000
    80.3374     6145.00000
    80.3505     6020.00000
    80.3637     6113.00000
    80.3768     6130.00000
    80.3899     6181.00000
    80.4030     6275.00000
    80.4162     6357.00000
    80.4293     6465.00000
    80.4424     6668.00000
    80.4556     6760.00000
    80.4687     7103.00000
    80.4818     6959.00000
    80.4950     6997.00000
    80.5081     7156.00000
    80.5212     6929.00000
    80.5343     7034.00000
    80.5475     6870.00000
    80.5606     7069.00000
    80.5737     6908.00000
    80.5869     6862.00000
    80.6000     6985.00000
    80.6131     6738.00000
    80.6263     6742.00000
    80.6394     6692.00000
    80.6525     6768.00000
    80.6656     6831.00000
    80.6788     6655.00000
    80.6919     6733.00000
    80.7050     6629.00000
    80.7182     6697.00000
    80.7313     6625.00000
    80.7444     6332.00000
    80.7576     6457.00000
    80.7707     6418.00000
    80.7838     6506.00000
    80.7970     6507.00000
    80.8101     6485.00000
    80.8232     6541.00000
    80.8363     6458.00000
    80.8495     6324.00000
    80.8626     6369.00000
    80.8757     6316.00000
    80.8889     6286.00000
    80.9020     6368.00000
    80.9151     6245.00000
    80.9283     6275.00000
    80.9414     6225.00000
    80.9545     6218.00000
    80.9676     6166.00000
    80.9808     6379.00000
    80.9939     6255.00000
    81.0070     6210.00000
    81.0202     6360.00000
    81.0333     6558.00000
    81.0464     6595.00000
    81.0596     6371.00000
    81.0727     6385.00000
    81.0858     6415.00000
    81.0989     6252.00000
    81.1121     6201.00000
    81.1252     6206.00000
    81.1383     6142.00000
    81.1515     6346.00000
    81.1646     6326.00000
    81.1777     6135.00000
    81.1909     6399.00000
    81.2040     6583.00000
    81.2171     6633.00000
    81.2302     6929.00000
    81.2434     6741.00000
    81.2565     7068.00000
    81.2696     6907.00000
    81.2828     6973.00000
    81.2959     6785.00000
    81.3090     6481.00000
    81.3222     6470.00000
    81.3353     6368.00000
    81.3484     6406.00000
    81.3616     6159.00000
    81.3747     6209.00000
    81.3878     6260.00000
    81.4009     6157.00000
    81.4141     6317.00000
    81.4272     6343.00000
    81.4403     6368.00000
    81.4535     6366.00000
    81.4666     6284.00000
    81.4797     6513.00000
    81.4929     6316.00000
    81.5060     6473.00000
    81.5191     6474.00000
    81.5322     6382.00000
    81.5454     6279.00000
    81.5585     6107.00000
    81.5716     5995.00000
    81.5848     6188.00000
    81.5979     6197.00000
    81.6110     6053.00000
    81.6242     6125.00000
    81.6373     5941.00000
    81.6504     6043.00000
    81.6636     6098.00000
    81.6767     6042.00000
    81.6898     6008.00000
    81.7029     6002.00000
    81.7161     5932.00000
    81.7292     6023.00000
    81.7423     5908.00000
    81.7555     5910.00000
    81.7686     5967.00000
    81.7817     5836.00000
    81.7949     6054.00000
    81.8080     6041.00000
    81.8211     5969.00000
    81.8342     6052.00000
    81.8474     5981.00000
    81.8605     5948.00000
    81.8736     6112.00000
    81.8868     5992.00000
    81.8999     6018.00000
    81.9130     5888.00000
    81.9262     6049.00000
    81.9393     6117.00000
    81.9524     6019.00000
    81.9655     5975.00000
    81.9787     6037.00000
    81.9918     6081.00000
    82.0049     6294.00000
    82.0181     6258.00000
    82.0312     6578.00000
    82.0443     6384.00000
    82.0575     6581.00000
    82.0706     6351.00000
    82.0837     6287.00000
    82.0968     6230.00000
    82.1100     6271.00000
    82.1231     6195.00000
    82.1362     5993.00000
    82.1494     6066.00000
    82.1625     5906.00000
    82.1756     5929.00000
    82.1888     6208.00000
    82.2019     5855.00000
    82.2150     6129.00000
    82.2281     6125.00000
    82.2413     6127.00000
    82.2544     6163.00000
    82.2675     6192.00000
    82.2807     6292.00000
    82.2938     6289.00000
    82.3069     6427.00000
    82.3201     6341.00000
    82.3332     6626.00000
    82.3463     6556.00000
    82.3595     6366.00000
    82.3726     6387.00000
    82.3857     6347.00000
    82.3988     6269.00000
    82.4120     6191.00000
    82.4251     6243.00000
    82.4382     6108.00000
    82.4514     6131.00000
    82.4645     6037.00000
    82.4776     5899.00000
    82.4908     6026.00000
    82.5039     5892.00000
    82.5170     5973.00000
    82.5302     5924.00000
    82.5433     6005.00000
    82.5564     6061.00000
    82.5695     6164.00000
    82.5827     6090.00000
    82.5958     6070.00000
    82.6089     6249.00000
    82.6221     6159.00000
    82.6352     6079.00000
    82.6483     6171.00000
    82.6615     6060.00000
    82.6746     6086.00000
    82.6877     6161.00000
    82.7008     5894.00000
    82.7140     6175.00000
    82.7271     5753.00000
    82.7402     5958.00000
    82.7534     6070.00000
    82.7665     5947.00000
    82.7796     6014.00000
    82.7928     6044.00000
    82.8059     5985.00000
    82.8190     6045.00000
    82.8321     6156.00000
    82.8453     6397.00000
    82.8584     6430.00000
    82.8715     6540.00000
    82.8847     6728.00000
    82.8978     6814.00000
    82.9109     6778.00000
    82.9241     6615.00000
    82.9372     6438.00000
    82.9503     6435.00000
    82.9634     6329.00000
    82.9766     6241.00000
    82.9897     6141.00000
    83.0028     6096.00000
    83.0160     6001.00000
    83.0291     6014.00000
    83.0422     5924.00000
    83.0554     6078.00000
    83.0685     5898.00000
    83.0816     6058.00000
    83.0947     5975.00000
    83.1079     6059.00000
    83.1210     6062.00000
    83.1341     6165.00000
    83.1473     6306.00000
    83.1604     6306.00000
    83.1735     6317.00000
    83.1867     6214.00000
    83.1998     6183.00000
    83.2129     6044.00000
    83.2261     5992.00000
    83.2392     5911.00000
    83.2523     5758.00000
    83.2654     5803.00000
    83.2786     5845.00000
    83.2917     5934.00000
    83.3048     5981.00000
    83.3180     5965.00000
    83.3311     5911.00000
    83.3442     5840.00000
    83.3574     6070.00000
    83.3705     5861.00000
    83.3836     5991.00000
    83.3967     5840.00000
    83.4099     5822.00000
    83.4230     5733.00000
    83.4361     6105.00000
    83.4493     6026.00000
    83.4624     5751.00000
    83.4755     5834.00000
    83.4887     5946.00000
    83.5018     5893.00000
    83.5149     5964.00000
    83.5281     5786.00000
    83.5412     5844.00000
    83.5543     5843.00000
    83.5674     5954.00000
    83.5806     5905.00000
    83.5937     5809.00000
    83.6068     5731.00000
    83.6200     5786.00000
    83.6331     5803.00000
    83.6462     5870.00000
    83.6594     5806.00000
    83.6725     5753.00000
    83.6856     5916.00000
    83.6987     5908.00000
    83.7119     5863.00000
    83.7250     5849.00000
    83.7381     5746.00000
    83.7513     5763.00000
    83.7644     5690.00000
    83.7775     5723.00000
    83.7907     5794.00000
    83.8038     5748.00000
    83.8169     5956.00000
    83.8300     5844.00000
    83.8432     5872.00000
    83.8563     5766.00000
    83.8694     5933.00000
    83.8826     5799.00000
    83.8957     5889.00000
    83.9088     5846.00000
    83.9220     5877.00000
    83.9351     6000.00000
    83.9482     5888.00000
    83.9613     5896.00000
    83.9745     5889.00000
    83.9876     5867.00000
    84.0007     6013.00000
    84.0139     5852.00000
    84.0270     5953.00000
    84.0401     5984.00000
    84.0533     5840.00000
    84.0664     5835.00000
    84.0795     5865.00000
    84.0927     6088.00000
    84.1058     6056.00000
    84.1189     6121.00000
    84.1320     6039.00000
    84.1452     6240.00000
    84.1583     6147.00000
    84.1714     6020.00000
    84.1846     6119.00000
    84.1977     6097.00000
    84.2108     6011.00000
    84.2240     6039.00000
    84.2371     6127.00000
    84.2502     6168.00000
    84.2633     6041.00000
    84.2765     6127.00000
    84.2896     6264.00000
    84.3027     6225.00000
    84.3159     6401.00000
    84.3290     6348.00000
    84.3421     6508.00000
    84.3553     6500.00000
    84.3684     6458.00000
    84.3815     6385.00000
    84.3946     6222.00000
    84.4078     6325.00000
    84.4209     6178.00000
    84.4340     6144.00000
    84.4472     6248.00000
    84.4603     6087.00000
    84.4734     6206.00000
    84.4866     6254.00000
    84.4997     6371.00000
    84.5128     6465.00000
    84.5260     6243.00000
    84.5391     6141.00000
    84.5522     6223.00000
    84.5653     6394.00000
    84.5785     6181.00000
    84.5916     6235.00000
    84.6047     6229.00000
    84.6179     6233.00000
    84.6310     6038.00000
    84.6441     6054.00000
    84.6573     5773.00000
    84.6704     5954.00000
    84.6835     5996.00000
    84.6966     5902.00000
    84.7098     5967.00000
    84.7229     6007.00000
    84.7360     6004.00000
    84.7492     6114.00000
    84.7623     5976.00000
    84.7754     6117.00000
    84.7886     6012.00000
    84.8017     6128.00000
    84.8148     5982.00000
    84.8279     5991.00000
    84.8411     5996.00000
    84.8542     5706.00000
    84.8673     5816.00000
    84.8805     5730.00000
    84.8936     5740.00000
    84.9067     5717.00000
    84.9199     5989.00000
    84.9330     6000.00000
    84.9461     5930.00000
    84.9593     5803.00000
    84.9724     5852.00000
    84.9855     5941.00000
    84.9986     5890.00000
    85.0118     5684.00000
    85.0249     5875.00000
    85.0380     5849.00000
    85.0512     5757.00000
    85.0643     6089.00000
    85.0774     5735.00000
    85.0906     5788.00000
    85.1037     6009.00000
    85.1168     6009.00000
    85.1299     5911.00000
    85.1431     5835.00000
    85.1562     5881.00000
    85.1693     5927.00000
    85.1825     6012.00000
    85.1956     5879.00000
    85.2087     5887.00000
    85.2219     6046.00000
    85.2350     5884.00000
    85.2481     6049.00000
    85.2612     5962.00000
    85.2744     5816.00000
    85.2875     5883.00000
    85.3006     5889.00000
    85.3138     5845.00000
    85.3269     5823.00000
    85.3400     5765.00000
    85.3532     5788.00000
    85.3663     6030.00000
    85.3794     5891.00000
    85.3925     5843.00000
    85.4057     6005.00000
    85.4188     6001.00000
    85.4319     5904.00000
    85.4451     5837.00000
    85.4582     5835.00000
    85.4713     5901.00000
    85.4845     5775.00000
    85.4976     5830.00000
    85.5107     5935.00000
    85.5238     5798.00000
    85.5370     5903.00000
    85.5501     5954.00000
    85.5632     5893.00000
    85.5764     5944.00000
    85.5895     5866.00000
    85.6026     5991.00000
    85.6158     5860.00000
    85.6289     6030.00000
    85.6420     5979.00000
    85.6552     6047.00000
    85.6683     6132.00000
    85.6814     6159.00000
    85.6945     6239.00000
    85.7077     6157.00000
    85.7208     6164.00000
    85.7339     5968.00000
    85.7471     5920.00000
    85.7602     5948.00000
    85.7733     5905.00000
    85.7865     5763.00000
    85.7996     5803.00000
    85.8127     5789.00000
    85.8259     5893.00000
    85.8390     6027.00000
    85.8521     5821.00000
    85.8652     5705.00000
    85.8784     5949.00000
    85.8915     5915.00000
    85.9046     5919.00000
    85.9178     5916.00000
    85.9309     6154.00000
    85.9440     6024.00000
    85.9572     6154.00000
    85.9703     5951.00000
    85.9834     5893.00000
    85.9965     5994.00000
    86.0097     5987.00000
    86.0228     5899.00000
    86.0359     6068.00000
    86.0491     5897.00000
    86.0622     5951.00000
    86.0753     5899.00000
    86.0885     5927.00000
    86.1016     5974.00000
    86.1147     6020.00000
    86.1278     5899.00000
    86.1410     6156.00000
    86.1541     5947.00000
    86.1672     6068.00000
    86.1804     6133.00000
    86.1935     6082.00000
    86.2066     5925.00000
    86.2198     6058.00000
    86.2329     5850.00000
    86.2460     5864.00000
    86.2591     5935.00000
    86.2723     6057.00000
    86.2854     5900.00000
    86.2985     6079.00000
    86.3117     6113.00000
    86.3248     6161.00000
    86.3379     6092.00000
    86.3511     6204.00000
    86.3642     6091.00000
    86.3773     6371.00000
    86.3904     6220.00000
    86.4036     6134.00000
    86.4167     6122.00000
    86.4298     6159.00000
    86.4430     6296.00000
    86.4561     6224.00000
    86.4692     5956.00000
    86.4824     6061.00000
    86.4955     5962.00000
    86.5086     5998.00000
    86.5218     6112.00000
    86.5349     6006.00000
    86.5480     6044.00000
    86.5611     6064.00000
    86.5743     6110.00000
    86.5874     6131.00000
    86.6005     6406.00000
    86.6137     6432.00000
    86.6268     6690.00000
    86.6399     6744.00000
    86.6531     6947.00000
    86.6662     6932.00000
    86.6793     7126.00000
    86.6925     7004.00000
    86.7056     6980.00000
    86.7187     6879.00000
    86.7318     6744.00000
    86.7450     6939.00000
    86.7581     7174.00000
    86.7712     6765.00000
    86.7844     6940.00000
    86.7975     6903.00000
    86.8106     6885.00000
    86.8238     6841.00000
    86.8369     6764.00000
    86.8500     6697.00000
    86.8631     6597.00000
    86.8763     6485.00000
    86.8894     6631.00000
    86.9025     6464.00000
    86.9157     6548.00000
    86.9288     6707.00000
    86.9419     6608.00000
    86.9551     6701.00000
    86.9682     6690.00000
    86.9813     6783.00000
    86.9944     6734.00000
    87.0076     6566.00000
    87.0207     6727.00000
    87.0338     6499.00000
    87.0470     6495.00000
    87.0601     6467.00000
    87.0732     6281.00000
    87.0864     6353.00000
    87.0995     6352.00000
    87.1126     6309.00000
    87.1257     6200.00000
    87.1389     6074.00000
    87.1520     5924.00000
    87.1651     5996.00000
    87.1783     5977.00000
    87.1914     5849.00000
    87.2045     6297.00000
    87.2177     6058.00000
    87.2308     5938.00000
    87.2439     5919.00000
    87.2570     5791.00000
    87.2702     6037.00000
    87.2833     6057.00000
    87.2964     6065.00000
    87.3096     5986.00000
    87.3227     6134.00000
    87.3358     5899.00000
    87.3490     5931.00000
    87.3621     5929.00000
    87.3752     6014.00000
    87.3884     5862.00000
    87.4015     5857.00000
    87.4146     5948.00000
    87.4277     5890.00000
    87.4409     5843.00000
    87.4540     5930.00000
    87.4671     5969.00000
    87.4803     5879.00000
    87.4934     5885.00000
    87.5065     5849.00000
    87.5197     5916.00000
    87.5328     5878.00000
    87.5459     5814.00000
    87.5590     6008.00000
    87.5722     5978.00000
    87.5853     5987.00000
    87.5984     5915.00000
    87.6116     6006.00000
    87.6247     5966.00000
    87.6378     6142.00000
    87.6510     6086.00000
    87.6641     6274.00000
    87.6772     6138.00000
    87.6904     6250.00000
    87.7035     6418.00000
    87.7166     6275.00000
    87.7297     6396.00000
    87.7429     6321.00000
    87.7560     6499.00000
    87.7691     6379.00000
    87.7823     6331.00000
    87.7954     6461.00000
    87.8085     6343.00000
    87.8217     6120.00000
    87.8348     6454.00000
    87.8479     6338.00000
    87.8610     6311.00000
    87.8742     6423.00000
    87.8873     6371.00000
    87.9004     6230.00000
    87.9136     6440.00000
    87.9267     6392.00000
    87.9398     6194.00000
    87.9530     6338.00000
    87.9661     6182.00000
    87.9792     6272.00000
    87.9923     6155.00000
    88.0055     6059.00000
    88.0186     6107.00000
    88.0317     6234.00000
    88.0449     6236.00000
    88.0580     6122.00000
    88.0711     6120.00000
    88.0843     5980.00000
    88.0974     6166.00000
    88.1105     6108.00000
    88.1236     5876.00000
    88.1368     6016.00000
    88.1499     6001.00000
    88.1630     6164.00000
    88.1762     6139.00000
    88.1893     5979.00000
    88.2024     6133.00000
    88.2156     6104.00000
    88.2287     6026.00000
    88.2418     6050.00000
    88.2550     5976.00000
    88.2681     5896.00000
    88.2812     5871.00000
    88.2943     5978.00000
    88.3075     5869.00000
    88.3206     6014.00000
    88.3337     6003.00000
    88.3469     5969.00000
    88.3600     5930.00000
    88.3731     5986.00000
    88.3863     5996.00000
    88.3994     5820.00000
    88.4125     5990.00000
    88.4256     5899.00000
    88.4388     5994.00000
    88.4519     6241.00000
    88.4650     5930.00000
    88.4782     6167.00000
    88.4913     6204.00000
    88.5044     6217.00000
    88.5176     6319.00000
    88.5307     6366.00000
    88.5438     6315.00000
    88.5569     6532.00000
    88.5701     6348.00000
    88.5832     6353.00000
    88.5963     6490.00000
    88.6095     6135.00000
    88.6226     6197.00000
    88.6357     6428.00000
    88.6489     6470.00000
    88.6620     6617.00000
    88.6751     6311.00000
    88.6882     6581.00000
    88.7014     6360.00000
    88.7145     6173.00000
    88.7276     6117.00000
    88.7408     6128.00000
    88.7539     6160.00000
    88.7670     6080.00000
    88.7802     6226.00000
    88.7933     6112.00000
    88.8064     6068.00000
    88.8196     6323.00000
    88.8327     6302.00000
    88.8458     6174.00000
    88.8589     6248.00000
    88.8721     6083.00000
    88.8852     6245.00000
    88.8983     6074.00000
    88.9115     6147.00000
    88.9246     6354.00000
    88.9377     6364.00000
    88.9509     6099.00000
    88.9640     6320.00000
    88.9771     6186.00000
    88.9902     6173.00000
    89.0034     6188.00000
    89.0165     6126.00000
    89.0296     6036.00000
    89.0428     6300.00000
    89.0559     6052.00000
    89.0690     6158.00000
    89.0822     6201.00000
    89.0953     6440.00000
    89.1084     6421.00000
    89.1216     6481.00000
    89.1347     6675.00000
    89.1478     6723.00000
    89.1609     6551.00000
    89.1741     6485.00000
    89.1872     6646.00000
    89.2003     6347.00000
    89.2135     6343.00000
    89.2266     6398.00000
    89.2397     6373.00000
    89.2529     6298.00000
    89.2660     6345.00000
    89.2791     6086.00000
    89.2922     6183.00000
    89.3054     6147.00000
    89.3185     6119.00000
    89.3316     6077.00000
    89.3448     6156.00000
    89.3579     6079.00000
    89.3710     6236.00000
    89.3842     6329.00000
    89.3973     6388.00000
    89.4104     6432.00000
    89.4235     6739.00000
    89.4367     6700.00000
    89.4498     6615.00000
    89.4629     6703.00000
    89.4761     6519.00000
    89.4892     6377.00000
    89.5023     6199.00000
    89.5155     6182.00000
    89.5286     6222.00000
    89.5417     6201.00000
    89.5548     6090.00000
    89.5680     6149.00000
    89.5811     5993.00000
    89.5942     6134.00000
    89.6074     6043.00000
    89.6205     5955.00000
    89.6336     6031.00000
    89.6468     6196.00000
    89.6599     6234.00000
    89.6730     6294.00000
    89.6861     6441.00000
    89.6993     6581.00000
    89.7124     6360.00000
    89.7255     6770.00000
    89.7387     6721.00000
    89.7518     6745.00000
    89.7649     6697.00000
    89.7781     6378.00000
    89.7912     6321.00000
    89.8043     6183.00000
    89.8175     6126.00000
    89.8306     6046.00000
    89.8437     6068.00000
    89.8568     6194.00000
    89.8700     5969.00000
    89.8831     5962.00000
    89.8962     5908.00000
    89.9094     5871.00000
    89.9225     5935.00000
    89.9356     5933.00000
    89.9488     5925.00000
    89.9619     5981.00000
    89.9750     5966.00000
    89.9882     6147.00000
    90.0013     6053.00000
    90.0144     6165.00000
    90.0275     6252.00000
    90.0407     6167.00000
    90.0538     6029.00000
    90.0669     6087.00000
    90.0801     6122.00000
    90.0932     5984.00000
    90.1063     5844.00000
    90.1195     5888.00000
    90.1326     5875.00000
    90.1457     5820.00000
    90.1588     5939.00000
    90.1720     5855.00000
    90.1851     5886.00000
    90.1982     5870.00000
    90.2114     5757.00000
    90.2245     5877.00000
    90.2376     5819.00000
    90.2508     5715.00000
    90.2639     5827.00000
    90.2770     5594.00000
    90.2901     5885.00000
    90.3033     5867.00000
    90.3164     5736.00000
    90.3295     5821.00000
    90.3427     5715.00000
    90.3558     5817.00000
    90.3689     5858.00000
    90.3821     6016.00000
    90.3952     5902.00000
    90.4083     5990.00000
    90.4214     5830.00000
    90.4346     6000.00000
    90.4477     5989.00000
    90.4608     6014.00000
    90.4740     5900.00000
    90.4871     5873.00000
    90.5002     6050.00000
    90.5134     5886.00000
    90.5265     5829.00000
    90.5396     5854.00000
    90.5527     5853.00000
    90.5659     5602.00000
    90.5790     5774.00000
    90.5921     5980.00000
    90.6053     5804.00000
    90.6184     5652.00000
    90.6315     5824.00000
    90.6447     5682.00000
    90.6578     5639.00000
    90.6709     5777.00000
    90.6841     5740.00000
    90.6972     5914.00000
    90.7103     5937.00000
    90.7234     5899.00000
    90.7366     5949.00000
    90.7497     5818.00000
    90.7628     5904.00000
    90.7760     5816.00000
    90.7891     5949.00000
    90.8022     5808.00000
    90.8154     5840.00000
    90.8285     5887.00000
    90.8416     5749.00000
    90.8548     5867.00000
    90.8679     5906.00000
    90.8810     5880.00000
    90.8941     5960.00000
    90.9073     5880.00000
    90.9204     6254.00000
    90.9335     6072.00000
    90.9467     6031.00000
    90.9598     6240.00000
    90.9729     6353.00000
    90.9861     6296.00000
    90.9992     6165.00000
    91.0123     6186.00000
    91.0254     6037.00000
    91.0386     6067.00000
    91.0517     5952.00000
    91.0648     5987.00000
    91.0780     5940.00000
    91.0911     5895.00000
    91.1042     6034.00000
    91.1174     5968.00000
    91.1305     5894.00000
    91.1436     5895.00000
    91.1567     5915.00000
    91.1699     5953.00000
    91.1830     6096.00000
    91.1961     5995.00000
    91.2093     5937.00000
    91.2224     5951.00000
    91.2355     6047.00000
    91.2487     5933.00000
    91.2618     6023.00000
    91.2749     6094.00000
    91.2880     6302.00000
    91.3012     5979.00000
    91.3143     6154.00000
    91.3274     6006.00000
    91.3406     6098.00000
    91.3537     6085.00000
    91.3668     6147.00000
    91.3800     6202.00000
    91.3931     6074.00000
    91.4062     6354.00000
    91.4193     6314.00000
    91.4325     6308.00000
    91.4456     6067.00000
    91.4587     6325.00000
    91.4719     6037.00000
    91.4850     6229.00000
    91.4981     5886.00000
    91.5113     6083.00000
    91.5244     6036.00000
    91.5375     5993.00000
    91.5507     5830.00000
    91.5638     5930.00000
    91.5769     6023.00000
    91.5900     6099.00000
    91.6032     6169.00000
    91.6163     6257.00000
    91.6294     6260.00000
    91.6426     6202.00000
    91.6557     6383.00000
    91.6688     6380.00000
    91.6820     6458.00000
    91.6951     6319.00000
    91.7082     6395.00000
    91.7213     6423.00000
    91.7345     6240.00000
    91.7476     6366.00000
    91.7607     6206.00000
    91.7739     6297.00000
    91.7870     6181.00000
    91.8001     6147.00000
    91.8133     6173.00000
    91.8264     6194.00000
    91.8395     6223.00000
    91.8526     6249.00000
    91.8658     6297.00000
    91.8789     6271.00000
    91.8920     6220.00000
    91.9052     5988.00000
    91.9183     6299.00000
    91.9314     6255.00000
    91.9446     6491.00000
    91.9577     6314.00000
    91.9708     6179.00000
    91.9840     6479.00000
    91.9971     6368.00000
    92.0102     6360.00000
    92.0233     6499.00000
    92.0365     6564.00000
    92.0496     6642.00000
    92.0627     6832.00000
    92.0759     6886.00000
    92.0890     6771.00000
    92.1021     6434.00000
    92.1153     6384.00000
    92.1284     6389.00000
    92.1415     6220.00000
    92.1546     6196.00000
    92.1678     6100.00000
    92.1809     6158.00000
    92.1940     6045.00000
    92.2072     6052.00000
    92.2203     5984.00000
    92.2334     6101.00000
    92.2466     6072.00000
    92.2597     5882.00000
    92.2728     6052.00000
    92.2859     6088.00000
    92.2991     5882.00000
    92.3122     6124.00000
    92.3253     6175.00000
    92.3385     6152.00000
    92.3516     6205.00000
    92.3647     6183.00000
    92.3779     6221.00000
    92.3910     6259.00000
    92.4041     6259.00000
    92.4173     5956.00000
    92.4304     6155.00000
    92.4435     5989.00000
    92.4566     6088.00000
    92.4698     5867.00000
    92.4829     5930.00000
    92.4960     6007.00000
    92.5092     5966.00000
    92.5223     5880.00000
    92.5354     5904.00000
    92.5486     5964.00000
    92.5617     5798.00000
    92.5748     5745.00000
    92.5879     5952.00000
    92.6011     5897.00000
    92.6142     5885.00000
    92.6273     5925.00000
    92.6405     5868.00000
    92.6536     5831.00000
    92.6667     5949.00000
    92.6799     6103.00000
    92.6930     6105.00000
    92.7061     6047.00000
    92.7192     6033.00000
    92.7324     6019.00000
    92.7455     5960.00000
    92.7586     5989.00000
    92.7718     6066.00000
    92.7849     5962.00000
    92.7980     5908.00000
    92.8112     5901.00000
    92.8243     5908.00000
    92.8374     5992.00000
    92.8505     6011.00000
    92.8637     5789.00000
    92.8768     5794.00000
    92.8899     5809.00000
    92.9031     5890.00000
    92.9162     5889.00000
    92.9293     5925.00000
    92.9425     5800.00000
    92.9556     5787.00000
    92.9687     5992.00000
    92.9819     5987.00000
    92.9950     5749.00000
    93.0081     5902.00000
    93.0212     5774.00000
    93.0344     5851.00000
    93.0475     5906.00000
    93.0606     5734.00000
    93.0738     5741.00000
    93.0869     5867.00000
    93.1000     5800.00000
    93.1132     5943.00000
    93.1263     5768.00000
    93.1394     5768.00000
    93.1525     5754.00000
    93.1657     5748.00000
    93.1788     5760.00000
    93.1919     5676.00000
    93.2051     5695.00000
    93.2182     5944.00000
    93.2313     5865.00000
    93.2445     5864.00000
    93.2576     5808.00000
    93.2707     6002.00000
    93.2839     5751.00000
    93.2970     5864.00000
    93.3101     5949.00000
    93.3232     5961.00000
    93.3364     5983.00000
    93.3495     6025.00000
    93.3626     5990.00000
    93.3758     6067.00000
    93.3889     6071.00000
    93.4020     6076.00000
    93.4152     6178.00000
    93.4283     6195.00000
    93.4414     6356.00000
    93.4545     6502.00000
    93.4677     6560.00000
    93.4808     6487.00000
    93.4939     6629.00000
    93.5071     6722.00000
    93.5202     6559.00000
    93.5333     6325.00000
    93.5465     6264.00000
    93.5596     6218.00000
    93.5727     6116.00000
    93.5858     6152.00000
    93.5990     5969.00000
    93.6121     5993.00000
    93.6252     6058.00000
    93.6384     5888.00000
    93.6515     5827.00000
    93.6646     6014.00000
    93.6778     5850.00000
    93.6909     5893.00000
    93.7040     5905.00000
    93.7171     5876.00000
    93.7303     6011.00000
    93.7434     6130.00000
    93.7565     6109.00000
    93.7697     6073.00000
    93.7828     6054.00000
    93.7959     6268.00000
    93.8091     6233.00000
    93.8222     6234.00000
    93.8353     6072.00000
    93.8484     5978.00000
    93.8616     6034.00000
    93.8747     5877.00000
    93.8878     5978.00000
    93.9010     5848.00000
    93.9141     5825.00000
    93.9272     5807.00000
    93.9404     5689.00000
    93.9535     5831.00000
    93.9666     5846.00000
    93.9798     5867.00000
    93.9929     5940.00000
    94.0060     5999.00000
    94.0191     5924.00000
    94.0323     5887.00000
    94.0454     5852.00000
    94.0585     5763.00000
    94.0717     5827.00000
    94.0848     5668.00000
    94.0979     5940.00000
    94.1111     5921.00000
    94.1242     5865.00000
    94.1373     5705.00000
    94.1505     5839.00000
    94.1636     5982.00000
    94.1767     5862.00000
    94.1898     6033.00000
    94.2030     5853.00000
    94.2161     6070.00000
    94.2292     6222.00000
    94.2424     6194.00000
    94.2555     6241.00000
    94.2686     6275.00000
    94.2818     6387.00000
    94.2949     6640.00000
    94.3080     6614.00000
    94.3211     6490.00000
    94.3343     6475.00000
    94.3474     6548.00000
    94.3605     6342.00000
    94.3737     6261.00000
    94.3868     6340.00000
    94.3999     6165.00000
    94.4131     6198.00000
    94.4262     6071.00000
    94.4393     6077.00000
    94.4524     6191.00000
    94.4656     6146.00000
    94.4787     6215.00000
    94.4918     6066.00000
    94.5050     6224.00000
    94.5181     6020.00000
    94.5312     6172.00000
    94.5444     6049.00000
    94.5575     6197.00000
    94.5706     6421.00000
    94.5837     6077.00000
    94.5969     6133.00000
    94.6100     6113.00000
    94.6231     6107.00000
    94.6363     6226.00000
    94.6494     6108.00000
    94.6625     6422.00000
    94.6757     6226.00000
    94.6888     6233.00000
    94.7019     6168.00000
    94.7150     6016.00000
    94.7282     6078.00000
    94.7413     6306.00000
    94.7544     6309.00000
    94.7676     6279.00000
    94.7807     6140.00000
    94.7938     6329.00000
    94.8070     6274.00000
    94.8201     6160.00000
    94.8332     6067.00000
    94.8464     5908.00000
    94.8595     6071.00000
    94.8726     6010.00000
    94.8857     6055.00000
    94.8989     5925.00000
    94.9120     5961.00000
    94.9251     5759.00000
    94.9383     5925.00000
    94.9514     5903.00000
    94.9645     5932.00000
    94.9777     5967.00000
    94.9908     5921.00000
    95.0039     5974.00000
    95.0170     6024.00000
    95.0302     5948.00000
    95.0433     5986.00000
    95.0564     5975.00000
    95.0696     5917.00000
    95.0827     6177.00000
    95.0958     6098.00000
    95.1090     6044.00000
    95.1221     6031.00000
    95.1352     6099.00000
    95.1484     6001.00000
    95.1615     5956.00000
    95.1746     5964.00000
    95.1877     6015.00000
    95.2009     6106.00000
    95.2140     6160.00000
    95.2271     6144.00000
    95.2403     6302.00000
    95.2534     6360.00000
    95.2665     6470.00000
    95.2797     6343.00000
    95.2928     6275.00000
    95.3059     6122.00000
    95.3190     6033.00000
    95.3322     6095.00000
    95.3453     6138.00000
    95.3584     5974.00000
    95.3716     6031.00000
    95.3847     5950.00000
    95.3978     6154.00000
    95.4110     5922.00000
    95.4241     6039.00000
    95.4372     5997.00000
    95.4503     6084.00000
    95.4635     6225.00000
    95.4766     6168.00000
    95.4897     6326.00000
    95.5029     6362.00000
    95.5160     6211.00000
    95.5291     6372.00000
    95.5423     6434.00000
    95.5554     6371.00000
    95.5685     6652.00000
    95.5816     6410.00000
    95.5948     6352.00000
    95.6079     6331.00000
    95.6210     6235.00000
    95.6342     6099.00000
    95.6473     6067.00000
    95.6604     5939.00000
    95.6736     5975.00000
    95.6867     5866.00000
    95.6998     5862.00000
    95.7130     5909.00000
    95.7261     5784.00000
    95.7392     5834.00000
    95.7523     5898.00000
    95.7655     5935.00000
    95.7786     5997.00000
    95.7917     6036.00000
    95.8049     5882.00000
    95.8180     6038.00000
    95.8311     6016.00000
    95.8443     6070.00000
    95.8574     5919.00000
    95.8705     5849.00000
    95.8836     5945.00000
    95.8968     5995.00000
    95.9099     5846.00000
    95.9230     5819.00000
    95.9362     5922.00000
    95.9493     5891.00000
    95.9624     5925.00000
    95.9756     5855.00000
    95.9887     5825.00000
    96.0018     5753.00000
    96.0149     5755.00000
    96.0281     5700.00000
    96.0412     5879.00000
    96.0543     5675.00000
    96.0675     5619.00000
    96.0806     5884.00000
    96.0937     5804.00000
    96.1069     5775.00000
    96.1200     5767.00000
    96.1331     5723.00000
    96.1463     5668.00000
    96.1594     5647.00000
    96.1725     5791.00000
    96.1856     5802.00000
    96.1988     5709.00000
    96.2119     5810.00000
    96.2250     5641.00000
    96.2382     5779.00000
    96.2513     5710.00000
    96.2644     5766.00000
    96.2776     5752.00000
    96.2907     5916.00000
    96.3038     5881.00000
    96.3169     5662.00000
    96.3301     5728.00000
    96.3432     5819.00000
    96.3563     5772.00000
    96.3695     5776.00000
    96.3826     5915.00000
    96.3957     5705.00000
    96.4089     5879.00000
    96.4220     5703.00000
    96.4351     5829.00000
    96.4482     5769.00000
    96.4614     5855.00000
    96.4745     5999.00000
    96.4876     5920.00000
    96.5008     5841.00000
    96.5139     5778.00000
    96.5270     5820.00000
    96.5402     5829.00000
    96.5533     5865.00000
    96.5664     5900.00000
    96.5796     5994.00000
    96.5927     5921.00000
    96.6058     5930.00000
    96.6189     5918.00000
    96.6321     5992.00000
    96.6452     5754.00000
    96.6583     5889.00000
    96.6715     5961.00000
    96.6846     5859.00000
    96.6977     6056.00000
    96.7109     5907.00000
    96.7240     5837.00000
    96.7371     5953.00000
    96.7502     5965.00000
    96.7634     5917.00000
    96.7765     6000.00000
    96.7896     6016.00000
    96.8028     6168.00000
    96.8159     6104.00000
    96.8290     6146.00000
    96.8422     6124.00000
    96.8553     6276.00000
    96.8684     5969.00000
    96.8815     5890.00000
    96.8947     6002.00000
    96.9078     6004.00000
    96.9209     6028.00000
    96.9341     6042.00000
    96.9472     6000.00000
    96.9603     5721.00000
    96.9735     6066.00000
    96.9866     6029.00000
    96.9997     6125.00000
    97.0128     6005.00000
    97.0260     5971.00000
    97.0391     6046.00000
    97.0522     5933.00000
    97.0654     5958.00000
    97.0785     5946.00000
    97.0916     5997.00000
    97.1048     6187.00000
    97.1179     6317.00000
    97.1310     6261.00000
    97.1442     6247.00000
    97.1573     6295.00000
    97.1704     6270.00000
    97.1835     6144.00000
    97.1967     6224.00000
    97.2098     6171.00000
    97.2229     6020.00000
    97.2361     6046.00000
    97.2492     5874.00000
    97.2623     5784.00000
    97.2755     5929.00000
    97.2886     5908.00000
    97.3017     5821.00000
    97.3148     5668.00000
    97.3280     5816.00000
    97.3411     5796.00000
    97.3542     5734.00000
    97.3674     5852.00000
    97.3805     5811.00000
    97.3936     5817.00000
    97.4068     5931.00000
    97.4199     5709.00000
    97.4330     5918.00000
    97.4462     5932.00000
    97.4593     5981.00000
    97.4724     5765.00000
    97.4855     6004.00000
    97.4987     5960.00000
    97.5118     6132.00000
    97.5249     6006.00000
    97.5381     5905.00000
    97.5512     6031.00000
    97.5643     6098.00000
    97.5775     6146.00000
    97.5906     6111.00000
    97.6037     5997.00000
    97.6168     5965.00000
    97.6300     5836.00000
    97.6431     5997.00000
    97.6562     5887.00000
    97.6694     5876.00000
    97.6825     5931.00000
    97.6956     5777.00000
    97.7088     5790.00000
    97.7219     5732.00000
    97.7350     5756.00000
    97.7481     5758.00000
    97.7613     5726.00000
    97.7744     5831.00000
    97.7875     5742.00000
    97.8007     5793.00000
    97.8138     5749.00000
    97.8269     5791.00000
    97.8401     5786.00000
    97.8532     5991.00000
    97.8663     5784.00000
    97.8794     5945.00000
    97.8926     5868.00000
    97.9057     5964.00000
    97.9188     5879.00000
    97.9320     5766.00000
    97.9451     5918.00000
    97.9582     5791.00000
    97.9714     5756.00000
    97.9845     5706.00000
    97.9976     5699.00000
    98.0107     5723.00000
    98.0239     5910.00000
    98.0370     5958.00000
    98.0501     5946.00000
    98.0633     5889.00000
    98.0764     5902.00000
    98.0895     5981.00000
    98.1027     6001.00000
    98.1158     6066.00000
    98.1289     5930.00000
    98.1421     5970.00000
    98.1552     5968.00000
    98.1683     6135.00000
    98.1814     6191.00000
    98.1946     6149.00000
    98.2077     5897.00000
    98.2208     6186.00000
    98.2340     5973.00000
    98.2471     6157.00000
    98.2602     6084.00000
    98.2734     6171.00000
    98.2865     6095.00000
    98.2996     6035.00000
    98.3128     6061.00000
    98.3259     5880.00000
    98.3390     6007.00000
    98.3521     6061.00000
    98.3653     6130.00000
    98.3784     6115.00000
    98.3915     5873.00000
    98.4047     5847.00000
    98.4178     6024.00000
    98.4309     6145.00000
    98.4441     5921.00000
    98.4572     5732.00000
    98.4703     5971.00000
    98.4834     6032.00000
    98.4966     6012.00000
    98.5097     6069.00000
    98.5228     6060.00000
    98.5360     6065.00000
    98.5491     6067.00000
    98.5622     6314.00000
    98.5754     6191.00000
    98.5885     6286.00000
    98.6016     6266.00000
    98.6147     6280.00000
    98.6279     6171.00000
    98.6410     6073.00000
    98.6541     6087.00000
    98.6673     6110.00000
    98.6804     5896.00000
    98.6935     5973.00000
    98.7067     6192.00000
    98.7198     6128.00000
    98.7329     5957.00000
    98.7460     5913.00000
    98.7592     5955.00000
    98.7723     5823.00000
    98.7854     5824.00000
    98.7986     5922.00000
    98.8117     5669.00000
    98.8248     5784.00000
    98.8380     5759.00000
    98.8511     5916.00000
    98.8642     5686.00000
    98.8773     5783.00000
    98.8905     5869.00000
    98.9036     5840.00000
    98.9167     5849.00000
    98.9299     5781.00000
    98.9430     5821.00000
    98.9561     5929.00000
    98.9693     6074.00000
    98.9824     5949.00000
    98.9955     5761.00000
    99.0087     5794.00000
    99.0218     5879.00000
    99.0349     5580.00000
    99.0480     5784.00000
    99.0612     5714.00000
    99.0743     5794.00000
    99.0874     5881.00000
    99.1006     6069.00000
    99.1137     5739.00000
    99.1268     5757.00000
    99.1400     5678.00000
    99.1531     5813.00000
    99.1662     5732.00000
    99.1793     5762.00000
    99.1925     5807.00000
    99.2056     5917.00000
    99.2187     5789.00000
    99.2319     5806.00000
    99.2450     5669.00000
    99.2581     5736.00000
    99.2713     5744.00000
    99.2844     5628.00000
    99.2975     5669.00000
    99.3107     5672.00000
    99.3238     5822.00000
    99.3369     5774.00000
    99.3500     5795.00000
    99.3632     5545.00000
    99.3763     5660.00000
    99.3894     5653.00000
    99.4026     5662.00000
    99.4157     5742.00000
    99.4288     5841.00000
    99.4420     5938.00000
    99.4551     5814.00000
    99.4682     5573.00000
    99.4813     5679.00000
    99.4945     5702.00000
    99.5076     5689.00000
    99.5207     5759.00000
    99.5339     5676.00000
    99.5470     5724.00000
    99.5601     5668.00000
    99.5733     5781.00000
    99.5864     5642.00000
    99.5995     5682.00000
    99.6126     5708.00000
    99.6258     5735.00000
    99.6389     5746.00000
    99.6520     5805.00000
    99.6652     5866.00000
    99.6783     5840.00000
    99.6914     5866.00000
    99.7046     5669.00000
    99.7177     5792.00000
    99.7308     5707.00000
    99.7439     5699.00000
    99.7571     5786.00000
    99.7702     5626.00000
    99.7833     5823.00000
    99.7965     5826.00000
    99.8096     5839.00000
    99.8227     5947.00000
    99.8359     5845.00000
    99.8490     5964.00000
    99.8621     5788.00000
    99.8753     5803.00000
    99.8884     5736.00000
    99.9015     5567.00000
    99.9146     5763.00000
    99.9278     5700.00000
    99.9409     5756.00000
    99.9540     5842.00000
    99.9672     5819.00000
    99.9803     5751.00000
    99.9934     5888.00000
