! Initial file:   D:\ZAKARY_OUAIL\MA_THESE\Deuxième_année_de_thèse\DRX\Affinement_DRX\Fullprof\Thermodiff3-nuit_NaNbO2F2\290°C\NaNbO2F2-Lent_290°C.xrdml
! Initial format:  58
! WAVE (A):      1.54060     1.54060     1.00000
! REM : data have been multiplied by     1.0000
! X_data : 2 Theta (deg.)                                                                                                                                                                                                                                                  
! Y_data : Intensity (arb. units)                                                                                                                                                                                                                                          
!     X         Y
!--------------------------------------------------------------------------------
    10.0116     7485.00000
    10.0247     7382.00000
    10.0379     7376.00000
    10.0510     7375.00000
    10.0641     7443.00000
    10.0772     7655.00000
    10.0904     7585.00000
    10.1035     7463.00000
    10.1166     7637.00000
    10.1298     7555.00000
    10.1429     7799.00000
    10.1560     7809.00000
    10.1692     7805.00000
    10.1823     7643.00000
    10.1954     7455.00000
    10.2086     7554.00000
    10.2217     7409.00000
    10.2348     7408.00000
    10.2479     7581.00000
    10.2611     7664.00000
    10.2742     7464.00000
    10.2873     7489.00000
    10.3005     7605.00000
    10.3136     7628.00000
    10.3267     7512.00000
    10.3399     7507.00000
    10.3530     7646.00000
    10.3661     7434.00000
    10.3792     7507.00000
    10.3924     7469.00000
    10.4055     7387.00000
    10.4186     7500.00000
    10.4318     7673.00000
    10.4449     7338.00000
    10.4580     7698.00000
    10.4712     7565.00000
    10.4843     7429.00000
    10.4974     7654.00000
    10.5105     7590.00000
    10.5237     7523.00000
    10.5368     7436.00000
    10.5499     7439.00000
    10.5631     7620.00000
    10.5762     7409.00000
    10.5893     7546.00000
    10.6025     7565.00000
    10.6156     7633.00000
    10.6287     7588.00000
    10.6418     7651.00000
    10.6550     7603.00000
    10.6681     7340.00000
    10.6812     7685.00000
    10.6944     7427.00000
    10.7075     7471.00000
    10.7206     7565.00000
    10.7338     7355.00000
    10.7469     7425.00000
    10.7600     7395.00000
    10.7732     7579.00000
    10.7863     7728.00000
    10.7994     7748.00000
    10.8125     7405.00000
    10.8257     7644.00000
    10.8388     7757.00000
    10.8519     7923.00000
    10.8651     7545.00000
    10.8782     7944.00000
    10.8913     7737.00000
    10.9045     8013.00000
    10.9176     8007.00000
    10.9307     8165.00000
    10.9438     8088.00000
    10.9570     7946.00000
    10.9701     8133.00000
    10.9832     8025.00000
    10.9964     8187.00000
    11.0095     8217.00000
    11.0226     8263.00000
    11.0358     8387.00000
    11.0489     8585.00000
    11.0620     8752.00000
    11.0751     9057.00000
    11.0883     9758.00000
    11.1014    10287.00000
    11.1145    11065.00000
    11.1277    12248.00000
    11.1408    14228.00000
    11.1539    16805.00000
    11.1671    20561.00000
    11.1802    26102.00000
    11.1933    35765.00000
    11.2065    50734.00000
    11.2196    67483.00000
    11.2327    80249.00000
    11.2458    81699.00000
    11.2590    72054.00000
    11.2721    57225.00000
    11.2852    40333.00000
    11.2984    26555.00000
    11.3115    17876.00000
    11.3246    12859.00000
    11.3378    10465.00000
    11.3509     9342.00000
    11.3640     8871.00000
    11.3771     8688.00000
    11.3903     8698.00000
    11.4034     8221.00000
    11.4165     8277.00000
    11.4297     8254.00000
    11.4428     8057.00000
    11.4559     7877.00000
    11.4691     8118.00000
    11.4822     7827.00000
    11.4953     7901.00000
    11.5084     7652.00000
    11.5216     7618.00000
    11.5347     7535.00000
    11.5478     7673.00000
    11.5610     7462.00000
    11.5741     7529.00000
    11.5872     7552.00000
    11.6004     7680.00000
    11.6135     7576.00000
    11.6266     7624.00000
    11.6398     7682.00000
    11.6529     7771.00000
    11.6660     7491.00000
    11.6791     7736.00000
    11.6923     7556.00000
    11.7054     7740.00000
    11.7185     7612.00000
    11.7317     7625.00000
    11.7448     7689.00000
    11.7579     7836.00000
    11.7711     7847.00000
    11.7842     7882.00000
    11.7973     7895.00000
    11.8104     7884.00000
    11.8236     7915.00000
    11.8367     7854.00000
    11.8498     7997.00000
    11.8630     7799.00000
    11.8761     7844.00000
    11.8892     7987.00000
    11.9024     7904.00000
    11.9155     7892.00000
    11.9286     7951.00000
    11.9417     7685.00000
    11.9549     7709.00000
    11.9680     7794.00000
    11.9811     7965.00000
    11.9943     8041.00000
    12.0074     7836.00000
    12.0205     7820.00000
    12.0337     7701.00000
    12.0468     8077.00000
    12.0599     7892.00000
    12.0731     7999.00000
    12.0862     8098.00000
    12.0993     7949.00000
    12.1124     8026.00000
    12.1256     7890.00000
    12.1387     7689.00000
    12.1518     7905.00000
    12.1650     7870.00000
    12.1781     7891.00000
    12.1912     7960.00000
    12.2044     8009.00000
    12.2175     7948.00000
    12.2306     8038.00000
    12.2437     7916.00000
    12.2569     8078.00000
    12.2700     8176.00000
    12.2831     8065.00000
    12.2963     7885.00000
    12.3094     7935.00000
    12.3225     7953.00000
    12.3357     7993.00000
    12.3488     8015.00000
    12.3619     8145.00000
    12.3750     7958.00000
    12.3882     7949.00000
    12.4013     7984.00000
    12.4144     8060.00000
    12.4276     7972.00000
    12.4407     7852.00000
    12.4538     7805.00000
    12.4670     7959.00000
    12.4801     8044.00000
    12.4932     8006.00000
    12.5063     8089.00000
    12.5195     7979.00000
    12.5326     7697.00000
    12.5457     8036.00000
    12.5589     7996.00000
    12.5720     8058.00000
    12.5851     7878.00000
    12.5983     7907.00000
    12.6114     7673.00000
    12.6245     8065.00000
    12.6377     7864.00000
    12.6508     7863.00000
    12.6639     7772.00000
    12.6770     8058.00000
    12.6902     7953.00000
    12.7033     7953.00000
    12.7164     7882.00000
    12.7296     7893.00000
    12.7427     8088.00000
    12.7558     7765.00000
    12.7690     8074.00000
    12.7821     7921.00000
    12.7952     7968.00000
    12.8083     7808.00000
    12.8215     7841.00000
    12.8346     7796.00000
    12.8477     7974.00000
    12.8609     7900.00000
    12.8740     7947.00000
    12.8871     7809.00000
    12.9003     7820.00000
    12.9134     7805.00000
    12.9265     8051.00000
    12.9396     7993.00000
    12.9528     7782.00000
    12.9659     7951.00000
    12.9790     7900.00000
    12.9922     8006.00000
    13.0053     7861.00000
    13.0184     7731.00000
    13.0316     7664.00000
    13.0447     7769.00000
    13.0578     7944.00000
    13.0710     7763.00000
    13.0841     7806.00000
    13.0972     7795.00000
    13.1103     7792.00000
    13.1235     7684.00000
    13.1366     7782.00000
    13.1497     7734.00000
    13.1629     7902.00000
    13.1760     7873.00000
    13.1891     7971.00000
    13.2023     7807.00000
    13.2154     7730.00000
    13.2285     7906.00000
    13.2416     7778.00000
    13.2548     7847.00000
    13.2679     7878.00000
    13.2810     7802.00000
    13.2942     7924.00000
    13.3073     7951.00000
    13.3204     7693.00000
    13.3336     7758.00000
    13.3467     7687.00000
    13.3598     7704.00000
    13.3729     7842.00000
    13.3861     7764.00000
    13.3992     7754.00000
    13.4123     7765.00000
    13.4255     7776.00000
    13.4386     7807.00000
    13.4517     7966.00000
    13.4649     7843.00000
    13.4780     7747.00000
    13.4911     7768.00000
    13.5043     7822.00000
    13.5174     7665.00000
    13.5305     7463.00000
    13.5436     7746.00000
    13.5568     7888.00000
    13.5699     7864.00000
    13.5830     7782.00000
    13.5962     7757.00000
    13.6093     7772.00000
    13.6224     7842.00000
    13.6356     7728.00000
    13.6487     7879.00000
    13.6618     7866.00000
    13.6749     7887.00000
    13.6881     7977.00000
    13.7012     7963.00000
    13.7143     7850.00000
    13.7275     7998.00000
    13.7406     8048.00000
    13.7537     7903.00000
    13.7669     7860.00000
    13.7800     7763.00000
    13.7931     7787.00000
    13.8062     7838.00000
    13.8194     7877.00000
    13.8325     7679.00000
    13.8456     7661.00000
    13.8588     7840.00000
    13.8719     7820.00000
    13.8850     7647.00000
    13.8982     7774.00000
    13.9113     7706.00000
    13.9244     7536.00000
    13.9376     7762.00000
    13.9507     7734.00000
    13.9638     7701.00000
    13.9769     7905.00000
    13.9901     7685.00000
    14.0032     7777.00000
    14.0163     7732.00000
    14.0295     7759.00000
    14.0426     7875.00000
    14.0557     7784.00000
    14.0689     8007.00000
    14.0820     7843.00000
    14.0951     7705.00000
    14.1082     7810.00000
    14.1214     7803.00000
    14.1345     7675.00000
    14.1476     7642.00000
    14.1608     7986.00000
    14.1739     7886.00000
    14.1870     7790.00000
    14.2002     7726.00000
    14.2133     7792.00000
    14.2264     7738.00000
    14.2395     7753.00000
    14.2527     7674.00000
    14.2658     7718.00000
    14.2789     7775.00000
    14.2921     7701.00000
    14.3052     7813.00000
    14.3183     7912.00000
    14.3315     7702.00000
    14.3446     7813.00000
    14.3577     7679.00000
    14.3708     7713.00000
    14.3840     7836.00000
    14.3971     7777.00000
    14.4102     7803.00000
    14.4234     7604.00000
    14.4365     8044.00000
    14.4496     8237.00000
    14.4628     8274.00000
    14.4759     8530.00000
    14.4890     8849.00000
    14.5022     9154.00000
    14.5153     9421.00000
    14.5284     9463.00000
    14.5415     9267.00000
    14.5547     9311.00000
    14.5678     9085.00000
    14.5809     8878.00000
    14.5941     8621.00000
    14.6072     8084.00000
    14.6203     7963.00000
    14.6335     7817.00000
    14.6466     7665.00000
    14.6597     7707.00000
    14.6728     7766.00000
    14.6860     7769.00000
    14.6991     7814.00000
    14.7122     7944.00000
    14.7254     7645.00000
    14.7385     7750.00000
    14.7516     7762.00000
    14.7648     7717.00000
    14.7779     7672.00000
    14.7910     7588.00000
    14.8041     7657.00000
    14.8173     7702.00000
    14.8304     7600.00000
    14.8435     7707.00000
    14.8567     7588.00000
    14.8698     7628.00000
    14.8829     7471.00000
    14.8961     7508.00000
    14.9092     7524.00000
    14.9223     7450.00000
    14.9355     7703.00000
    14.9486     7598.00000
    14.9617     7758.00000
    14.9748     7509.00000
    14.9880     7726.00000
    15.0011     7882.00000
    15.0142     7702.00000
    15.0274     7736.00000
    15.0405     7474.00000
    15.0536     7487.00000
    15.0668     7744.00000
    15.0799     7419.00000
    15.0930     7641.00000
    15.1061     7626.00000
    15.1193     7788.00000
    15.1324     7548.00000
    15.1455     7389.00000
    15.1587     7527.00000
    15.1718     7523.00000
    15.1849     7648.00000
    15.1981     7600.00000
    15.2112     7621.00000
    15.2243     7623.00000
    15.2374     7515.00000
    15.2506     7673.00000
    15.2637     7710.00000
    15.2768     7704.00000
    15.2900     7399.00000
    15.3031     7715.00000
    15.3162     7549.00000
    15.3294     7687.00000
    15.3425     7691.00000
    15.3556     7586.00000
    15.3688     7594.00000
    15.3819     7644.00000
    15.3950     7720.00000
    15.4081     7397.00000
    15.4213     7490.00000
    15.4344     7755.00000
    15.4475     7823.00000
    15.4607     7582.00000
    15.4738     7644.00000
    15.4869     7513.00000
    15.5001     7697.00000
    15.5132     7842.00000
    15.5263     7692.00000
    15.5394     7563.00000
    15.5526     7791.00000
    15.5657     7328.00000
    15.5788     7630.00000
    15.5920     7448.00000
    15.6051     7611.00000
    15.6182     7602.00000
    15.6314     7472.00000
    15.6445     7434.00000
    15.6576     7379.00000
    15.6707     7511.00000
    15.6839     7453.00000
    15.6970     7492.00000
    15.7101     7499.00000
    15.7233     7465.00000
    15.7364     7687.00000
    15.7495     7486.00000
    15.7627     7322.00000
    15.7758     7580.00000
    15.7889     7676.00000
    15.8021     7697.00000
    15.8152     7532.00000
    15.8283     7659.00000
    15.8414     7678.00000
    15.8546     7725.00000
    15.8677     7467.00000
    15.8808     7806.00000
    15.8940     7759.00000
    15.9071     7681.00000
    15.9202     7645.00000
    15.9334     7682.00000
    15.9465     7542.00000
    15.9596     7671.00000
    15.9727     7653.00000
    15.9859     7591.00000
    15.9990     7705.00000
    16.0121     7697.00000
    16.0253     7647.00000
    16.0384     7438.00000
    16.0515     7637.00000
    16.0647     7553.00000
    16.0778     7567.00000
    16.0909     7687.00000
    16.1040     7577.00000
    16.1172     7600.00000
    16.1303     7483.00000
    16.1434     7587.00000
    16.1566     7681.00000
    16.1697     7782.00000
    16.1828     7376.00000
    16.1960     7410.00000
    16.2091     7611.00000
    16.2222     7600.00000
    16.2353     7567.00000
    16.2485     7406.00000
    16.2616     7459.00000
    16.2747     7427.00000
    16.2879     7493.00000
    16.3010     7545.00000
    16.3141     7505.00000
    16.3273     7388.00000
    16.3404     7592.00000
    16.3535     7627.00000
    16.3667     7622.00000
    16.3798     7558.00000
    16.3929     7474.00000
    16.4060     7413.00000
    16.4192     7488.00000
    16.4323     7475.00000
    16.4454     7527.00000
    16.4586     7694.00000
    16.4717     7706.00000
    16.4848     7712.00000
    16.4980     7644.00000
    16.5111     7460.00000
    16.5242     7726.00000
    16.5373     7443.00000
    16.5505     7483.00000
    16.5636     7581.00000
    16.5767     7542.00000
    16.5899     7369.00000
    16.6030     7548.00000
    16.6161     7638.00000
    16.6293     7500.00000
    16.6424     7550.00000
    16.6555     7498.00000
    16.6686     7445.00000
    16.6818     7500.00000
    16.6949     7559.00000
    16.7080     7657.00000
    16.7212     7672.00000
    16.7343     7649.00000
    16.7474     7765.00000
    16.7606     7676.00000
    16.7737     7907.00000
    16.7868     7911.00000
    16.8000     7980.00000
    16.8131     7949.00000
    16.8262     8010.00000
    16.8393     7848.00000
    16.8525     7742.00000
    16.8656     7640.00000
    16.8787     7455.00000
    16.8919     7460.00000
    16.9050     7396.00000
    16.9181     7465.00000
    16.9313     7454.00000
    16.9444     7220.00000
    16.9575     7599.00000
    16.9706     7403.00000
    16.9838     7348.00000
    16.9969     7359.00000
    17.0100     7628.00000
    17.0232     7286.00000
    17.0363     7401.00000
    17.0494     7445.00000
    17.0626     7469.00000
    17.0757     7360.00000
    17.0888     7510.00000
    17.1019     7501.00000
    17.1151     7431.00000
    17.1282     7389.00000
    17.1413     7313.00000
    17.1545     7415.00000
    17.1676     7477.00000
    17.1807     7446.00000
    17.1939     7204.00000
    17.2070     7468.00000
    17.2201     7201.00000
    17.2333     7276.00000
    17.2464     7167.00000
    17.2595     7283.00000
    17.2726     7107.00000
    17.2858     7451.00000
    17.2989     7328.00000
    17.3120     7320.00000
    17.3252     7311.00000
    17.3383     7470.00000
    17.3514     7435.00000
    17.3646     7311.00000
    17.3777     7415.00000
    17.3908     7246.00000
    17.4039     7421.00000
    17.4171     7371.00000
    17.4302     7513.00000
    17.4433     7360.00000
    17.4565     7214.00000
    17.4696     7394.00000
    17.4827     7364.00000
    17.4959     7212.00000
    17.5090     7418.00000
    17.5221     7289.00000
    17.5352     7293.00000
    17.5484     7362.00000
    17.5615     7461.00000
    17.5746     7336.00000
    17.5878     7512.00000
    17.6009     7429.00000
    17.6140     7196.00000
    17.6272     7212.00000
    17.6403     7220.00000
    17.6534     7413.00000
    17.6666     7502.00000
    17.6797     7452.00000
    17.6928     7432.00000
    17.7059     7278.00000
    17.7191     7163.00000
    17.7322     7173.00000
    17.7453     7421.00000
    17.7585     7242.00000
    17.7716     7184.00000
    17.7847     7348.00000
    17.7979     7279.00000
    17.8110     7411.00000
    17.8241     7450.00000
    17.8372     7698.00000
    17.8504     7611.00000
    17.8635     7656.00000
    17.8766     7645.00000
    17.8898     7493.00000
    17.9029     7401.00000
    17.9160     7439.00000
    17.9292     7257.00000
    17.9423     7320.00000
    17.9554     7242.00000
    17.9685     7100.00000
    17.9817     7189.00000
    17.9948     7095.00000
    18.0079     7434.00000
    18.0211     7289.00000
    18.0342     7299.00000
    18.0473     7206.00000
    18.0605     7311.00000
    18.0736     7320.00000
    18.0867     7361.00000
    18.0998     7340.00000
    18.1130     7297.00000
    18.1261     7143.00000
    18.1392     7269.00000
    18.1524     7274.00000
    18.1655     7256.00000
    18.1786     7139.00000
    18.1918     7267.00000
    18.2049     7109.00000
    18.2180     7123.00000
    18.2312     7139.00000
    18.2443     7323.00000
    18.2574     7418.00000
    18.2705     7177.00000
    18.2837     7117.00000
    18.2968     7130.00000
    18.3099     7224.00000
    18.3231     7088.00000
    18.3362     7232.00000
    18.3493     7125.00000
    18.3625     7224.00000
    18.3756     7205.00000
    18.3887     7140.00000
    18.4018     7187.00000
    18.4150     7061.00000
    18.4281     7178.00000
    18.4412     7070.00000
    18.4544     7193.00000
    18.4675     7159.00000
    18.4806     7291.00000
    18.4938     7130.00000
    18.5069     7304.00000
    18.5200     7284.00000
    18.5331     7191.00000
    18.5463     7127.00000
    18.5594     7030.00000
    18.5725     7242.00000
    18.5857     7309.00000
    18.5988     7085.00000
    18.6119     7077.00000
    18.6251     7286.00000
    18.6382     7111.00000
    18.6513     7032.00000
    18.6645     7232.00000
    18.6776     7387.00000
    18.6907     7158.00000
    18.7038     7072.00000
    18.7170     7039.00000
    18.7301     7037.00000
    18.7432     7231.00000
    18.7564     7174.00000
    18.7695     7143.00000
    18.7826     7078.00000
    18.7958     7256.00000
    18.8089     7107.00000
    18.8220     7103.00000
    18.8351     7067.00000
    18.8483     7080.00000
    18.8614     7208.00000
    18.8745     7075.00000
    18.8877     7360.00000
    18.9008     7246.00000
    18.9139     7131.00000
    18.9271     7158.00000
    18.9402     7084.00000
    18.9533     7054.00000
    18.9664     7111.00000
    18.9796     7028.00000
    18.9927     6996.00000
    19.0058     7206.00000
    19.0190     7217.00000
    19.0321     7186.00000
    19.0452     7124.00000
    19.0584     7337.00000
    19.0715     7315.00000
    19.0846     7271.00000
    19.0978     7444.00000
    19.1109     7722.00000
    19.1240     7604.00000
    19.1371     7627.00000
    19.1503     7639.00000
    19.1634     7690.00000
    19.1765     7713.00000
    19.1897     7527.00000
    19.2028     7914.00000
    19.2159     7647.00000
    19.2291     7766.00000
    19.2422     7596.00000
    19.2553     7832.00000
    19.2684     7699.00000
    19.2816     7592.00000
    19.2947     7642.00000
    19.3078     7677.00000
    19.3210     7540.00000
    19.3341     7584.00000
    19.3472     7746.00000
    19.3604     7735.00000
    19.3735     7757.00000
    19.3866     7499.00000
    19.3997     7455.00000
    19.4129     7633.00000
    19.4260     7768.00000
    19.4391     7941.00000
    19.4523     7806.00000
    19.4654     7772.00000
    19.4785     7969.00000
    19.4917     7902.00000
    19.5048     7875.00000
    19.5179     8024.00000
    19.5311     8023.00000
    19.5442     8065.00000
    19.5573     8098.00000
    19.5704     8264.00000
    19.5836     8623.00000
    19.5967     8478.00000
    19.6098     8626.00000
    19.6230     9077.00000
    19.6361     9304.00000
    19.6492     9424.00000
    19.6624    10168.00000
    19.6755    11073.00000
    19.6886    12811.00000
    19.7017    15197.00000
    19.7149    18933.00000
    19.7280    25658.00000
    19.7411    36432.00000
    19.7543    51503.00000
    19.7674    70052.00000
    19.7805    87569.00000
    19.7937   100036.00000
    19.8068    98418.00000
    19.8199    87099.00000
    19.8330    74294.00000
    19.8462    62447.00000
    19.8593    49138.00000
    19.8724    34626.00000
    19.8856    23801.00000
    19.8987    17231.00000
    19.9118    13015.00000
    19.9250    11026.00000
    19.9381    10282.00000
    19.9512     9793.00000
    19.9643     9530.00000
    19.9775     9008.00000
    19.9906     9050.00000
    20.0037     8767.00000
    20.0169     8572.00000
    20.0300     8478.00000
    20.0431     8400.00000
    20.0563     8088.00000
    20.0694     8113.00000
    20.0825     7892.00000
    20.0957     7888.00000
    20.1088     7615.00000
    20.1219     7742.00000
    20.1350     7826.00000
    20.1482     7712.00000
    20.1613     7631.00000
    20.1744     7682.00000
    20.1876     7608.00000
    20.2007     7529.00000
    20.2138     7641.00000
    20.2270     7615.00000
    20.2401     7666.00000
    20.2532     7563.00000
    20.2663     7424.00000
    20.2795     7486.00000
    20.2926     7477.00000
    20.3057     7524.00000
    20.3189     7725.00000
    20.3320     7450.00000
    20.3451     7471.00000
    20.3583     7634.00000
    20.3714     7582.00000
    20.3845     7617.00000
    20.3976     7690.00000
    20.4108     7536.00000
    20.4239     7403.00000
    20.4370     7524.00000
    20.4502     7524.00000
    20.4633     7285.00000
    20.4764     7404.00000
    20.4896     7274.00000
    20.5027     7303.00000
    20.5158     7403.00000
    20.5290     7510.00000
    20.5421     7557.00000
    20.5552     7273.00000
    20.5683     7112.00000
    20.5815     7545.00000
    20.5946     7420.00000
    20.6077     7409.00000
    20.6209     7478.00000
    20.6340     7394.00000
    20.6471     7588.00000
    20.6603     7307.00000
    20.6734     7370.00000
    20.6865     7424.00000
    20.6996     7318.00000
    20.7128     7240.00000
    20.7259     7383.00000
    20.7390     7600.00000
    20.7522     7436.00000
    20.7653     7419.00000
    20.7784     7504.00000
    20.7916     7337.00000
    20.8047     7454.00000
    20.8178     7579.00000
    20.8309     7394.00000
    20.8441     7448.00000
    20.8572     7488.00000
    20.8703     7481.00000
    20.8835     7385.00000
    20.8966     7381.00000
    20.9097     7374.00000
    20.9229     7447.00000
    20.9360     7469.00000
    20.9491     7332.00000
    20.9623     7320.00000
    20.9754     7287.00000
    20.9885     7366.00000
    21.0016     7437.00000
    21.0148     7352.00000
    21.0279     7322.00000
    21.0410     7234.00000
    21.0542     7142.00000
    21.0673     7278.00000
    21.0804     7288.00000
    21.0936     7293.00000
    21.1067     7535.00000
    21.1198     7483.00000
    21.1329     7280.00000
    21.1461     7336.00000
    21.1592     7414.00000
    21.1723     7302.00000
    21.1855     7373.00000
    21.1986     7232.00000
    21.2117     7324.00000
    21.2249     7430.00000
    21.2380     7431.00000
    21.2511     7317.00000
    21.2642     7302.00000
    21.2774     7456.00000
    21.2905     7328.00000
    21.3036     7234.00000
    21.3168     7412.00000
    21.3299     7439.00000
    21.3430     7470.00000
    21.3562     7563.00000
    21.3693     7340.00000
    21.3824     7374.00000
    21.3956     7412.00000
    21.4087     7349.00000
    21.4218     7441.00000
    21.4349     7336.00000
    21.4481     7213.00000
    21.4612     7386.00000
    21.4743     7507.00000
    21.4875     7533.00000
    21.5006     7419.00000
    21.5137     7453.00000
    21.5269     7510.00000
    21.5400     7380.00000
    21.5531     7289.00000
    21.5662     7507.00000
    21.5794     7435.00000
    21.5925     7353.00000
    21.6056     7425.00000
    21.6188     7438.00000
    21.6319     7384.00000
    21.6450     7361.00000
    21.6582     7531.00000
    21.6713     7408.00000
    21.6844     7376.00000
    21.6975     7387.00000
    21.7107     7376.00000
    21.7238     7376.00000
    21.7369     7443.00000
    21.7501     7458.00000
    21.7632     7389.00000
    21.7763     7422.00000
    21.7895     7514.00000
    21.8026     7434.00000
    21.8157     7695.00000
    21.8288     7727.00000
    21.8420     7439.00000
    21.8551     7571.00000
    21.8682     7437.00000
    21.8814     7457.00000
    21.8945     7559.00000
    21.9076     7556.00000
    21.9208     7512.00000
    21.9339     7434.00000
    21.9470     7546.00000
    21.9602     7172.00000
    21.9733     7256.00000
    21.9864     7371.00000
    21.9995     7452.00000
    22.0127     7462.00000
    22.0258     7320.00000
    22.0389     7406.00000
    22.0521     7318.00000
    22.0652     7414.00000
    22.0783     7538.00000
    22.0915     7316.00000
    22.1046     7234.00000
    22.1177     7316.00000
    22.1308     7268.00000
    22.1440     7385.00000
    22.1571     7361.00000
    22.1702     7452.00000
    22.1834     7435.00000
    22.1965     7477.00000
    22.2096     7519.00000
    22.2228     7435.00000
    22.2359     7267.00000
    22.2490     7424.00000
    22.2621     7576.00000
    22.2753     7524.00000
    22.2884     7356.00000
    22.3015     7507.00000
    22.3147     7605.00000
    22.3278     7668.00000
    22.3409     7651.00000
    22.3541     7449.00000
    22.3672     7575.00000
    22.3803     7661.00000
    22.3935     7822.00000
    22.4066     7840.00000
    22.4197     7895.00000
    22.4328     8081.00000
    22.4460     8250.00000
    22.4591     8743.00000
    22.4722     8935.00000
    22.4854    10286.00000
    22.4985    12102.00000
    22.5116    15429.00000
    22.5248    20889.00000
    22.5379    27021.00000
    22.5510    33104.00000
    22.5641    34782.00000
    22.5773    31840.00000
    22.5904    28432.00000
    22.6035    25921.00000
    22.6167    23106.00000
    22.6298    19731.00000
    22.6429    15981.00000
    22.6561    12831.00000
    22.6692    10211.00000
    22.6823     8850.00000
    22.6954     8321.00000
    22.7086     8069.00000
    22.7217     7927.00000
    22.7348     7965.00000
    22.7480     8025.00000
    22.7611     7648.00000
    22.7742     7861.00000
    22.7874     7687.00000
    22.8005     7703.00000
    22.8136     7545.00000
    22.8268     7541.00000
    22.8399     7530.00000
    22.8530     7473.00000
    22.8661     7453.00000
    22.8793     7279.00000
    22.8924     7563.00000
    22.9055     7269.00000
    22.9187     7217.00000
    22.9318     7415.00000
    22.9449     7293.00000
    22.9581     7275.00000
    22.9712     7386.00000
    22.9843     7520.00000
    22.9974     7423.00000
    23.0106     7433.00000
    23.0237     7411.00000
    23.0368     7371.00000
    23.0500     7533.00000
    23.0631     7461.00000
    23.0762     7521.00000
    23.0894     7334.00000
    23.1025     7467.00000
    23.1156     7338.00000
    23.1287     7442.00000
    23.1419     7463.00000
    23.1550     7580.00000
    23.1681     7446.00000
    23.1813     7584.00000
    23.1944     7328.00000
    23.2075     7707.00000
    23.2207     7483.00000
    23.2338     7467.00000
    23.2469     7589.00000
    23.2601     7449.00000
    23.2732     7355.00000
    23.2863     7396.00000
    23.2994     7445.00000
    23.3126     7540.00000
    23.3257     7465.00000
    23.3388     7565.00000
    23.3520     7494.00000
    23.3651     7459.00000
    23.3782     7363.00000
    23.3914     7422.00000
    23.4045     7546.00000
    23.4176     7283.00000
    23.4307     7501.00000
    23.4439     7550.00000
    23.4570     7679.00000
    23.4701     7392.00000
    23.4833     7442.00000
    23.4964     7453.00000
    23.5095     7502.00000
    23.5227     7557.00000
    23.5358     7439.00000
    23.5489     7494.00000
    23.5620     7725.00000
    23.5752     7608.00000
    23.5883     7602.00000
    23.6014     7692.00000
    23.6146     7506.00000
    23.6277     7778.00000
    23.6408     7755.00000
    23.6540     7917.00000
    23.6671     7980.00000
    23.6802     8122.00000
    23.6933     8208.00000
    23.7065     8477.00000
    23.7196     8671.00000
    23.7327     9223.00000
    23.7459    10450.00000
    23.7590    12832.00000
    23.7721    15998.00000
    23.7853    21509.00000
    23.7984    26595.00000
    23.8115    30311.00000
    23.8247    31274.00000
    23.8378    27230.00000
    23.8509    23538.00000
    23.8640    21576.00000
    23.8772    20546.00000
    23.8903    18278.00000
    23.9034    14479.00000
    23.9166    11705.00000
    23.9297    10250.00000
    23.9428     9597.00000
    23.9560     9600.00000
    23.9691     9513.00000
    23.9822     9885.00000
    23.9953    10972.00000
    24.0085    12327.00000
    24.0216    15096.00000
    24.0347    20029.00000
    24.0479    27100.00000
    24.0610    35432.00000
    24.0741    40106.00000
    24.0873    39354.00000
    24.1004    34330.00000
    24.1135    30396.00000
    24.1266    28040.00000
    24.1398    25432.00000
    24.1529    21252.00000
    24.1660    17003.00000
    24.1792    13109.00000
    24.1923    10739.00000
    24.2054     9420.00000
    24.2186     8586.00000
    24.2317     8376.00000
    24.2448     8241.00000
    24.2580     7959.00000
    24.2711     8004.00000
    24.2842     8059.00000
    24.2973     7823.00000
    24.3105     7939.00000
    24.3236     7974.00000
    24.3367     8072.00000
    24.3499     8158.00000
    24.3630     7975.00000
    24.3761     7969.00000
    24.3893     7850.00000
    24.4024     7787.00000
    24.4155     7638.00000
    24.4286     7634.00000
    24.4418     7564.00000
    24.4549     7472.00000
    24.4680     7462.00000
    24.4812     7393.00000
    24.4943     7373.00000
    24.5074     7386.00000
    24.5206     7499.00000
    24.5337     7449.00000
    24.5468     7565.00000
    24.5599     7486.00000
    24.5731     7338.00000
    24.5862     7481.00000
    24.5993     7448.00000
    24.6125     7392.00000
    24.6256     7420.00000
    24.6387     7448.00000
    24.6519     7433.00000
    24.6650     7473.00000
    24.6781     7337.00000
    24.6913     7277.00000
    24.7044     7212.00000
    24.7175     7279.00000
    24.7306     7435.00000
    24.7438     7246.00000
    24.7569     7462.00000
    24.7700     7565.00000
    24.7832     7521.00000
    24.7963     7234.00000
    24.8094     7218.00000
    24.8226     7344.00000
    24.8357     7333.00000
    24.8488     7254.00000
    24.8619     7299.00000
    24.8751     7244.00000
    24.8882     7285.00000
    24.9013     7258.00000
    24.9145     7419.00000
    24.9276     7351.00000
    24.9407     7383.00000
    24.9539     7241.00000
    24.9670     7275.00000
    24.9801     7406.00000
    24.9932     7324.00000
    25.0064     7531.00000
    25.0195     7448.00000
    25.0326     7216.00000
    25.0458     7246.00000
    25.0589     7359.00000
    25.0720     7376.00000
    25.0852     7387.00000
    25.0983     7316.00000
    25.1114     7278.00000
    25.1246     7211.00000
    25.1377     7296.00000
    25.1508     7506.00000
    25.1639     7454.00000
    25.1771     7683.00000
    25.1902     7682.00000
    25.2033     7649.00000
    25.2165     7505.00000
    25.2296     7430.00000
    25.2427     7176.00000
    25.2559     7299.00000
    25.2690     7334.00000
    25.2821     7376.00000
    25.2952     7146.00000
    25.3084     7525.00000
    25.3215     7174.00000
    25.3346     7270.00000
    25.3478     7329.00000
    25.3609     7220.00000
    25.3740     7179.00000
    25.3872     7263.00000
    25.4003     7362.00000
    25.4134     7373.00000
    25.4265     7161.00000
    25.4397     7226.00000
    25.4528     7096.00000
    25.4659     7297.00000
    25.4791     7238.00000
    25.4922     7338.00000
    25.5053     7124.00000
    25.5185     7371.00000
    25.5316     7353.00000
    25.5447     7247.00000
    25.5579     7266.00000
    25.5710     7247.00000
    25.5841     7235.00000
    25.5972     7325.00000
    25.6104     7114.00000
    25.6235     7292.00000
    25.6366     7401.00000
    25.6498     7271.00000
    25.6629     7248.00000
    25.6760     7550.00000
    25.6892     7267.00000
    25.7023     7278.00000
    25.7154     7194.00000
    25.7285     7233.00000
    25.7417     7173.00000
    25.7548     7230.00000
    25.7679     7196.00000
    25.7811     7325.00000
    25.7942     7369.00000
    25.8073     7385.00000
    25.8205     7130.00000
    25.8336     7267.00000
    25.8467     7326.00000
    25.8598     7297.00000
    25.8730     7311.00000
    25.8861     7084.00000
    25.8992     7374.00000
    25.9124     7358.00000
    25.9255     7337.00000
    25.9386     7238.00000
    25.9518     7367.00000
    25.9649     7298.00000
    25.9780     7381.00000
    25.9911     7381.00000
    26.0043     7190.00000
    26.0174     7502.00000
    26.0305     7488.00000
    26.0437     7294.00000
    26.0568     7446.00000
    26.0699     7036.00000
    26.0831     7312.00000
    26.0962     7340.00000
    26.1093     7375.00000
    26.1225     7312.00000
    26.1356     7160.00000
    26.1487     7370.00000
    26.1618     7335.00000
    26.1750     7246.00000
    26.1881     7150.00000
    26.2012     6984.00000
    26.2144     7257.00000
    26.2275     7219.00000
    26.2406     7117.00000
    26.2538     7277.00000
    26.2669     7404.00000
    26.2800     7290.00000
    26.2931     7323.00000
    26.3063     7187.00000
    26.3194     7371.00000
    26.3325     7029.00000
    26.3457     7135.00000
    26.3588     7320.00000
    26.3719     7077.00000
    26.3851     7342.00000
    26.3982     7224.00000
    26.4113     7200.00000
    26.4244     7029.00000
    26.4376     7156.00000
    26.4507     7167.00000
    26.4638     7192.00000
    26.4770     7292.00000
    26.4901     6956.00000
    26.5032     7011.00000
    26.5164     7187.00000
    26.5295     7128.00000
    26.5426     7035.00000
    26.5558     7105.00000
    26.5689     7083.00000
    26.5820     7244.00000
    26.5951     7114.00000
    26.6083     7108.00000
    26.6214     7265.00000
    26.6345     7170.00000
    26.6477     7102.00000
    26.6608     7066.00000
    26.6739     7183.00000
    26.6871     7028.00000
    26.7002     6989.00000
    26.7133     6964.00000
    26.7264     7087.00000
    26.7396     7265.00000
    26.7527     7123.00000
    26.7658     7126.00000
    26.7790     7043.00000
    26.7921     6980.00000
    26.8052     7174.00000
    26.8184     7002.00000
    26.8315     6964.00000
    26.8446     6916.00000
    26.8577     7006.00000
    26.8709     6993.00000
    26.8840     7029.00000
    26.8971     7053.00000
    26.9103     7168.00000
    26.9234     7111.00000
    26.9365     7262.00000
    26.9497     7370.00000
    26.9628     7513.00000
    26.9759     7480.00000
    26.9891     7537.00000
    27.0022     7716.00000
    27.0153     7458.00000
    27.0284     7530.00000
    27.0416     7621.00000
    27.0547     7364.00000
    27.0678     7369.00000
    27.0810     7394.00000
    27.0941     7437.00000
    27.1072     7355.00000
    27.1204     7419.00000
    27.1335     7394.00000
    27.1466     7380.00000
    27.1597     7405.00000
    27.1729     7349.00000
    27.1860     7330.00000
    27.1991     7385.00000
    27.2123     7376.00000
    27.2254     7419.00000
    27.2385     7355.00000
    27.2517     7462.00000
    27.2648     7338.00000
    27.2779     7413.00000
    27.2910     7345.00000
    27.3042     7479.00000
    27.3173     7508.00000
    27.3304     7428.00000
    27.3436     7389.00000
    27.3567     7516.00000
    27.3698     7330.00000
    27.3830     7369.00000
    27.3961     7508.00000
    27.4092     7393.00000
    27.4224     7449.00000
    27.4355     7392.00000
    27.4486     7348.00000
    27.4617     7383.00000
    27.4749     7440.00000
    27.4880     7459.00000
    27.5011     7423.00000
    27.5143     7354.00000
    27.5274     7381.00000
    27.5405     7337.00000
    27.5537     7502.00000
    27.5668     7539.00000
    27.5799     7785.00000
    27.5930     7646.00000
    27.6062     7710.00000
    27.6193     7814.00000
    27.6324     7966.00000
    27.6456     8038.00000
    27.6587     8092.00000
    27.6718     8200.00000
    27.6850     8632.00000
    27.6981     8666.00000
    27.7112     8851.00000
    27.7243     8950.00000
    27.7375     9213.00000
    27.7506     9468.00000
    27.7637     9732.00000
    27.7769    10323.00000
    27.7900    10983.00000
    27.8031    11646.00000
    27.8163    12791.00000
    27.8294    14824.00000
    27.8425    18109.00000
    27.8556    24325.00000
    27.8688    34099.00000
    27.8819    49561.00000
    27.8950    70178.00000
    27.9082    87479.00000
    27.9213    94179.00000
    27.9344    88932.00000
    27.9476    77122.00000
    27.9607    66356.00000
    27.9738    61756.00000
    27.9870    58805.00000
    28.0001    52270.00000
    28.0132    42724.00000
    28.0263    31968.00000
    28.0395    23101.00000
    28.0526    17340.00000
    28.0657    14093.00000
    28.0789    12796.00000
    28.0920    11552.00000
    28.1051    10794.00000
    28.1183    10262.00000
    28.1314     9657.00000
    28.1445     9478.00000
    28.1576     8904.00000
    28.1708     8668.00000
    28.1839     8547.00000
    28.1970     8402.00000
    28.2102     8262.00000
    28.2233     8038.00000
    28.2364     8022.00000
    28.2496     7881.00000
    28.2627     7715.00000
    28.2758     7855.00000
    28.2889     7749.00000
    28.3021     7718.00000
    28.3152     7543.00000
    28.3283     7658.00000
    28.3415     7660.00000
    28.3546     7565.00000
    28.3677     7668.00000
    28.3809     8024.00000
    28.3940     7859.00000
    28.4071     7827.00000
    28.4203     7719.00000
    28.4334     7820.00000
    28.4465     7857.00000
    28.4596     7868.00000
    28.4728     7860.00000
    28.4859     7983.00000
    28.4990     8134.00000
    28.5122     8298.00000
    28.5253     8586.00000
    28.5384     8475.00000
    28.5516     8295.00000
    28.5647     8140.00000
    28.5778     8002.00000
    28.5909     8080.00000
    28.6041     8076.00000
    28.6172     7973.00000
    28.6303     7941.00000
    28.6435     7592.00000
    28.6566     7666.00000
    28.6697     7727.00000
    28.6829     7336.00000
    28.6960     7540.00000
    28.7091     7588.00000
    28.7222     7592.00000
    28.7354     7693.00000
    28.7485     7664.00000
    28.7616     7879.00000
    28.7748     7899.00000
    28.7879     7968.00000
    28.8010     7863.00000
    28.8142     7992.00000
    28.8273     8361.00000
    28.8404     8511.00000
    28.8536     8775.00000
    28.8667     9274.00000
    28.8798    10420.00000
    28.8929    11740.00000
    28.9061    15123.00000
    28.9192    21054.00000
    28.9323    29579.00000
    28.9455    36188.00000
    28.9586    38473.00000
    28.9717    34684.00000
    28.9849    29008.00000
    28.9980    25353.00000
    29.0111    24725.00000
    29.0242    24457.00000
    29.0374    22905.00000
    29.0505    19744.00000
    29.0636    15273.00000
    29.0768    12313.00000
    29.0899    10540.00000
    29.1030     9848.00000
    29.1162     9549.00000
    29.1293    10012.00000
    29.1424    10621.00000
    29.1555    12254.00000
    29.1687    13535.00000
    29.1818    14814.00000
    29.1949    15247.00000
    29.2081    14542.00000
    29.2212    13997.00000
    29.2343    13738.00000
    29.2475    14028.00000
    29.2606    14177.00000
    29.2737    13939.00000
    29.2869    13473.00000
    29.3000    12667.00000
    29.3131    12167.00000
    29.3262    11195.00000
    29.3394    10919.00000
    29.3525    10344.00000
    29.3656     9856.00000
    29.3788     9622.00000
    29.3919     9133.00000
    29.4050     8905.00000
    29.4182     8230.00000
    29.4313     8047.00000
    29.4444     7687.00000
    29.4575     7722.00000
    29.4707     7751.00000
    29.4838     7580.00000
    29.4969     7323.00000
    29.5101     7208.00000
    29.5232     7296.00000
    29.5363     7265.00000
    29.5495     7232.00000
    29.5626     7276.00000
    29.5757     7273.00000
    29.5888     7120.00000
    29.6020     7123.00000
    29.6151     7274.00000
    29.6282     7083.00000
    29.6414     7108.00000
    29.6545     7056.00000
    29.6676     7164.00000
    29.6808     7130.00000
    29.6939     7274.00000
    29.7070     7300.00000
    29.7201     6939.00000
    29.7333     7096.00000
    29.7464     7111.00000
    29.7595     7264.00000
    29.7727     7283.00000
    29.7858     7252.00000
    29.7989     7126.00000
    29.8121     7321.00000
    29.8252     7240.00000
    29.8383     7044.00000
    29.8515     7199.00000
    29.8646     7097.00000
    29.8777     7098.00000
    29.8908     7051.00000
    29.9040     7117.00000
    29.9171     7126.00000
    29.9302     6999.00000
    29.9434     7011.00000
    29.9565     6938.00000
    29.9696     7021.00000
    29.9828     6958.00000
    29.9959     7066.00000
    30.0090     7108.00000
    30.0221     6964.00000
    30.0353     6899.00000
    30.0484     6937.00000
    30.0615     7122.00000
    30.0747     7074.00000
    30.0878     7038.00000
    30.1009     6971.00000
    30.1141     7012.00000
    30.1272     7166.00000
    30.1403     7154.00000
    30.1535     7202.00000
    30.1666     6996.00000
    30.1797     7018.00000
    30.1928     7002.00000
    30.2060     6967.00000
    30.2191     6988.00000
    30.2322     7046.00000
    30.2454     6876.00000
    30.2585     6971.00000
    30.2716     6933.00000
    30.2848     6944.00000
    30.2979     7011.00000
    30.3110     6856.00000
    30.3241     7089.00000
    30.3373     6834.00000
    30.3504     7120.00000
    30.3635     7201.00000
    30.3767     7060.00000
    30.3898     6867.00000
    30.4029     7059.00000
    30.4161     6923.00000
    30.4292     6959.00000
    30.4423     6867.00000
    30.4554     6976.00000
    30.4686     7019.00000
    30.4817     6856.00000
    30.4948     7048.00000
    30.5080     7186.00000
    30.5211     7034.00000
    30.5342     6889.00000
    30.5474     7061.00000
    30.5605     7019.00000
    30.5736     7010.00000
    30.5868     6930.00000
    30.5999     6968.00000
    30.6130     6828.00000
    30.6261     6953.00000
    30.6393     7012.00000
    30.6524     6879.00000
    30.6655     6935.00000
    30.6787     6928.00000
    30.6918     7080.00000
    30.7049     6963.00000
    30.7181     6971.00000
    30.7312     7035.00000
    30.7443     6802.00000
    30.7574     7004.00000
    30.7706     7008.00000
    30.7837     7044.00000
    30.7968     6869.00000
    30.8100     6839.00000
    30.8231     6720.00000
    30.8362     6884.00000
    30.8494     6833.00000
    30.8625     6770.00000
    30.8756     6882.00000
    30.8887     6859.00000
    30.9019     6958.00000
    30.9150     6885.00000
    30.9281     6786.00000
    30.9413     6841.00000
    30.9544     6954.00000
    30.9675     6917.00000
    30.9807     7059.00000
    30.9938     6930.00000
    31.0069     6884.00000
    31.0200     7021.00000
    31.0332     6663.00000
    31.0463     6910.00000
    31.0594     6854.00000
    31.0726     6629.00000
    31.0857     6894.00000
    31.0988     6973.00000
    31.1120     6950.00000
    31.1251     6941.00000
    31.1382     6963.00000
    31.1514     6961.00000
    31.1645     6954.00000
    31.1776     6855.00000
    31.1907     6855.00000
    31.2039     6986.00000
    31.2170     6908.00000
    31.2301     6944.00000
    31.2433     7053.00000
    31.2564     6797.00000
    31.2695     6798.00000
    31.2827     6804.00000
    31.2958     6944.00000
    31.3089     6990.00000
    31.3220     6746.00000
    31.3352     6949.00000
    31.3483     6781.00000
    31.3614     6807.00000
    31.3746     6859.00000
    31.3877     6869.00000
    31.4008     6791.00000
    31.4140     7053.00000
    31.4271     6920.00000
    31.4402     6863.00000
    31.4533     6688.00000
    31.4665     6717.00000
    31.4796     6910.00000
    31.4927     6893.00000
    31.5059     6888.00000
    31.5190     6779.00000
    31.5321     6883.00000
    31.5453     6992.00000
    31.5584     6990.00000
    31.5715     6818.00000
    31.5847     6821.00000
    31.5978     6860.00000
    31.6109     6825.00000
    31.6240     6717.00000
    31.6372     6758.00000
    31.6503     6826.00000
    31.6634     6872.00000
    31.6766     6954.00000
    31.6897     6853.00000
    31.7028     6747.00000
    31.7160     7021.00000
    31.7291     6891.00000
    31.7422     7118.00000
    31.7553     6946.00000
    31.7685     7011.00000
    31.7816     6806.00000
    31.7947     6671.00000
    31.8079     6917.00000
    31.8210     6980.00000
    31.8341     6987.00000
    31.8473     6832.00000
    31.8604     6921.00000
    31.8735     6810.00000
    31.8866     6767.00000
    31.8998     6782.00000
    31.9129     6874.00000
    31.9260     6929.00000
    31.9392     6853.00000
    31.9523     6799.00000
    31.9654     6719.00000
    31.9786     6900.00000
    31.9917     6895.00000
    32.0048     6868.00000
    32.0180     6968.00000
    32.0311     7064.00000
    32.0442     6728.00000
    32.0573     6861.00000
    32.0705     6908.00000
    32.0836     6793.00000
    32.0967     6874.00000
    32.1099     6917.00000
    32.1230     6971.00000
    32.1361     6872.00000
    32.1493     6889.00000
    32.1624     6755.00000
    32.1755     7036.00000
    32.1886     6770.00000
    32.2018     6951.00000
    32.2149     6859.00000
    32.2280     7059.00000
    32.2412     6778.00000
    32.2543     6983.00000
    32.2674     6964.00000
    32.2806     7051.00000
    32.2937     6973.00000
    32.3068     6766.00000
    32.3199     6984.00000
    32.3331     7074.00000
    32.3462     6817.00000
    32.3593     7008.00000
    32.3725     7053.00000
    32.3856     6924.00000
    32.3987     6933.00000
    32.4119     6905.00000
    32.4250     6965.00000
    32.4381     6901.00000
    32.4512     6818.00000
    32.4644     6988.00000
    32.4775     6841.00000
    32.4906     6945.00000
    32.5038     6774.00000
    32.5169     7017.00000
    32.5300     6875.00000
    32.5432     6898.00000
    32.5563     6963.00000
    32.5694     6819.00000
    32.5826     7169.00000
    32.5957     6965.00000
    32.6088     7037.00000
    32.6219     7053.00000
    32.6351     6968.00000
    32.6482     7121.00000
    32.6613     7080.00000
    32.6745     6942.00000
    32.6876     7192.00000
    32.7007     7245.00000
    32.7139     7165.00000
    32.7270     7323.00000
    32.7401     7603.00000
    32.7532     8289.00000
    32.7664     9332.00000
    32.7795    10770.00000
    32.7926    12879.00000
    32.8058    15066.00000
    32.8189    16101.00000
    32.8320    15116.00000
    32.8452    13356.00000
    32.8583    12056.00000
    32.8714    11549.00000
    32.8845    11848.00000
    32.8977    12241.00000
    32.9108    12114.00000
    32.9239    11329.00000
    32.9371    11309.00000
    32.9502    11526.00000
    32.9633    13490.00000
    32.9765    16410.00000
    32.9896    19941.00000
    33.0027    20671.00000
    33.0159    19127.00000
    33.0290    15980.00000
    33.0421    14150.00000
    33.0552    13267.00000
    33.0684    13921.00000
    33.0815    14333.00000
    33.0946    13622.00000
    33.1078    11946.00000
    33.1209    10188.00000
    33.1340     9075.00000
    33.1472     8058.00000
    33.1603     7764.00000
    33.1734     7522.00000
    33.1865     7357.00000
    33.1997     7153.00000
    33.2128     7101.00000
    33.2259     7212.00000
    33.2391     7288.00000
    33.2522     7158.00000
    33.2653     7057.00000
    33.2785     6874.00000
    33.2916     7065.00000
    33.3047     7027.00000
    33.3178     7033.00000
    33.3310     7078.00000
    33.3441     7011.00000
    33.3572     6889.00000
    33.3704     7040.00000
    33.3835     7009.00000
    33.3966     6974.00000
    33.4098     7080.00000
    33.4229     7126.00000
    33.4360     7222.00000
    33.4492     7143.00000
    33.4623     7189.00000
    33.4754     7453.00000
    33.4885     7492.00000
    33.5017     7826.00000
    33.5148     8201.00000
    33.5279     9091.00000
    33.5411    10475.00000
    33.5542    12362.00000
    33.5673    14375.00000
    33.5805    15360.00000
    33.5936    15316.00000
    33.6067    14420.00000
    33.6198    12837.00000
    33.6330    11650.00000
    33.6461    11664.00000
    33.6592    11614.00000
    33.6724    11669.00000
    33.6855    10984.00000
    33.6986    10181.00000
    33.7118     9044.00000
    33.7249     7998.00000
    33.7380     7466.00000
    33.7511     7476.00000
    33.7643     7193.00000
    33.7774     7095.00000
    33.7905     7257.00000
    33.8037     7155.00000
    33.8168     7020.00000
    33.8299     7028.00000
    33.8431     7311.00000
    33.8562     7302.00000
    33.8693     7058.00000
    33.8825     7209.00000
    33.8956     7411.00000
    33.9087     7539.00000
    33.9218     7563.00000
    33.9350     7664.00000
    33.9481     7834.00000
    33.9612     7764.00000
    33.9744     7703.00000
    33.9875     7700.00000
    34.0006     7825.00000
    34.0138     7681.00000
    34.0269     7935.00000
    34.0400     8079.00000
    34.0531     8245.00000
    34.0663     9381.00000
    34.0794    10900.00000
    34.0925    13277.00000
    34.1057    14435.00000
    34.1188    14271.00000
    34.1319    12538.00000
    34.1451    11179.00000
    34.1582    10163.00000
    34.1713    10090.00000
    34.1844    10755.00000
    34.1976    11128.00000
    34.2107    10357.00000
    34.2238     9142.00000
    34.2370     8453.00000
    34.2501     7903.00000
    34.2632     7391.00000
    34.2764     7072.00000
    34.2895     7090.00000
    34.3026     7087.00000
    34.3158     6926.00000
    34.3289     6736.00000
    34.3420     6976.00000
    34.3551     6910.00000
    34.3683     6827.00000
    34.3814     6685.00000
    34.3945     6683.00000
    34.4077     6868.00000
    34.4208     6874.00000
    34.4339     6761.00000
    34.4471     6775.00000
    34.4602     6761.00000
    34.4733     6520.00000
    34.4864     6812.00000
    34.4996     6624.00000
    34.5127     6589.00000
    34.5258     6870.00000
    34.5390     6849.00000
    34.5521     6586.00000
    34.5652     6846.00000
    34.5784     6810.00000
    34.5915     6751.00000
    34.6046     6709.00000
    34.6177     6851.00000
    34.6309     6910.00000
    34.6440     6974.00000
    34.6571     6885.00000
    34.6703     6792.00000
    34.6834     6878.00000
    34.6965     7035.00000
    34.7097     7291.00000
    34.7228     7694.00000
    34.7359     8595.00000
    34.7491     9772.00000
    34.7622    11223.00000
    34.7753    12078.00000
    34.7884    12314.00000
    34.8016    11616.00000
    34.8147    10546.00000
    34.8278     9807.00000
    34.8410     9562.00000
    34.8541     9640.00000
    34.8672     9529.00000
    34.8804     9505.00000
    34.8935     8907.00000
    34.9066     8494.00000
    34.9197     7760.00000
    34.9329     7464.00000
    34.9460     7271.00000
    34.9591     7293.00000
    34.9723     7200.00000
    34.9854     7588.00000
    34.9985     7608.00000
    35.0117     7391.00000
    35.0248     7215.00000
    35.0379     6871.00000
    35.0510     6947.00000
    35.0642     6933.00000
    35.0773     7204.00000
    35.0904     7025.00000
    35.1036     6935.00000
    35.1167     6791.00000
    35.1298     6656.00000
    35.1430     6827.00000
    35.1561     6681.00000
    35.1692     6592.00000
    35.1824     6703.00000
    35.1955     6549.00000
    35.2086     6548.00000
    35.2217     6754.00000
    35.2349     6665.00000
    35.2480     6797.00000
    35.2611     6710.00000
    35.2743     6719.00000
    35.2874     6725.00000
    35.3005     6710.00000
    35.3137     6520.00000
    35.3268     6658.00000
    35.3399     6553.00000
    35.3530     6638.00000
    35.3662     6579.00000
    35.3793     6520.00000
    35.3924     6728.00000
    35.4056     6630.00000
    35.4187     6545.00000
    35.4318     6503.00000
    35.4450     6673.00000
    35.4581     6818.00000
    35.4712     6753.00000
    35.4843     6599.00000
    35.4975     6404.00000
    35.5106     6571.00000
    35.5237     6627.00000
    35.5369     6646.00000
    35.5500     6575.00000
    35.5631     6640.00000
    35.5763     6747.00000
    35.5894     6454.00000
    35.6025     6617.00000
    35.6156     6667.00000
    35.6288     6826.00000
    35.6419     6765.00000
    35.6550     6715.00000
    35.6682     6721.00000
    35.6813     6669.00000
    35.6944     6590.00000
    35.7076     6597.00000
    35.7207     6637.00000
    35.7338     6752.00000
    35.7470     6627.00000
    35.7601     6597.00000
    35.7732     6686.00000
    35.7863     6548.00000
    35.7995     6444.00000
    35.8126     6591.00000
    35.8257     6644.00000
    35.8389     6601.00000
    35.8520     6543.00000
    35.8651     6503.00000
    35.8783     6498.00000
    35.8914     6545.00000
    35.9045     6743.00000
    35.9176     6619.00000
    35.9308     6650.00000
    35.9439     6664.00000
    35.9570     6489.00000
    35.9702     6499.00000
    35.9833     6301.00000
    35.9964     6629.00000
    36.0096     6669.00000
    36.0227     6612.00000
    36.0358     6744.00000
    36.0489     6742.00000
    36.0621     6590.00000
    36.0752     6618.00000
    36.0883     6647.00000
    36.1015     6589.00000
    36.1146     6583.00000
    36.1277     6603.00000
    36.1409     6680.00000
    36.1540     6672.00000
    36.1671     6674.00000
    36.1802     6551.00000
    36.1934     6581.00000
    36.2065     6652.00000
    36.2196     6632.00000
    36.2328     6457.00000
    36.2459     6631.00000
    36.2590     6635.00000
    36.2722     6597.00000
    36.2853     6605.00000
    36.2984     6479.00000
    36.3116     6604.00000
    36.3247     6770.00000
    36.3378     6571.00000
    36.3509     6732.00000
    36.3641     6758.00000
    36.3772     6719.00000
    36.3903     6736.00000
    36.4035     6869.00000
    36.4166     6997.00000
    36.4297     7190.00000
    36.4429     7564.00000
    36.4560     8349.00000
    36.4691     9088.00000
    36.4822     9986.00000
    36.4954    10056.00000
    36.5085     9531.00000
    36.5216     8632.00000
    36.5348     8261.00000
    36.5479     7966.00000
    36.5610     7866.00000
    36.5742     8206.00000
    36.5873     8168.00000
    36.6004     8021.00000
    36.6135     7650.00000
    36.6267     7300.00000
    36.6398     6914.00000
    36.6529     6880.00000
    36.6661     6813.00000
    36.6792     6832.00000
    36.6923     6588.00000
    36.7055     6679.00000
    36.7186     6703.00000
    36.7317     6565.00000
    36.7449     6693.00000
    36.7580     6549.00000
    36.7711     6584.00000
    36.7842     6609.00000
    36.7974     6730.00000
    36.8105     6626.00000
    36.8236     6494.00000
    36.8368     6383.00000
    36.8499     6499.00000
    36.8630     6669.00000
    36.8762     6640.00000
    36.8893     6610.00000
    36.9024     6686.00000
    36.9155     6549.00000
    36.9287     6681.00000
    36.9418     6428.00000
    36.9549     6447.00000
    36.9681     6572.00000
    36.9812     6513.00000
    36.9943     6434.00000
    37.0075     6572.00000
    37.0206     6516.00000
    37.0337     6484.00000
    37.0468     6464.00000
    37.0600     6531.00000
    37.0731     6582.00000
    37.0862     6623.00000
    37.0994     6521.00000
    37.1125     6679.00000
    37.1256     6487.00000
    37.1388     6534.00000
    37.1519     6519.00000
    37.1650     6523.00000
    37.1782     6554.00000
    37.1913     6659.00000
    37.2044     6493.00000
    37.2175     6567.00000
    37.2307     6544.00000
    37.2438     6606.00000
    37.2569     6715.00000
    37.2701     6622.00000
    37.2832     6539.00000
    37.2963     6676.00000
    37.3095     6783.00000
    37.3226     6998.00000
    37.3357     6987.00000
    37.3488     7111.00000
    37.3620     7293.00000
    37.3751     7436.00000
    37.3882     7354.00000
    37.4014     7227.00000
    37.4145     7004.00000
    37.4276     7081.00000
    37.4408     7144.00000
    37.4539     7366.00000
    37.4670     7299.00000
    37.4801     7570.00000
    37.4933     7590.00000
    37.5064     7869.00000
    37.5195     8760.00000
    37.5327     9841.00000
    37.5458    10660.00000
    37.5589    11441.00000
    37.5721    11415.00000
    37.5852    10728.00000
    37.5983     9806.00000
    37.6115     8968.00000
    37.6246     9226.00000
    37.6377     9949.00000
    37.6508    10568.00000
    37.6640    10662.00000
    37.6771    10984.00000
    37.6902    10519.00000
    37.7034     9504.00000
    37.7165     8719.00000
    37.7296     8030.00000
    37.7428     7856.00000
    37.7559     7828.00000
    37.7690     7891.00000
    37.7821     7994.00000
    37.7953     7661.00000
    37.8084     7304.00000
    37.8215     6976.00000
    37.8347     6974.00000
    37.8478     6917.00000
    37.8609     6604.00000
    37.8741     6534.00000
    37.8872     6624.00000
    37.9003     6525.00000
    37.9134     6599.00000
    37.9266     6437.00000
    37.9397     6663.00000
    37.9528     6622.00000
    37.9660     6622.00000
    37.9791     6676.00000
    37.9922     6623.00000
    38.0054     6677.00000
    38.0185     6629.00000
    38.0316     6637.00000
    38.0448     6583.00000
    38.0579     6540.00000
    38.0710     6358.00000
    38.0841     6519.00000
    38.0973     6613.00000
    38.1104     6529.00000
    38.1235     6405.00000
    38.1367     6606.00000
    38.1498     6463.00000
    38.1629     6515.00000
    38.1761     6480.00000
    38.1892     6519.00000
    38.2023     6394.00000
    38.2154     6585.00000
    38.2286     6434.00000
    38.2417     6632.00000
    38.2548     6508.00000
    38.2680     6515.00000
    38.2811     6517.00000
    38.2942     6478.00000
    38.3074     6444.00000
    38.3205     6457.00000
    38.3336     6468.00000
    38.3467     6330.00000
    38.3599     6563.00000
    38.3730     6534.00000
    38.3861     6556.00000
    38.3993     6506.00000
    38.4124     6448.00000
    38.4255     6623.00000
    38.4387     6500.00000
    38.4518     6582.00000
    38.4649     6449.00000
    38.4781     6503.00000
    38.4912     6496.00000
    38.5043     6256.00000
    38.5174     6464.00000
    38.5306     6462.00000
    38.5437     6358.00000
    38.5568     6488.00000
    38.5700     6473.00000
    38.5831     6587.00000
    38.5962     6594.00000
    38.6094     6387.00000
    38.6225     6436.00000
    38.6356     6356.00000
    38.6487     6286.00000
    38.6619     6500.00000
    38.6750     6466.00000
    38.6881     6212.00000
    38.7013     6611.00000
    38.7144     6466.00000
    38.7275     6528.00000
    38.7407     6473.00000
    38.7538     6486.00000
    38.7669     6491.00000
    38.7800     6526.00000
    38.7932     6415.00000
    38.8063     6410.00000
    38.8194     6565.00000
    38.8326     6568.00000
    38.8457     6517.00000
    38.8588     6556.00000
    38.8720     6436.00000
    38.8851     6481.00000
    38.8982     6486.00000
    38.9114     6549.00000
    38.9245     6431.00000
    38.9376     6470.00000
    38.9507     6608.00000
    38.9639     6535.00000
    38.9770     6462.00000
    38.9901     6587.00000
    39.0033     6531.00000
    39.0164     6596.00000
    39.0295     6442.00000
    39.0427     6350.00000
    39.0558     6685.00000
    39.0689     6730.00000
    39.0820     6768.00000
    39.0952     7113.00000
    39.1083     7549.00000
    39.1214     8190.00000
    39.1346     8850.00000
    39.1477     9505.00000
    39.1608     9317.00000
    39.1740     8679.00000
    39.1871     7863.00000
    39.2002     7672.00000
    39.2133     7542.00000
    39.2265     7768.00000
    39.2396     8003.00000
    39.2527     8030.00000
    39.2659     7717.00000
    39.2790     7445.00000
    39.2921     7235.00000
    39.3053     6746.00000
    39.3184     6660.00000
    39.3315     6656.00000
    39.3446     6572.00000
    39.3578     6617.00000
    39.3709     6553.00000
    39.3840     6466.00000
    39.3972     6528.00000
    39.4103     6493.00000
    39.4234     6652.00000
    39.4366     6405.00000
    39.4497     6405.00000
    39.4628     6502.00000
    39.4760     6524.00000
    39.4891     6252.00000
    39.5022     6398.00000
    39.5153     6512.00000
    39.5285     6573.00000
    39.5416     6335.00000
    39.5547     6525.00000
    39.5679     6421.00000
    39.5810     6492.00000
    39.5941     6621.00000
    39.6073     6508.00000
    39.6204     6590.00000
    39.6335     6430.00000
    39.6466     6507.00000
    39.6598     6462.00000
    39.6729     6754.00000
    39.6860     6567.00000
    39.6992     6551.00000
    39.7123     6398.00000
    39.7254     6644.00000
    39.7386     6523.00000
    39.7517     6443.00000
    39.7648     6589.00000
    39.7779     6496.00000
    39.7911     6360.00000
    39.8042     6557.00000
    39.8173     6743.00000
    39.8305     6308.00000
    39.8436     6502.00000
    39.8567     6511.00000
    39.8699     6469.00000
    39.8830     6317.00000
    39.8961     6341.00000
    39.9092     6449.00000
    39.9224     6507.00000
    39.9355     6626.00000
    39.9486     6556.00000
    39.9618     6631.00000
    39.9749     6554.00000
    39.9880     6312.00000
    40.0012     6437.00000
    40.0143     6726.00000
    40.0274     6618.00000
    40.0406     6583.00000
    40.0537     6860.00000
    40.0668     6929.00000
    40.0799     6765.00000
    40.0931     6867.00000
    40.1062     7204.00000
    40.1193     7404.00000
    40.1325     8033.00000
    40.1456     8668.00000
    40.1587     9627.00000
    40.1719    10520.00000
    40.1850    10821.00000
    40.1981    10484.00000
    40.2112     9280.00000
    40.2244     8745.00000
    40.2375     8433.00000
    40.2506     8189.00000
    40.2638     8379.00000
    40.2769     8842.00000
    40.2900     8627.00000
    40.3032     8508.00000
    40.3163     7872.00000
    40.3294     7470.00000
    40.3425     7103.00000
    40.3557     6868.00000
    40.3688     6794.00000
    40.3819     6662.00000
    40.3951     6761.00000
    40.4082     6433.00000
    40.4213     6683.00000
    40.4345     6707.00000
    40.4476     6535.00000
    40.4607     6392.00000
    40.4739     6611.00000
    40.4870     6566.00000
    40.5001     6569.00000
    40.5132     6422.00000
    40.5264     6694.00000
    40.5395     6644.00000
    40.5526     6333.00000
    40.5658     6363.00000
    40.5789     6527.00000
    40.5920     6536.00000
    40.6052     6449.00000
    40.6183     6405.00000
    40.6314     6508.00000
    40.6445     6558.00000
    40.6577     6542.00000
    40.6708     6663.00000
    40.6839     6515.00000
    40.6971     6485.00000
    40.7102     6422.00000
    40.7233     6520.00000
    40.7365     6489.00000
    40.7496     6514.00000
    40.7627     6609.00000
    40.7758     6500.00000
    40.7890     6631.00000
    40.8021     6753.00000
    40.8152     6718.00000
    40.8284     6753.00000
    40.8415     6922.00000
    40.8546     6717.00000
    40.8678     6852.00000
    40.8809     7201.00000
    40.8940     7325.00000
    40.9072     7890.00000
    40.9203     8526.00000
    40.9334     9096.00000
    40.9465     9932.00000
    40.9597    10898.00000
    40.9728    11763.00000
    40.9859    12078.00000
    40.9991    12043.00000
    41.0122    11527.00000
    41.0253    10743.00000
    41.0385    10439.00000
    41.0516    10117.00000
    41.0647    10339.00000
    41.0778    11048.00000
    41.0910    11913.00000
    41.1041    12296.00000
    41.1172    11542.00000
    41.1304    10374.00000
    41.1435     8966.00000
    41.1566     8428.00000
    41.1698     8153.00000
    41.1829     7942.00000
    41.1960     7843.00000
    41.2091     8225.00000
    41.2223     8224.00000
    41.2354     7529.00000
    41.2485     7335.00000
    41.2617     6947.00000
    41.2748     6624.00000
    41.2879     6873.00000
    41.3011     6822.00000
    41.3142     6440.00000
    41.3273     6524.00000
    41.3405     6374.00000
    41.3536     6515.00000
    41.3667     6329.00000
    41.3798     6462.00000
    41.3930     6380.00000
    41.4061     6418.00000
    41.4192     6351.00000
    41.4324     6389.00000
    41.4455     6445.00000
    41.4586     6431.00000
    41.4718     6378.00000
    41.4849     6397.00000
    41.4980     6422.00000
    41.5111     6399.00000
    41.5243     6453.00000
    41.5374     6504.00000
    41.5505     6577.00000
    41.5637     6621.00000
    41.5768     6480.00000
    41.5899     6496.00000
    41.6031     6288.00000
    41.6162     6369.00000
    41.6293     6284.00000
    41.6424     6356.00000
    41.6556     6433.00000
    41.6687     6410.00000
    41.6818     6293.00000
    41.6950     6355.00000
    41.7081     6385.00000
    41.7212     6426.00000
    41.7344     6398.00000
    41.7475     6463.00000
    41.7606     6594.00000
    41.7738     6441.00000
    41.7869     6490.00000
    41.8000     6376.00000
    41.8131     6391.00000
    41.8263     6325.00000
    41.8394     6440.00000
    41.8525     6519.00000
    41.8657     6328.00000
    41.8788     6445.00000
    41.8919     6385.00000
    41.9051     6440.00000
    41.9182     6450.00000
    41.9313     6487.00000
    41.9444     6453.00000
    41.9576     6378.00000
    41.9707     6542.00000
    41.9838     6594.00000
    41.9970     6597.00000
    42.0101     6452.00000
    42.0232     6477.00000
    42.0364     6538.00000
    42.0495     6319.00000
    42.0626     6578.00000
    42.0757     6410.00000
    42.0889     6513.00000
    42.1020     6389.00000
    42.1151     6418.00000
    42.1283     6466.00000
    42.1414     6457.00000
    42.1545     6529.00000
    42.1677     6316.00000
    42.1808     6453.00000
    42.1939     6666.00000
    42.2071     6486.00000
    42.2202     6393.00000
    42.2333     6335.00000
    42.2464     6520.00000
    42.2596     6473.00000
    42.2727     6546.00000
    42.2858     6480.00000
    42.2990     6445.00000
    42.3121     6369.00000
    42.3252     6395.00000
    42.3384     6460.00000
    42.3515     6393.00000
    42.3646     6327.00000
    42.3777     6391.00000
    42.3909     6425.00000
    42.4040     6583.00000
    42.4171     6375.00000
    42.4303     6367.00000
    42.4434     6317.00000
    42.4565     6337.00000
    42.4697     6364.00000
    42.4828     6444.00000
    42.4959     6377.00000
    42.5090     6414.00000
    42.5222     6423.00000
    42.5353     6387.00000
    42.5484     6479.00000
    42.5616     6402.00000
    42.5747     6249.00000
    42.5878     6452.00000
    42.6010     6490.00000
    42.6141     6379.00000
    42.6272     6387.00000
    42.6404     6343.00000
    42.6535     6303.00000
    42.6666     6247.00000
    42.6797     6265.00000
    42.6929     6347.00000
    42.7060     6322.00000
    42.7191     6440.00000
    42.7323     6452.00000
    42.7454     6325.00000
    42.7585     6374.00000
    42.7717     6568.00000
    42.7848     6285.00000
    42.7979     6398.00000
    42.8110     6360.00000
    42.8242     6211.00000
    42.8373     6395.00000
    42.8504     6357.00000
    42.8636     6362.00000
    42.8767     6464.00000
    42.8898     6223.00000
    42.9030     6293.00000
    42.9161     6308.00000
    42.9292     6376.00000
    42.9423     6483.00000
    42.9555     6378.00000
    42.9686     6256.00000
    42.9817     6363.00000
    42.9949     6426.00000
    43.0080     6389.00000
    43.0211     6390.00000
    43.0343     6360.00000
    43.0474     6482.00000
    43.0605     6457.00000
    43.0736     6352.00000
    43.0868     6482.00000
    43.0999     6455.00000
    43.1130     6362.00000
    43.1262     6475.00000
    43.1393     6561.00000
    43.1524     6315.00000
    43.1656     6291.00000
    43.1787     6345.00000
    43.1918     6361.00000
    43.2050     6475.00000
    43.2181     6342.00000
    43.2312     6438.00000
    43.2443     6390.00000
    43.2575     6372.00000
    43.2706     6392.00000
    43.2837     6361.00000
    43.2969     6400.00000
    43.3100     6537.00000
    43.3231     6437.00000
    43.3363     6521.00000
    43.3494     6381.00000
    43.3625     6390.00000
    43.3756     6295.00000
    43.3888     6504.00000
    43.4019     6535.00000
    43.4150     6620.00000
    43.4282     6807.00000
    43.4413     6887.00000
    43.4544     7068.00000
    43.4676     7370.00000
    43.4807     7553.00000
    43.4938     7738.00000
    43.5069     7379.00000
    43.5201     7379.00000
    43.5332     7113.00000
    43.5463     7033.00000
    43.5595     7102.00000
    43.5726     7158.00000
    43.5857     7033.00000
    43.5989     7147.00000
    43.6120     7219.00000
    43.6251     7159.00000
    43.6383     7231.00000
    43.6514     6892.00000
    43.6645     6845.00000
    43.6776     6445.00000
    43.6908     6602.00000
    43.7039     6519.00000
    43.7170     6653.00000
    43.7302     6627.00000
    43.7433     6540.00000
    43.7564     6395.00000
    43.7696     6485.00000
    43.7827     6452.00000
    43.7958     6541.00000
    43.8089     6525.00000
    43.8221     6533.00000
    43.8352     6276.00000
    43.8483     6339.00000
    43.8615     6496.00000
    43.8746     6474.00000
    43.8877     6421.00000
    43.9009     6444.00000
    43.9140     6425.00000
    43.9271     6312.00000
    43.9402     6482.00000
    43.9534     6457.00000
    43.9665     6385.00000
    43.9796     6483.00000
    43.9928     6553.00000
    44.0059     6790.00000
    44.0190     6934.00000
    44.0322     6673.00000
    44.0453     6680.00000
    44.0584     6611.00000
    44.0715     6584.00000
    44.0847     6568.00000
    44.0978     6548.00000
    44.1109     6691.00000
    44.1241     6512.00000
    44.1372     6640.00000
    44.1503     6759.00000
    44.1635     6623.00000
    44.1766     6559.00000
    44.1897     6533.00000
    44.2029     6509.00000
    44.2160     6350.00000
    44.2291     6500.00000
    44.2422     6591.00000
    44.2554     6479.00000
    44.2685     6708.00000
    44.2816     6629.00000
    44.2948     6563.00000
    44.3079     6771.00000
    44.3210     6725.00000
    44.3342     6748.00000
    44.3473     6735.00000
    44.3604     6812.00000
    44.3735     6998.00000
    44.3867     7115.00000
    44.3998     7429.00000
    44.4129     7776.00000
    44.4261     8338.00000
    44.4392     9196.00000
    44.4523    10756.00000
    44.4655    12407.00000
    44.4786    13430.00000
    44.4917    13463.00000
    44.5048    12363.00000
    44.5180    10950.00000
    44.5311     9912.00000
    44.5442     9164.00000
    44.5574     9048.00000
    44.5705     9460.00000
    44.5836     9909.00000
    44.5968    10309.00000
    44.6099     9991.00000
    44.6230     9503.00000
    44.6362     8754.00000
    44.6493     8041.00000
    44.6624     7420.00000
    44.6755     7142.00000
    44.6887     6974.00000
    44.7018     6982.00000
    44.7149     6780.00000
    44.7281     6701.00000
    44.7412     6524.00000
    44.7543     6527.00000
    44.7675     6430.00000
    44.7806     6489.00000
    44.7937     6658.00000
    44.8068     6728.00000
    44.8200     6681.00000
    44.8331     6400.00000
    44.8462     6526.00000
    44.8594     6435.00000
    44.8725     6585.00000
    44.8856     6534.00000
    44.8988     6371.00000
    44.9119     6339.00000
    44.9250     6309.00000
    44.9381     6425.00000
    44.9513     6397.00000
    44.9644     6369.00000
    44.9775     6360.00000
    44.9907     6346.00000
    45.0038     6431.00000
    45.0169     6475.00000
    45.0301     6503.00000
    45.0432     6371.00000
    45.0563     6387.00000
    45.0695     6243.00000
    45.0826     6431.00000
    45.0957     6289.00000
    45.1088     6273.00000
    45.1220     6475.00000
    45.1351     6393.00000
    45.1482     6295.00000
    45.1614     6311.00000
    45.1745     6262.00000
    45.1876     6354.00000
    45.2008     6427.00000
    45.2139     6601.00000
    45.2270     6389.00000
    45.2401     6372.00000
    45.2533     6426.00000
    45.2664     6385.00000
    45.2795     6479.00000
    45.2927     6394.00000
    45.3058     6420.00000
    45.3189     6427.00000
    45.3321     6370.00000
    45.3452     6392.00000
    45.3583     6348.00000
    45.3714     6312.00000
    45.3846     6387.00000
    45.3977     6422.00000
    45.4108     6506.00000
    45.4240     6579.00000
    45.4371     6368.00000
    45.4502     6494.00000
    45.4634     6409.00000
    45.4765     6354.00000
    45.4896     6496.00000
    45.5028     6412.00000
    45.5159     6458.00000
    45.5290     6441.00000
    45.5421     6337.00000
    45.5553     6231.00000
    45.5684     6681.00000
    45.5815     6498.00000
    45.5947     6390.00000
    45.6078     6428.00000
    45.6209     6533.00000
    45.6341     6454.00000
    45.6472     6511.00000
    45.6603     6442.00000
    45.6734     6497.00000
    45.6866     6517.00000
    45.6997     6272.00000
    45.7128     6510.00000
    45.7260     6460.00000
    45.7391     6540.00000
    45.7522     6628.00000
    45.7654     6778.00000
    45.7785     6853.00000
    45.7916     6612.00000
    45.8047     6756.00000
    45.8179     6767.00000
    45.8310     6799.00000
    45.8441     6967.00000
    45.8573     6993.00000
    45.8704     6742.00000
    45.8835     6935.00000
    45.8967     7020.00000
    45.9098     7032.00000
    45.9229     7091.00000
    45.9361     7395.00000
    45.9492     7898.00000
    45.9623     8603.00000
    45.9754     9844.00000
    45.9886    12043.00000
    46.0017    15245.00000
    46.0148    19723.00000
    46.0280    22140.00000
    46.0411    21550.00000
    46.0542    18666.00000
    46.0674    14916.00000
    46.0805    12302.00000
    46.0936    10718.00000
    46.1067    10719.00000
    46.1199    11517.00000
    46.1330    12870.00000
    46.1461    14629.00000
    46.1593    14404.00000
    46.1724    13114.00000
    46.1855    11332.00000
    46.1987     9914.00000
    46.2118     8701.00000
    46.2249     7917.00000
    46.2380     7854.00000
    46.2512     7749.00000
    46.2643     7725.00000
    46.2774     7364.00000
    46.2906     7354.00000
    46.3037     7189.00000
    46.3168     6971.00000
    46.3300     6675.00000
    46.3431     6730.00000
    46.3562     6783.00000
    46.3694     6878.00000
    46.3825     7010.00000
    46.3956     6981.00000
    46.4087     7046.00000
    46.4219     6955.00000
    46.4350     6723.00000
    46.4481     6692.00000
    46.4613     6733.00000
    46.4744     6615.00000
    46.4875     6451.00000
    46.5007     6538.00000
    46.5138     6564.00000
    46.5269     6253.00000
    46.5400     6431.00000
    46.5532     6579.00000
    46.5663     6433.00000
    46.5794     6357.00000
    46.5926     6340.00000
    46.6057     6245.00000
    46.6188     6502.00000
    46.6320     6559.00000
    46.6451     6413.00000
    46.6582     6663.00000
    46.6713     6435.00000
    46.6845     6414.00000
    46.6976     6482.00000
    46.7107     6629.00000
    46.7239     6446.00000
    46.7370     6318.00000
    46.7501     6399.00000
    46.7633     6355.00000
    46.7764     6248.00000
    46.7895     6471.00000
    46.8027     6441.00000
    46.8158     6591.00000
    46.8289     6597.00000
    46.8420     6360.00000
    46.8552     6494.00000
    46.8683     6394.00000
    46.8814     6482.00000
    46.8946     6441.00000
    46.9077     6497.00000
    46.9208     6458.00000
    46.9340     6379.00000
    46.9471     6539.00000
    46.9602     6602.00000
    46.9733     6410.00000
    46.9865     6468.00000
    46.9996     6624.00000
    47.0127     6427.00000
    47.0259     6473.00000
    47.0390     6252.00000
    47.0521     6608.00000
    47.0653     6483.00000
    47.0784     6469.00000
    47.0915     6435.00000
    47.1046     6631.00000
    47.1178     6530.00000
    47.1309     6636.00000
    47.1440     6756.00000
    47.1572     6747.00000
    47.1703     6678.00000
    47.1834     6656.00000
    47.1966     6757.00000
    47.2097     6825.00000
    47.2228     7025.00000
    47.2359     7157.00000
    47.2491     7621.00000
    47.2622     8134.00000
    47.2753     8784.00000
    47.2885     9253.00000
    47.3016     9103.00000
    47.3147     8856.00000
    47.3279     8471.00000
    47.3410     8092.00000
    47.3541     7520.00000
    47.3673     7561.00000
    47.3804     7745.00000
    47.3935     7765.00000
    47.4066     7892.00000
    47.4198     8416.00000
    47.4329     8403.00000
    47.4460     8156.00000
    47.4592     8126.00000
    47.4723     8509.00000
    47.4854     9209.00000
    47.4986    10594.00000
    47.5117    11848.00000
    47.5248    13307.00000
    47.5379    13371.00000
    47.5511    12486.00000
    47.5642    10550.00000
    47.5773     9147.00000
    47.5905     8524.00000
    47.6036     8487.00000
    47.6167     8703.00000
    47.6299     9087.00000
    47.6430     9826.00000
    47.6561    10174.00000
    47.6692     9983.00000
    47.6824     9220.00000
    47.6955     8298.00000
    47.7086     7804.00000
    47.7218     7412.00000
    47.7349     7253.00000
    47.7480     7085.00000
    47.7612     7012.00000
    47.7743     7076.00000
    47.7874     6996.00000
    47.8005     7182.00000
    47.8137     6955.00000
    47.8268     7104.00000
    47.8399     7137.00000
    47.8531     7266.00000
    47.8662     7270.00000
    47.8793     7240.00000
    47.8925     7354.00000
    47.9056     7262.00000
    47.9187     7419.00000
    47.9319     7673.00000
    47.9450     7923.00000
    47.9581     8327.00000
    47.9712     9140.00000
    47.9844    10109.00000
    47.9975    11773.00000
    48.0106    14383.00000
    48.0238    17476.00000
    48.0369    19978.00000
    48.0500    21196.00000
    48.0632    20307.00000
    48.0763    17520.00000
    48.0894    14785.00000
    48.1025    12826.00000
    48.1157    11910.00000
    48.1288    11769.00000
    48.1419    12280.00000
    48.1551    13466.00000
    48.1682    14058.00000
    48.1813    14489.00000
    48.1945    13484.00000
    48.2076    11598.00000
    48.2207    10307.00000
    48.2338     9064.00000
    48.2470     8495.00000
    48.2601     7629.00000
    48.2732     7527.00000
    48.2864     7288.00000
    48.2995     7163.00000
    48.3126     6935.00000
    48.3258     6800.00000
    48.3389     6852.00000
    48.3520     6794.00000
    48.3652     6742.00000
    48.3783     6744.00000
    48.3914     6722.00000
    48.4045     6547.00000
    48.4177     6825.00000
    48.4308     6673.00000
    48.4439     6633.00000
    48.4571     6702.00000
    48.4702     6719.00000
    48.4833     6761.00000
    48.4965     6714.00000
    48.5096     6487.00000
    48.5227     6500.00000
    48.5358     6702.00000
    48.5490     6518.00000
    48.5621     6645.00000
    48.5752     6687.00000
    48.5884     6641.00000
    48.6015     6785.00000
    48.6146     6357.00000
    48.6278     6581.00000
    48.6409     6873.00000
    48.6540     6921.00000
    48.6671     7208.00000
    48.6803     7403.00000
    48.6934     7839.00000
    48.7065     7944.00000
    48.7197     7878.00000
    48.7328     7771.00000
    48.7459     7880.00000
    48.7591     7704.00000
    48.7722     7450.00000
    48.7853     7617.00000
    48.7985     7633.00000
    48.8116     7762.00000
    48.8247     7865.00000
    48.8378     8033.00000
    48.8510     7698.00000
    48.8641     7475.00000
    48.8772     7642.00000
    48.8904     7423.00000
    48.9035     7464.00000
    48.9166     7550.00000
    48.9298     7277.00000
    48.9429     7264.00000
    48.9560     7464.00000
    48.9691     7325.00000
    48.9823     7435.00000
    48.9954     7385.00000
    49.0085     7434.00000
    49.0217     7759.00000
    49.0348     8056.00000
    49.0479     8351.00000
    49.0611     8789.00000
    49.0742    10096.00000
    49.0873    11828.00000
    49.1004    13935.00000
    49.1136    16149.00000
    49.1267    16772.00000
    49.1398    16033.00000
    49.1530    13871.00000
    49.1661    11804.00000
    49.1792    10457.00000
    49.1924    10019.00000
    49.2055     9989.00000
    49.2186    10814.00000
    49.2318    12003.00000
    49.2449    13203.00000
    49.2580    13972.00000
    49.2711    13809.00000
    49.2843    13073.00000
    49.2974    11591.00000
    49.3105    10052.00000
    49.3237     9189.00000
    49.3368     8698.00000
    49.3499     8530.00000
    49.3631     8516.00000
    49.3762     8406.00000
    49.3893     8484.00000
    49.4024     8569.00000
    49.4156     8518.00000
    49.4287     8204.00000
    49.4418     7773.00000
    49.4550     7577.00000
    49.4681     7310.00000
    49.4812     7189.00000
    49.4944     7269.00000
    49.5075     7069.00000
    49.5206     7027.00000
    49.5337     7134.00000
    49.5469     6827.00000
    49.5600     6777.00000
    49.5731     6712.00000
    49.5863     6797.00000
    49.5994     6628.00000
    49.6125     6915.00000
    49.6257     6908.00000
    49.6388     6774.00000
    49.6519     6866.00000
    49.6651     6932.00000
    49.6782     7058.00000
    49.6913     7110.00000
    49.7044     7214.00000
    49.7176     7016.00000
    49.7307     7176.00000
    49.7438     7307.00000
    49.7570     7526.00000
    49.7701     7858.00000
    49.7832     8292.00000
    49.7964     8911.00000
    49.8095     9803.00000
    49.8226    11678.00000
    49.8357    13827.00000
    49.8489    16862.00000
    49.8620    19139.00000
    49.8751    20060.00000
    49.8883    18931.00000
    49.9014    16762.00000
    49.9145    13968.00000
    49.9277    11916.00000
    49.9408    11148.00000
    49.9539    10884.00000
    49.9670    11383.00000
    49.9802    12248.00000
    49.9933    13181.00000
    50.0064    13461.00000
    50.0196    13062.00000
    50.0327    11878.00000
    50.0458    10572.00000
    50.0590     9444.00000
    50.0721     8476.00000
    50.0852     7993.00000
    50.0984     7477.00000
    50.1115     7213.00000
    50.1246     7111.00000
    50.1377     6922.00000
    50.1509     7034.00000
    50.1640     7176.00000
    50.1771     6834.00000
    50.1903     6911.00000
    50.2034     6950.00000
    50.2165     6623.00000
    50.2297     6815.00000
    50.2428     6884.00000
    50.2559     6872.00000
    50.2690     6861.00000
    50.2822     6962.00000
    50.2953     7236.00000
    50.3084     7487.00000
    50.3216     7630.00000
    50.3347     7653.00000
    50.3478     7601.00000
    50.3610     7425.00000
    50.3741     7030.00000
    50.3872     7045.00000
    50.4003     7024.00000
    50.4135     7124.00000
    50.4266     7333.00000
    50.4397     7300.00000
    50.4529     7423.00000
    50.4660     7332.00000
    50.4791     7472.00000
    50.4923     7837.00000
    50.5054     8416.00000
    50.5185     9002.00000
    50.5317     9657.00000
    50.5448    10822.00000
    50.5579    11357.00000
    50.5710    11415.00000
    50.5842    10616.00000
    50.5973     9792.00000
    50.6104     8995.00000
    50.6236     8511.00000
    50.6367     8276.00000
    50.6498     8175.00000
    50.6630     8393.00000
    50.6761     8893.00000
    50.6892     8992.00000
    50.7023     9202.00000
    50.7155     9009.00000
    50.7286     8372.00000
    50.7417     7759.00000
    50.7549     7370.00000
    50.7680     7087.00000
    50.7811     6965.00000
    50.7943     6820.00000
    50.8074     6833.00000
    50.8205     6550.00000
    50.8336     6532.00000
    50.8468     6621.00000
    50.8599     6543.00000
    50.8730     6535.00000
    50.8862     6552.00000
    50.8993     6466.00000
    50.9124     6492.00000
    50.9256     6447.00000
    50.9387     6469.00000
    50.9518     6480.00000
    50.9649     6576.00000
    50.9781     6424.00000
    50.9912     6344.00000
    51.0043     6396.00000
    51.0175     6430.00000
    51.0306     6481.00000
    51.0437     6517.00000
    51.0569     6514.00000
    51.0700     6567.00000
    51.0831     6454.00000
    51.0963     6583.00000
    51.1094     6543.00000
    51.1225     6573.00000
    51.1356     6621.00000
    51.1488     6567.00000
    51.1619     6635.00000
    51.1750     6680.00000
    51.1882     6613.00000
    51.2013     6593.00000
    51.2144     6617.00000
    51.2276     6325.00000
    51.2407     6563.00000
    51.2538     6627.00000
    51.2669     6576.00000
    51.2801     6487.00000
    51.2932     6526.00000
    51.3063     6635.00000
    51.3195     6662.00000
    51.3326     6531.00000
    51.3457     6537.00000
    51.3589     6824.00000
    51.3720     6644.00000
    51.3851     6688.00000
    51.3982     6557.00000
    51.4114     6718.00000
    51.4245     6681.00000
    51.4376     6748.00000
    51.4508     6897.00000
    51.4639     6781.00000
    51.4770     7039.00000
    51.4902     7352.00000
    51.5033     7763.00000
    51.5164     8337.00000
    51.5296     8742.00000
    51.5427     9099.00000
    51.5558     8875.00000
    51.5689     8437.00000
    51.5821     7939.00000
    51.5952     7838.00000
    51.6083     7976.00000
    51.6215     8202.00000
    51.6346     9404.00000
    51.6477    10713.00000
    51.6609    12760.00000
    51.6740    14925.00000
    51.6871    15973.00000
    51.7002    15410.00000
    51.7134    13679.00000
    51.7265    11581.00000
    51.7396     9733.00000
    51.7528     8698.00000
    51.7659     8506.00000
    51.7790     8583.00000
    51.7922     9097.00000
    51.8053    10017.00000
    51.8184    10952.00000
    51.8315    10979.00000
    51.8447    10476.00000
    51.8578     9557.00000
    51.8709     8669.00000
    51.8841     7615.00000
    51.8972     7418.00000
    51.9103     7218.00000
    51.9235     6910.00000
    51.9366     6981.00000
    51.9497     6775.00000
    51.9628     6664.00000
    51.9760     6714.00000
    51.9891     6532.00000
    52.0022     6678.00000
    52.0154     6556.00000
    52.0285     6458.00000
    52.0416     6543.00000
    52.0548     6561.00000
    52.0679     6640.00000
    52.0810     6510.00000
    52.0942     6424.00000
    52.1073     6437.00000
    52.1204     6389.00000
    52.1335     6571.00000
    52.1467     6674.00000
    52.1598     6448.00000
    52.1729     6491.00000
    52.1861     6550.00000
    52.1992     6659.00000
    52.2123     6464.00000
    52.2255     6604.00000
    52.2386     6688.00000
    52.2517     6403.00000
    52.2648     6557.00000
    52.2780     6664.00000
    52.2911     6404.00000
    52.3042     6410.00000
    52.3174     6484.00000
    52.3305     6445.00000
    52.3436     6581.00000
    52.3568     6561.00000
    52.3699     6364.00000
    52.3830     6433.00000
    52.3961     6357.00000
    52.4093     6316.00000
    52.4224     6491.00000
    52.4355     6264.00000
    52.4487     6488.00000
    52.4618     6536.00000
    52.4749     6568.00000
    52.4881     6445.00000
    52.5012     6534.00000
    52.5143     6520.00000
    52.5275     6350.00000
    52.5406     6340.00000
    52.5537     6516.00000
    52.5668     6533.00000
    52.5800     6360.00000
    52.5931     6479.00000
    52.6062     6377.00000
    52.6194     6628.00000
    52.6325     6962.00000
    52.6456     7248.00000
    52.6588     7591.00000
    52.6719     8077.00000
    52.6850     8188.00000
    52.6981     7889.00000
    52.7113     7690.00000
    52.7244     7154.00000
    52.7375     6845.00000
    52.7507     6808.00000
    52.7638     6770.00000
    52.7769     6780.00000
    52.7901     6929.00000
    52.8032     7140.00000
    52.8163     7459.00000
    52.8294     7418.00000
    52.8426     7240.00000
    52.8557     6977.00000
    52.8688     6892.00000
    52.8820     6717.00000
    52.8951     6411.00000
    52.9082     6369.00000
    52.9214     6498.00000
    52.9345     6231.00000
    52.9476     6378.00000
    52.9608     6422.00000
    52.9739     6498.00000
    52.9870     6406.00000
    53.0001     6524.00000
    53.0133     6360.00000
    53.0264     6389.00000
    53.0395     6368.00000
    53.0527     6489.00000
    53.0658     6339.00000
    53.0789     6378.00000
    53.0921     6235.00000
    53.1052     6223.00000
    53.1183     6313.00000
    53.1314     6279.00000
    53.1446     6406.00000
    53.1577     6366.00000
    53.1708     6472.00000
    53.1840     6343.00000
    53.1971     6366.00000
    53.2102     6371.00000
    53.2234     6590.00000
    53.2365     6585.00000
    53.2496     6445.00000
    53.2627     6474.00000
    53.2759     6545.00000
    53.2890     6419.00000
    53.3021     6364.00000
    53.3153     6345.00000
    53.3284     6479.00000
    53.3415     6243.00000
    53.3547     6466.00000
    53.3678     6520.00000
    53.3809     6276.00000
    53.3941     6503.00000
    53.4072     6406.00000
    53.4203     6342.00000
    53.4334     6383.00000
    53.4466     6431.00000
    53.4597     6366.00000
    53.4728     6334.00000
    53.4860     6339.00000
    53.4991     6378.00000
    53.5122     6323.00000
    53.5254     6335.00000
    53.5385     6373.00000
    53.5516     6387.00000
    53.5647     6318.00000
    53.5779     6278.00000
    53.5910     6343.00000
    53.6041     6127.00000
    53.6173     6021.00000
    53.6304     6394.00000
    53.6435     6395.00000
    53.6567     6335.00000
    53.6698     6732.00000
    53.6829     6571.00000
    53.6960     6436.00000
    53.7092     6605.00000
    53.7223     6489.00000
    53.7354     6532.00000
    53.7486     6580.00000
    53.7617     6318.00000
    53.7748     6322.00000
    53.7880     6307.00000
    53.8011     6477.00000
    53.8142     6528.00000
    53.8274     6392.00000
    53.8405     6350.00000
    53.8536     6408.00000
    53.8667     6383.00000
    53.8799     6395.00000
    53.8930     6204.00000
    53.9061     6232.00000
    53.9193     6277.00000
    53.9324     6486.00000
    53.9455     6281.00000
    53.9587     6353.00000
    53.9718     6429.00000
    53.9849     6491.00000
    53.9980     6350.00000
    54.0112     6278.00000
    54.0243     6277.00000
    54.0374     6354.00000
    54.0506     6215.00000
    54.0637     6287.00000
    54.0768     6117.00000
    54.0900     6288.00000
    54.1031     6258.00000
    54.1162     6264.00000
    54.1293     6297.00000
    54.1425     6318.00000
    54.1556     6367.00000
    54.1687     6465.00000
    54.1819     6325.00000
    54.1950     6280.00000
    54.2081     6372.00000
    54.2213     6306.00000
    54.2344     6306.00000
    54.2475     6340.00000
    54.2607     6137.00000
    54.2738     6117.00000
    54.2869     6066.00000
    54.3000     6355.00000
    54.3132     6308.00000
    54.3263     6264.00000
    54.3394     6377.00000
    54.3526     6285.00000
    54.3657     6376.00000
    54.3788     6263.00000
    54.3920     6121.00000
    54.4051     6180.00000
    54.4182     6358.00000
    54.4313     6230.00000
    54.4445     6357.00000
    54.4576     6358.00000
    54.4707     6304.00000
    54.4839     6179.00000
    54.4970     6213.00000
    54.5101     6281.00000
    54.5233     6222.00000
    54.5364     6354.00000
    54.5495     6339.00000
    54.5626     6364.00000
    54.5758     6331.00000
    54.5889     6229.00000
    54.6020     6125.00000
    54.6152     6260.00000
    54.6283     6199.00000
    54.6414     6246.00000
    54.6546     6225.00000
    54.6677     6378.00000
    54.6808     6323.00000
    54.6940     6462.00000
    54.7071     6361.00000
    54.7202     6494.00000
    54.7333     6241.00000
    54.7465     6344.00000
    54.7596     6376.00000
    54.7727     6171.00000
    54.7859     6272.00000
    54.7990     6214.00000
    54.8121     6335.00000
    54.8253     6416.00000
    54.8384     6267.00000
    54.8515     6378.00000
    54.8646     6250.00000
    54.8778     6351.00000
    54.8909     6183.00000
    54.9040     6295.00000
    54.9172     6555.00000
    54.9303     6375.00000
    54.9434     6390.00000
    54.9566     6281.00000
    54.9697     6166.00000
    54.9828     6338.00000
    54.9959     6263.00000
    55.0091     6256.00000
    55.0222     6280.00000
    55.0353     6315.00000
    55.0485     6537.00000
    55.0616     6425.00000
    55.0747     6448.00000
    55.0879     6406.00000
    55.1010     6436.00000
    55.1141     6445.00000
    55.1272     6529.00000
    55.1404     6366.00000
    55.1535     6260.00000
    55.1666     6306.00000
    55.1798     6345.00000
    55.1929     6595.00000
    55.2060     6507.00000
    55.2192     6376.00000
    55.2323     6460.00000
    55.2454     6414.00000
    55.2586     6594.00000
    55.2717     6401.00000
    55.2848     6533.00000
    55.2979     6677.00000
    55.3111     6682.00000
    55.3242     6429.00000
    55.3373     6627.00000
    55.3505     6670.00000
    55.3636     6747.00000
    55.3767     6919.00000
    55.3899     6900.00000
    55.4030     6800.00000
    55.4161     7176.00000
    55.4292     6940.00000
    55.4424     7339.00000
    55.4555     7989.00000
    55.4686     8719.00000
    55.4818     9375.00000
    55.4949     9551.00000
    55.5080     9679.00000
    55.5212     9626.00000
    55.5343     9179.00000
    55.5474     9143.00000
    55.5605     9554.00000
    55.5737    10286.00000
    55.5868    11591.00000
    55.5999    12845.00000
    55.6131    14148.00000
    55.6262    14568.00000
    55.6393    13994.00000
    55.6525    12786.00000
    55.6656    11245.00000
    55.6787    10031.00000
    55.6918     9280.00000
    55.7050     8806.00000
    55.7181     8842.00000
    55.7312     8956.00000
    55.7444     9671.00000
    55.7575    10042.00000
    55.7706    10038.00000
    55.7838     9887.00000
    55.7969     9178.00000
    55.8100     8553.00000
    55.8232     8201.00000
    55.8363     7784.00000
    55.8494     7391.00000
    55.8625     7222.00000
    55.8757     7249.00000
    55.8888     7318.00000
    55.9019     7476.00000
    55.9151     7233.00000
    55.9282     7178.00000
    55.9413     6870.00000
    55.9545     6771.00000
    55.9676     6656.00000
    55.9807     6821.00000
    55.9938     6677.00000
    56.0070     6809.00000
    56.0201     6742.00000
    56.0332     6755.00000
    56.0464     6794.00000
    56.0595     6803.00000
    56.0726     6896.00000
    56.0858     7032.00000
    56.0989     6993.00000
    56.1120     6711.00000
    56.1251     6837.00000
    56.1383     6948.00000
    56.1514     7254.00000
    56.1645     7452.00000
    56.1777     8177.00000
    56.1908     8842.00000
    56.2039     9465.00000
    56.2171     9599.00000
    56.2302     9216.00000
    56.2433     8742.00000
    56.2565     8070.00000
    56.2696     7450.00000
    56.2827     7408.00000
    56.2958     7420.00000
    56.3090     7492.00000
    56.3221     7542.00000
    56.3352     8219.00000
    56.3484     8323.00000
    56.3615     8619.00000
    56.3746     8360.00000
    56.3878     7982.00000
    56.4009     7473.00000
    56.4140     7489.00000
    56.4271     7445.00000
    56.4403     7595.00000
    56.4534     7622.00000
    56.4665     7999.00000
    56.4797     8602.00000
    56.4928     9533.00000
    56.5059    10320.00000
    56.5191    11089.00000
    56.5322    11227.00000
    56.5453    10925.00000
    56.5584     9877.00000
    56.5716     8975.00000
    56.5847     8389.00000
    56.5978     7952.00000
    56.6110     7765.00000
    56.6241     7742.00000
    56.6372     7840.00000
    56.6504     8385.00000
    56.6635     8609.00000
    56.6766     9021.00000
    56.6898     8995.00000
    56.7029     8702.00000
    56.7160     8314.00000
    56.7291     7836.00000
    56.7423     7672.00000
    56.7554     7641.00000
    56.7685     7346.00000
    56.7817     7216.00000
    56.7948     7302.00000
    56.8079     7082.00000
    56.8211     6811.00000
    56.8342     6683.00000
    56.8473     6606.00000
    56.8604     6693.00000
    56.8736     6659.00000
    56.8867     6706.00000
    56.8998     6740.00000
    56.9130     6797.00000
    56.9261     6899.00000
    56.9392     6705.00000
    56.9524     6615.00000
    56.9655     6581.00000
    56.9786     6406.00000
    56.9917     6378.00000
    57.0049     6345.00000
    57.0180     6457.00000
    57.0311     6449.00000
    57.0443     6405.00000
    57.0574     6547.00000
    57.0705     6308.00000
    57.0837     6595.00000
    57.0968     6467.00000
    57.1099     6461.00000
    57.1231     6450.00000
    57.1362     6481.00000
    57.1493     6283.00000
    57.1624     6414.00000
    57.1756     6417.00000
    57.1887     6402.00000
    57.2018     6493.00000
    57.2150     6417.00000
    57.2281     6394.00000
    57.2412     6412.00000
    57.2544     6706.00000
    57.2675     6521.00000
    57.2806     6569.00000
    57.2937     6643.00000
    57.3069     6541.00000
    57.3200     6315.00000
    57.3331     6431.00000
    57.3463     6325.00000
    57.3594     6370.00000
    57.3725     6363.00000
    57.3857     6503.00000
    57.3988     6512.00000
    57.4119     6616.00000
    57.4250     6567.00000
    57.4382     6550.00000
    57.4513     6368.00000
    57.4644     6513.00000
    57.4776     6470.00000
    57.4907     6403.00000
    57.5038     6500.00000
    57.5170     6533.00000
    57.5301     6521.00000
    57.5432     6637.00000
    57.5564     6865.00000
    57.5695     6996.00000
    57.5826     7061.00000
    57.5957     7190.00000
    57.6089     7567.00000
    57.6220     8029.00000
    57.6351     8473.00000
    57.6483     9260.00000
    57.6614     9541.00000
    57.6745     9680.00000
    57.6877     9583.00000
    57.7008     9018.00000
    57.7139     8197.00000
    57.7270     8017.00000
    57.7402     7764.00000
    57.7533     7665.00000
    57.7664     7803.00000
    57.7796     8019.00000
    57.7927     8320.00000
    57.8058     9003.00000
    57.8190     9571.00000
    57.8321    10136.00000
    57.8452    10466.00000
    57.8583    10725.00000
    57.8715    10692.00000
    57.8846    10423.00000
    57.8977    10008.00000
    57.9109     9382.00000
    57.9240     8730.00000
    57.9371     8389.00000
    57.9503     8084.00000
    57.9634     7729.00000
    57.9765     7798.00000
    57.9897     8050.00000
    58.0028     8086.00000
    58.0159     8211.00000
    58.0290     8453.00000
    58.0422     8279.00000
    58.0553     8127.00000
    58.0684     7863.00000
    58.0816     7571.00000
    58.0947     7270.00000
    58.1078     7155.00000
    58.1210     6788.00000
    58.1341     6898.00000
    58.1472     6582.00000
    58.1603     6656.00000
    58.1735     6793.00000
    58.1866     6558.00000
    58.1997     6479.00000
    58.2129     6546.00000
    58.2260     6306.00000
    58.2391     6546.00000
    58.2523     6531.00000
    58.2654     6370.00000
    58.2785     6543.00000
    58.2916     6494.00000
    58.3048     6820.00000
    58.3179     6545.00000
    58.3310     6463.00000
    58.3442     6503.00000
    58.3573     6819.00000
    58.3704     6751.00000
    58.3836     7029.00000
    58.3967     7178.00000
    58.4098     7278.00000
    58.4230     7340.00000
    58.4361     7470.00000
    58.4492     7578.00000
    58.4623     7558.00000
    58.4755     7601.00000
    58.4886     7625.00000
    58.5017     7722.00000
    58.5149     7639.00000
    58.5280     7665.00000
    58.5411     7516.00000
    58.5543     7324.00000
    58.5674     7382.00000
    58.5805     7499.00000
    58.5936     7622.00000
    58.6068     7635.00000
    58.6199     7941.00000
    58.6330     8174.00000
    58.6462     8671.00000
    58.6593     9194.00000
    58.6724     9928.00000
    58.6856    10333.00000
    58.6987    10760.00000
    58.7118    11037.00000
    58.7249    11472.00000
    58.7381    11347.00000
    58.7512    11275.00000
    58.7643    10870.00000
    58.7775    10219.00000
    58.7906     9506.00000
    58.8037     9202.00000
    58.8169     8785.00000
    58.8300     8877.00000
    58.8431     9222.00000
    58.8562     9412.00000
    58.8694     9193.00000
    58.8825     9402.00000
    58.8956     9639.00000
    58.9088     9738.00000
    58.9219    10072.00000
    58.9350    10109.00000
    58.9482     9790.00000
    58.9613     9603.00000
    58.9744     9365.00000
    58.9876     9121.00000
    59.0007     9132.00000
    59.0138     9320.00000
    59.0269     9977.00000
    59.0401    10607.00000
    59.0532    11188.00000
    59.0663    10954.00000
    59.0795    10662.00000
    59.0926     9695.00000
    59.1057     9377.00000
    59.1189     9063.00000
    59.1320     8427.00000
    59.1451     7918.00000
    59.1582     8014.00000
    59.1714     8076.00000
    59.1845     8029.00000
    59.1976     8472.00000
    59.2108     8537.00000
    59.2239     8488.00000
    59.2370     8426.00000
    59.2502     7871.00000
    59.2633     7576.00000
    59.2764     7115.00000
    59.2895     6955.00000
    59.3027     6744.00000
    59.3158     6489.00000
    59.3289     6494.00000
    59.3421     6498.00000
    59.3552     6450.00000
    59.3683     6412.00000
    59.3815     6386.00000
    59.3946     6531.00000
    59.4077     6296.00000
    59.4208     6281.00000
    59.4340     6373.00000
    59.4471     6335.00000
    59.4602     6321.00000
    59.4734     6348.00000
    59.4865     6386.00000
    59.4996     6291.00000
    59.5128     6398.00000
    59.5259     6265.00000
    59.5390     6254.00000
    59.5522     6465.00000
    59.5653     6216.00000
    59.5784     6316.00000
    59.5915     6289.00000
    59.6047     6281.00000
    59.6178     6430.00000
    59.6309     6413.00000
    59.6441     6366.00000
    59.6572     6479.00000
    59.6703     6703.00000
    59.6835     6521.00000
    59.6966     6512.00000
    59.7097     6567.00000
    59.7228     6552.00000
    59.7360     6647.00000
    59.7491     6556.00000
    59.7622     6410.00000
    59.7754     6506.00000
    59.7885     6361.00000
    59.8016     6463.00000
    59.8148     6650.00000
    59.8279     6858.00000
    59.8410     6841.00000
    59.8541     6996.00000
    59.8673     6972.00000
    59.8804     7189.00000
    59.8935     7478.00000
    59.9067     7908.00000
    59.9198     8429.00000
    59.9329     9653.00000
    59.9461    10783.00000
    59.9592    12027.00000
    59.9723    12590.00000
    59.9855    12456.00000
    59.9986    11270.00000
    60.0117     9609.00000
    60.0248     8480.00000
    60.0380     8234.00000
    60.0511     7728.00000
    60.0642     7622.00000
    60.0774     7770.00000
    60.0905     7947.00000
    60.1036     8420.00000
    60.1168     8864.00000
    60.1299     9303.00000
    60.1430     9510.00000
    60.1561     8973.00000
    60.1693     8508.00000
    60.1824     7821.00000
    60.1955     7294.00000
    60.2087     7032.00000
    60.2218     6875.00000
    60.2349     6815.00000
    60.2481     6889.00000
    60.2612     6615.00000
    60.2743     6640.00000
    60.2874     6596.00000
    60.3006     6518.00000
    60.3137     6478.00000
    60.3268     6472.00000
    60.3400     6736.00000
    60.3531     6597.00000
    60.3662     6629.00000
    60.3794     6620.00000
    60.3925     6944.00000
    60.4056     7214.00000
    60.4188     7358.00000
    60.4319     7874.00000
    60.4450     8416.00000
    60.4581     8743.00000
    60.4713     9143.00000
    60.4844     8740.00000
    60.4975     8504.00000
    60.5107     8047.00000
    60.5238     7748.00000
    60.5369     7219.00000
    60.5501     7122.00000
    60.5632     6843.00000
    60.5763     6948.00000
    60.5894     7329.00000
    60.6026     7318.00000
    60.6157     7657.00000
    60.6288     7669.00000
    60.6420     7680.00000
    60.6551     7718.00000
    60.6682     7289.00000
    60.6814     7067.00000
    60.6945     7024.00000
    60.7076     6966.00000
    60.7207     6637.00000
    60.7339     6510.00000
    60.7470     6683.00000
    60.7601     6682.00000
    60.7733     6611.00000
    60.7864     6398.00000
    60.7995     6484.00000
    60.8127     6448.00000
    60.8258     6625.00000
    60.8389     6548.00000
    60.8521     6551.00000
    60.8652     6654.00000
    60.8783     6748.00000
    60.8914     6561.00000
    60.9046     6494.00000
    60.9177     6733.00000
    60.9308     6811.00000
    60.9440     6873.00000
    60.9571     6924.00000
    60.9702     7067.00000
    60.9834     7183.00000
    60.9965     7376.00000
    61.0096     7760.00000
    61.0227     8582.00000
    61.0359     9219.00000
    61.0490     9833.00000
    61.0621    10993.00000
    61.0753    11417.00000
    61.0884    11410.00000
    61.1015    11717.00000
    61.1147    12071.00000
    61.1278    12793.00000
    61.1409    13506.00000
    61.1540    13813.00000
    61.1672    13044.00000
    61.1803    11880.00000
    61.1934    10636.00000
    61.2066    10019.00000
    61.2197     9687.00000
    61.2328     9672.00000
    61.2460     9518.00000
    61.2591     9497.00000
    61.2722     9248.00000
    61.2854     9658.00000
    61.2985     9856.00000
    61.3116    10129.00000
    61.3247     9987.00000
    61.3379     9444.00000
    61.3510     8627.00000
    61.3641     8053.00000
    61.3773     7672.00000
    61.3904     7352.00000
    61.4035     6909.00000
    61.4167     6834.00000
    61.4298     6630.00000
    61.4429     6528.00000
    61.4560     6492.00000
    61.4692     6354.00000
    61.4823     6588.00000
    61.4954     6458.00000
    61.5086     6393.00000
    61.5217     6476.00000
    61.5348     6462.00000
    61.5480     6303.00000
    61.5611     6436.00000
    61.5742     6443.00000
    61.5873     6424.00000
    61.6005     6588.00000
    61.6136     6680.00000
    61.6267     6792.00000
    61.6399     7090.00000
    61.6530     7321.00000
    61.6661     7438.00000
    61.6793     7351.00000
    61.6924     7174.00000
    61.7055     6951.00000
    61.7187     6432.00000
    61.7318     6607.00000
    61.7449     6569.00000
    61.7580     6439.00000
    61.7712     6450.00000
    61.7843     6540.00000
    61.7974     6645.00000
    61.8106     6667.00000
    61.8237     6722.00000
    61.8368     6894.00000
    61.8500     6874.00000
    61.8631     6644.00000
    61.8762     6565.00000
    61.8893     6457.00000
    61.9025     6290.00000
    61.9156     6360.00000
    61.9287     6369.00000
    61.9419     6330.00000
    61.9550     6256.00000
    61.9681     6053.00000
    61.9813     6053.00000
    61.9944     6182.00000
    62.0075     6083.00000
    62.0206     6161.00000
    62.0338     6197.00000
    62.0469     6171.00000
    62.0600     6148.00000
    62.0732     6207.00000
    62.0863     6147.00000
    62.0994     6231.00000
    62.1126     6138.00000
    62.1257     6189.00000
    62.1388     6266.00000
    62.1520     6045.00000
    62.1651     6049.00000
    62.1782     6327.00000
    62.1913     6202.00000
    62.2045     6279.00000
    62.2176     6311.00000
    62.2307     6303.00000
    62.2439     6064.00000
    62.2570     6055.00000
    62.2701     6113.00000
    62.2833     6045.00000
    62.2964     6199.00000
    62.3095     6340.00000
    62.3226     6137.00000
    62.3358     6011.00000
    62.3489     6042.00000
    62.3620     6149.00000
    62.3752     6042.00000
    62.3883     5966.00000
    62.4014     5910.00000
    62.4146     5969.00000
    62.4277     6081.00000
    62.4408     6218.00000
    62.4539     6063.00000
    62.4671     6172.00000
    62.4802     6075.00000
    62.4933     5964.00000
    62.5065     6005.00000
    62.5196     6176.00000
    62.5327     6095.00000
    62.5459     6219.00000
    62.5590     5961.00000
    62.5721     6036.00000
    62.5852     6019.00000
    62.5984     5961.00000
    62.6115     6220.00000
    62.6246     6103.00000
    62.6378     6119.00000
    62.6509     6124.00000
    62.6640     6322.00000
    62.6772     6243.00000
    62.6903     6081.00000
    62.7034     6215.00000
    62.7166     6113.00000
    62.7297     6107.00000
    62.7428     6298.00000
    62.7559     6218.00000
    62.7691     6097.00000
    62.7822     5905.00000
    62.7953     6218.00000
    62.8085     6210.00000
    62.8216     6313.00000
    62.8347     6237.00000
    62.8479     6228.00000
    62.8610     6094.00000
    62.8741     6186.00000
    62.8872     6238.00000
    62.9004     6231.00000
    62.9135     6152.00000
    62.9266     6255.00000
    62.9398     6204.00000
    62.9529     6215.00000
    62.9660     6242.00000
    62.9792     6349.00000
    62.9923     6150.00000
    63.0054     6376.00000
    63.0185     6300.00000
    63.0317     6556.00000
    63.0448     6602.00000
    63.0579     6752.00000
    63.0711     6904.00000
    63.0842     7363.00000
    63.0973     7284.00000
    63.1105     7516.00000
    63.1236     7372.00000
    63.1367     7146.00000
    63.1499     6704.00000
    63.1630     6724.00000
    63.1761     6389.00000
    63.1892     6372.00000
    63.2024     6689.00000
    63.2155     6519.00000
    63.2286     6581.00000
    63.2418     6726.00000
    63.2549     6934.00000
    63.2680     7018.00000
    63.2812     6912.00000
    63.2943     6907.00000
    63.3074     6902.00000
    63.3205     6656.00000
    63.3337     6541.00000
    63.3468     6608.00000
    63.3599     6350.00000
    63.3731     6489.00000
    63.3862     6669.00000
    63.3993     6656.00000
    63.4125     6920.00000
    63.4256     7227.00000
    63.4387     7520.00000
    63.4518     7887.00000
    63.4650     8034.00000
    63.4781     7957.00000
    63.4912     7548.00000
    63.5044     7186.00000
    63.5175     7121.00000
    63.5306     6887.00000
    63.5438     6835.00000
    63.5569     6873.00000
    63.5700     6680.00000
    63.5831     6933.00000
    63.5963     6790.00000
    63.6094     6940.00000
    63.6225     7158.00000
    63.6357     7072.00000
    63.6488     7119.00000
    63.6619     6939.00000
    63.6751     6725.00000
    63.6882     6466.00000
    63.7013     6522.00000
    63.7145     6250.00000
    63.7276     6514.00000
    63.7407     6388.00000
    63.7538     6346.00000
    63.7670     6117.00000
    63.7801     6214.00000
    63.7932     6083.00000
    63.8064     6241.00000
    63.8195     6296.00000
    63.8326     5999.00000
    63.8458     6122.00000
    63.8589     6087.00000
    63.8720     6189.00000
    63.8851     6300.00000
    63.8983     6115.00000
    63.9114     6001.00000
    63.9245     6148.00000
    63.9377     6081.00000
    63.9508     6233.00000
    63.9639     6123.00000
    63.9771     6264.00000
    63.9902     6173.00000
    64.0033     6200.00000
    64.0164     6122.00000
    64.0296     6266.00000
    64.0427     6279.00000
    64.0558     6350.00000
    64.0690     6388.00000
    64.0821     6384.00000
    64.0952     6592.00000
    64.1084     6617.00000
    64.1215     7016.00000
    64.1346     7478.00000
    64.1478     7553.00000
    64.1609     7443.00000
    64.1740     7376.00000
    64.1871     7233.00000
    64.2003     6909.00000
    64.2134     6707.00000
    64.2265     6469.00000
    64.2397     6472.00000
    64.2528     6523.00000
    64.2659     6476.00000
    64.2791     6457.00000
    64.2922     6595.00000
    64.3053     6708.00000
    64.3184     6808.00000
    64.3316     6817.00000
    64.3447     6863.00000
    64.3578     6713.00000
    64.3710     6660.00000
    64.3841     6539.00000
    64.3972     6568.00000
    64.4104     6346.00000
    64.4235     6270.00000
    64.4366     6276.00000
    64.4498     6127.00000
    64.4629     6151.00000
    64.4760     6214.00000
    64.4891     6157.00000
    64.5023     6051.00000
    64.5154     6062.00000
    64.5285     6029.00000
    64.5417     6183.00000
    64.5548     6261.00000
    64.5679     6113.00000
    64.5811     6095.00000
    64.5942     6010.00000
    64.6073     6086.00000
    64.6204     6178.00000
    64.6336     6264.00000
    64.6467     6221.00000
    64.6598     5998.00000
    64.6730     6143.00000
    64.6861     6178.00000
    64.6992     6211.00000
    64.7124     6255.00000
    64.7255     6049.00000
    64.7386     6145.00000
    64.7517     6124.00000
    64.7649     6037.00000
    64.7780     6021.00000
    64.7911     5946.00000
    64.8043     6151.00000
    64.8174     6007.00000
    64.8305     6106.00000
    64.8437     5931.00000
    64.8568     6145.00000
    64.8699     6195.00000
    64.8830     6143.00000
    64.8962     6063.00000
    64.9093     6040.00000
    64.9224     6148.00000
    64.9356     6087.00000
    64.9487     6091.00000
    64.9618     6289.00000
    64.9750     6193.00000
    64.9881     6230.00000
    65.0012     6047.00000
    65.0144     6182.00000
    65.0275     6166.00000
    65.0406     6216.00000
    65.0537     6092.00000
    65.0669     6008.00000
    65.0800     6233.00000
    65.0931     6102.00000
    65.1063     6016.00000
    65.1194     5997.00000
    65.1325     6281.00000
    65.1457     6203.00000
    65.1588     6216.00000
    65.1719     6123.00000
    65.1850     6163.00000
    65.1982     6158.00000
    65.2113     6160.00000
    65.2244     6064.00000
    65.2376     5943.00000
    65.2507     6225.00000
    65.2638     6165.00000
    65.2770     6043.00000
    65.2901     6125.00000
    65.3032     6128.00000
    65.3163     6238.00000
    65.3295     6046.00000
    65.3426     6128.00000
    65.3557     6008.00000
    65.3689     5991.00000
    65.3820     5983.00000
    65.3951     6065.00000
    65.4083     5993.00000
    65.4214     6086.00000
    65.4345     5905.00000
    65.4476     6015.00000
    65.4608     6100.00000
    65.4739     6021.00000
    65.4870     6040.00000
    65.5002     6172.00000
    65.5133     6004.00000
    65.5264     6065.00000
    65.5396     6031.00000
    65.5527     5974.00000
    65.5658     6110.00000
    65.5790     6027.00000
    65.5921     6103.00000
    65.6052     5915.00000
    65.6183     5880.00000
    65.6315     5885.00000
    65.6446     5981.00000
    65.6577     6019.00000
    65.6709     5957.00000
    65.6840     6010.00000
    65.6971     5828.00000
    65.7103     5839.00000
    65.7234     5847.00000
    65.7365     6082.00000
    65.7496     5917.00000
    65.7628     5968.00000
    65.7759     6135.00000
    65.7890     5943.00000
    65.8022     5922.00000
    65.8153     6006.00000
    65.8284     6059.00000
    65.8416     6013.00000
    65.8547     6110.00000
    65.8678     6029.00000
    65.8810     5898.00000
    65.8941     5882.00000
    65.9072     5949.00000
    65.9203     5820.00000
    65.9335     5934.00000
    65.9466     6053.00000
    65.9597     5998.00000
    65.9729     5966.00000
    65.9860     5951.00000
    65.9991     5899.00000
    66.0123     5899.00000
    66.0254     6187.00000
    66.0385     5944.00000
    66.0516     5952.00000
    66.0648     5989.00000
    66.0779     5910.00000
    66.0910     6126.00000
    66.1042     6084.00000
    66.1173     6178.00000
    66.1304     6236.00000
    66.1436     6080.00000
    66.1567     6101.00000
    66.1698     6049.00000
    66.1829     6115.00000
    66.1961     5979.00000
    66.2092     6223.00000
    66.2223     5998.00000
    66.2355     6082.00000
    66.2486     6090.00000
    66.2617     5892.00000
    66.2749     5817.00000
    66.2880     6034.00000
    66.3011     6116.00000
    66.3142     6009.00000
    66.3274     6095.00000
    66.3405     6020.00000
    66.3536     6177.00000
    66.3668     6000.00000
    66.3799     5974.00000
    66.3930     6027.00000
    66.4062     6139.00000
    66.4193     6092.00000
    66.4324     6144.00000
    66.4455     6002.00000
    66.4587     6141.00000
    66.4718     6232.00000
    66.4849     6128.00000
    66.4981     6014.00000
    66.5112     6004.00000
    66.5243     6086.00000
    66.5375     5920.00000
    66.5506     6083.00000
    66.5637     5833.00000
    66.5769     6013.00000
    66.5900     5998.00000
    66.6031     6108.00000
    66.6162     6227.00000
    66.6294     6123.00000
    66.6425     6175.00000
    66.6556     6012.00000
    66.6688     6149.00000
    66.6819     6066.00000
    66.6950     6078.00000
    66.7082     6022.00000
    66.7213     5938.00000
    66.7344     6037.00000
    66.7476     5929.00000
    66.7607     6033.00000
    66.7738     5875.00000
    66.7869     6022.00000
    66.8001     5893.00000
    66.8132     5854.00000
    66.8263     6103.00000
    66.8395     6058.00000
    66.8526     5911.00000
    66.8657     5991.00000
    66.8789     5771.00000
    66.8920     5881.00000
    66.9051     5867.00000
    66.9182     6064.00000
    66.9314     5891.00000
    66.9445     5998.00000
    66.9576     5916.00000
    66.9708     6003.00000
    66.9839     5891.00000
    66.9970     5960.00000
    67.0102     6017.00000
    67.0233     5931.00000
    67.0364     5854.00000
    67.0495     5837.00000
    67.0627     5989.00000
    67.0758     5942.00000
    67.0889     5951.00000
    67.1021     6066.00000
    67.1152     6005.00000
    67.1283     5914.00000
    67.1415     5997.00000
    67.1546     5988.00000
    67.1677     6001.00000
    67.1808     5886.00000
    67.1940     5888.00000
    67.2071     5901.00000
    67.2202     6070.00000
    67.2334     6086.00000
    67.2465     5966.00000
    67.2596     5841.00000
    67.2728     5826.00000
    67.2859     5806.00000
    67.2990     6038.00000
    67.3121     6019.00000
    67.3253     6094.00000
    67.3384     6099.00000
    67.3515     6070.00000
    67.3647     6120.00000
    67.3778     6200.00000
    67.3909     6117.00000
    67.4041     6293.00000
    67.4172     5965.00000
    67.4303     5970.00000
    67.4435     5937.00000
    67.4566     5950.00000
    67.4697     5913.00000
    67.4828     6153.00000
    67.4960     5939.00000
    67.5091     6156.00000
    67.5222     6125.00000
    67.5354     6132.00000
    67.5485     6149.00000
    67.5616     6193.00000
    67.5748     6105.00000
    67.5879     6308.00000
    67.6010     6099.00000
    67.6142     5981.00000
    67.6273     6173.00000
    67.6404     6137.00000
    67.6535     5999.00000
    67.6667     6099.00000
    67.6798     5969.00000
    67.6929     5876.00000
    67.7061     5979.00000
    67.7192     6158.00000
    67.7323     6022.00000
    67.7455     5908.00000
    67.7586     5943.00000
    67.7717     6140.00000
    67.7848     6002.00000
    67.7980     6004.00000
    67.8111     6008.00000
    67.8242     6112.00000
    67.8374     5993.00000
    67.8505     6059.00000
    67.8636     6039.00000
    67.8768     5876.00000
    67.8899     6049.00000
    67.9030     6032.00000
    67.9161     6151.00000
    67.9293     5946.00000
    67.9424     5987.00000
    67.9555     5951.00000
    67.9687     5886.00000
    67.9818     6038.00000
    67.9949     5946.00000
    68.0081     6052.00000
    68.0212     5969.00000
    68.0343     6103.00000
    68.0474     6054.00000
    68.0606     5959.00000
    68.0737     6083.00000
    68.0868     5972.00000
    68.1000     6116.00000
    68.1131     6181.00000
    68.1262     6048.00000
    68.1394     5901.00000
    68.1525     6067.00000
    68.1656     6056.00000
    68.1787     6106.00000
    68.1919     6120.00000
    68.2050     6272.00000
    68.2181     6049.00000
    68.2313     6030.00000
    68.2444     6076.00000
    68.2575     5939.00000
    68.2707     6034.00000
    68.2838     6223.00000
    68.2969     6074.00000
    68.3101     6014.00000
    68.3232     5850.00000
    68.3363     6109.00000
    68.3494     6013.00000
    68.3626     6060.00000
    68.3757     6040.00000
    68.3888     6002.00000
    68.4020     6103.00000
    68.4151     6181.00000
    68.4282     6178.00000
    68.4414     6007.00000
    68.4545     6222.00000
    68.4676     6019.00000
    68.4807     6005.00000
    68.4939     6057.00000
    68.5070     6247.00000
    68.5201     6170.00000
    68.5333     6106.00000
    68.5464     6088.00000
    68.5595     6077.00000
    68.5727     5894.00000
    68.5858     6125.00000
    68.5989     6397.00000
    68.6120     6554.00000
    68.6252     6622.00000
    68.6383     6633.00000
    68.6514     6706.00000
    68.6646     6583.00000
    68.6777     6665.00000
    68.6908     6540.00000
    68.7040     6809.00000
    68.7171     6841.00000
    68.7302     7179.00000
    68.7434     7252.00000
    68.7565     7395.00000
    68.7696     7852.00000
    68.7827     7692.00000
    68.7959     7476.00000
    68.8090     7143.00000
    68.8221     6830.00000
    68.8353     6840.00000
    68.8484     6783.00000
    68.8615     6557.00000
    68.8747     6673.00000
    68.8878     6473.00000
    68.9009     6644.00000
    68.9140     6655.00000
    68.9272     6794.00000
    68.9403     6715.00000
    68.9534     6824.00000
    68.9666     6872.00000
    68.9797     6745.00000
    68.9928     6668.00000
    69.0060     6584.00000
    69.0191     6602.00000
    69.0322     6368.00000
    69.0453     6389.00000
    69.0585     6326.00000
    69.0716     6400.00000
    69.0847     6602.00000
    69.0979     6654.00000
    69.1110     6752.00000
    69.1241     6802.00000
    69.1373     7020.00000
    69.1504     7477.00000
    69.1635     7844.00000
    69.1767     8434.00000
    69.1898     9248.00000
    69.2029     9731.00000
    69.2160     9808.00000
    69.2292     9179.00000
    69.2423     8711.00000
    69.2554     8139.00000
    69.2686     7681.00000
    69.2817     7236.00000
    69.2948     7125.00000
    69.3080     6944.00000
    69.3211     6818.00000
    69.3342     7172.00000
    69.3473     6986.00000
    69.3605     7402.00000
    69.3736     7845.00000
    69.3867     8216.00000
    69.3999     8445.00000
    69.4130     8703.00000
    69.4261     8527.00000
    69.4393     8479.00000
    69.4524     8069.00000
    69.4655     7533.00000
    69.4786     7246.00000
    69.4918     7034.00000
    69.5049     6750.00000
    69.5180     6532.00000
    69.5312     6587.00000
    69.5443     6444.00000
    69.5574     6348.00000
    69.5706     6517.00000
    69.5837     6534.00000
    69.5968     6491.00000
    69.6099     6471.00000
    69.6231     6684.00000
    69.6362     6742.00000
    69.6493     6496.00000
    69.6625     6654.00000
    69.6756     6572.00000
    69.6887     6406.00000
    69.7019     6321.00000
    69.7150     6302.00000
    69.7281     6468.00000
    69.7413     6407.00000
    69.7544     6367.00000
    69.7675     6571.00000
    69.7806     6762.00000
    69.7938     6904.00000
    69.8069     7208.00000
    69.8200     7530.00000
    69.8332     7864.00000
    69.8463     7748.00000
    69.8594     7617.00000
    69.8726     7300.00000
    69.8857     6963.00000
    69.8988     6855.00000
    69.9119     6740.00000
    69.9251     6471.00000
    69.9382     6517.00000
    69.9513     6531.00000
    69.9645     6496.00000
    69.9776     6441.00000
    69.9907     6556.00000
    70.0039     6867.00000
    70.0170     6854.00000
    70.0301     7022.00000
    70.0433     7134.00000
    70.0564     6987.00000
    70.0695     6846.00000
    70.0826     6696.00000
    70.0958     6655.00000
    70.1089     6490.00000
    70.1220     6371.00000
    70.1352     6400.00000
    70.1483     6307.00000
    70.1614     6317.00000
    70.1746     6184.00000
    70.1877     6151.00000
    70.2008     6085.00000
    70.2139     6092.00000
    70.2271     6087.00000
    70.2402     6069.00000
    70.2533     6093.00000
    70.2665     6277.00000
    70.2796     6064.00000
    70.2927     6273.00000
    70.3059     6242.00000
    70.3190     6256.00000
    70.3321     6286.00000
    70.3452     6505.00000
    70.3584     6379.00000
    70.3715     6467.00000
    70.3846     6777.00000
    70.3978     6535.00000
    70.4109     6623.00000
    70.4240     6588.00000
    70.4372     6441.00000
    70.4503     6314.00000
    70.4634     6394.00000
    70.4765     6439.00000
    70.4897     6430.00000
    70.5028     6394.00000
    70.5159     6436.00000
    70.5291     6598.00000
    70.5422     6693.00000
    70.5553     6904.00000
    70.5685     7111.00000
    70.5816     7166.00000
    70.5947     7092.00000
    70.6078     6894.00000
    70.6210     6818.00000
    70.6341     6585.00000
    70.6472     6492.00000
    70.6604     6436.00000
    70.6735     6354.00000
    70.6866     6558.00000
    70.6998     6486.00000
    70.7129     6615.00000
    70.7260     6596.00000
    70.7392     6616.00000
    70.7523     6589.00000
    70.7654     6537.00000
    70.7785     6603.00000
    70.7917     6369.00000
    70.8048     6394.00000
    70.8179     6470.00000
    70.8311     6108.00000
    70.8442     6192.00000
    70.8573     6213.00000
    70.8705     6084.00000
    70.8836     6112.00000
    70.8967     6102.00000
    70.9099     6173.00000
    70.9230     6170.00000
    70.9361     6014.00000
    70.9492     6185.00000
    70.9624     6059.00000
    70.9755     6083.00000
    70.9886     6083.00000
    71.0018     6176.00000
    71.0149     6066.00000
    71.0280     6029.00000
    71.0412     5956.00000
    71.0543     6178.00000
    71.0674     5940.00000
    71.0805     5916.00000
    71.0937     5986.00000
    71.1068     5900.00000
    71.1199     6158.00000
    71.1331     5966.00000
    71.1462     5995.00000
    71.1593     6186.00000
    71.1725     6139.00000
    71.1856     5979.00000
    71.1987     5939.00000
    71.2118     6005.00000
    71.2250     6070.00000
    71.2381     6149.00000
    71.2512     5932.00000
    71.2644     6090.00000
    71.2775     6124.00000
    71.2906     6183.00000
    71.3038     5972.00000
    71.3169     6098.00000
    71.3300     6068.00000
    71.3431     6116.00000
    71.3563     6141.00000
    71.3694     6124.00000
    71.3825     6228.00000
    71.3957     6174.00000
    71.4088     6126.00000
    71.4219     6107.00000
    71.4351     6137.00000
    71.4482     6205.00000
    71.4613     6207.00000
    71.4744     6093.00000
    71.4876     6328.00000
    71.5007     6166.00000
    71.5138     6294.00000
    71.5270     6363.00000
    71.5401     6456.00000
    71.5532     6375.00000
    71.5664     6341.00000
    71.5795     6421.00000
    71.5926     6239.00000
    71.6058     6212.00000
    71.6189     6239.00000
    71.6320     6327.00000
    71.6451     6292.00000
    71.6583     6486.00000
    71.6714     6352.00000
    71.6845     6433.00000
    71.6977     6433.00000
    71.7108     6630.00000
    71.7239     6934.00000
    71.7371     7092.00000
    71.7502     7357.00000
    71.7633     8055.00000
    71.7764     8573.00000
    71.7896     8818.00000
    71.8027     8953.00000
    71.8158     8697.00000
    71.8290     8462.00000
    71.8421     7984.00000
    71.8552     7635.00000
    71.8684     7377.00000
    71.8815     7045.00000
    71.8946     6851.00000
    71.9078     6701.00000
    71.9209     6638.00000
    71.9340     6700.00000
    71.9471     6636.00000
    71.9603     7009.00000
    71.9734     7226.00000
    71.9865     7248.00000
    71.9997     7502.00000
    72.0128     7597.00000
    72.0259     7483.00000
    72.0391     7192.00000
    72.0522     6982.00000
    72.0653     6804.00000
    72.0784     6538.00000
    72.0916     6275.00000
    72.1047     6314.00000
    72.1178     6134.00000
    72.1310     6360.00000
    72.1441     6128.00000
    72.1572     6123.00000
    72.1704     6027.00000
    72.1835     5913.00000
    72.1966     6164.00000
    72.2097     6152.00000
    72.2229     6325.00000
    72.2360     6062.00000
    72.2491     6108.00000
    72.2623     6133.00000
    72.2754     5978.00000
    72.2885     6151.00000
    72.3017     6043.00000
    72.3148     6104.00000
    72.3279     6019.00000
    72.3410     5993.00000
    72.3542     6108.00000
    72.3673     6138.00000
    72.3804     6132.00000
    72.3936     6258.00000
    72.4067     6091.00000
    72.4198     6167.00000
    72.4330     6377.00000
    72.4461     6402.00000
    72.4592     6568.00000
    72.4724     6669.00000
    72.4855     6660.00000
    72.4986     6697.00000
    72.5117     6548.00000
    72.5249     6340.00000
    72.5380     6436.00000
    72.5511     6050.00000
    72.5643     6181.00000
    72.5774     6228.00000
    72.5905     6117.00000
    72.6037     6032.00000
    72.6168     6155.00000
    72.6299     6159.00000
    72.6430     6140.00000
    72.6562     6228.00000
    72.6693     6455.00000
    72.6824     6382.00000
    72.6956     6387.00000
    72.7087     6528.00000
    72.7218     6395.00000
    72.7350     6164.00000
    72.7481     6386.00000
    72.7612     6286.00000
    72.7743     6473.00000
    72.7875     6387.00000
    72.8006     6242.00000
    72.8137     6366.00000
    72.8269     6262.00000
    72.8400     6286.00000
    72.8531     6163.00000
    72.8663     6086.00000
    72.8794     6188.00000
    72.8925     5927.00000
    72.9057     6055.00000
    72.9188     6216.00000
    72.9319     6150.00000
    72.9450     6278.00000
    72.9582     6112.00000
    72.9713     6278.00000
    72.9844     6426.00000
    72.9976     6465.00000
    73.0107     6512.00000
    73.0238     6735.00000
    73.0370     6995.00000
    73.0501     7257.00000
    73.0632     7352.00000
    73.0763     7578.00000
    73.0895     7620.00000
    73.1026     7634.00000
    73.1157     7327.00000
    73.1289     7051.00000
    73.1420     6839.00000
    73.1551     6739.00000
    73.1683     6606.00000
    73.1814     6386.00000
    73.1945     6231.00000
    73.2076     6511.00000
    73.2208     6440.00000
    73.2339     6513.00000
    73.2470     6579.00000
    73.2602     6484.00000
    73.2733     6629.00000
    73.2864     6667.00000
    73.2996     6854.00000
    73.3127     6886.00000
    73.3258     6515.00000
    73.3390     6422.00000
    73.3521     6636.00000
    73.3652     6449.00000
    73.3783     6402.00000
    73.3915     6276.00000
    73.4046     6115.00000
    73.4177     6294.00000
    73.4309     6329.00000
    73.4440     6249.00000
    73.4571     6008.00000
    73.4703     6048.00000
    73.4834     6063.00000
    73.4965     6193.00000
    73.5096     6363.00000
    73.5228     6156.00000
    73.5359     6087.00000
    73.5490     6090.00000
    73.5622     6047.00000
    73.5753     6026.00000
    73.5884     6283.00000
    73.6016     6128.00000
    73.6147     6354.00000
    73.6278     6207.00000
    73.6409     6242.00000
    73.6541     5982.00000
    73.6672     6093.00000
    73.6803     6080.00000
    73.6935     6100.00000
    73.7066     6151.00000
    73.7197     6076.00000
    73.7329     6297.00000
    73.7460     6269.00000
    73.7591     6233.00000
    73.7722     6252.00000
    73.7854     6128.00000
    73.7985     5996.00000
    73.8116     6211.00000
    73.8248     6327.00000
    73.8379     6299.00000
    73.8510     6340.00000
    73.8642     6369.00000
    73.8773     6600.00000
    73.8904     6663.00000
    73.9035     6918.00000
    73.9167     7025.00000
    73.9298     7058.00000
    73.9429     7096.00000
    73.9561     7133.00000
    73.9692     6946.00000
    73.9823     6848.00000
    73.9955     7147.00000
    74.0086     7493.00000
    74.0217     7402.00000
    74.0349     7375.00000
    74.0480     7247.00000
    74.0611     6987.00000
    74.0742     7021.00000
    74.0874     6839.00000
    74.1005     6763.00000
    74.1136     6875.00000
    74.1268     6876.00000
    74.1399     6873.00000
    74.1530     6978.00000
    74.1662     6929.00000
    74.1793     6939.00000
    74.1924     7188.00000
    74.2056     7108.00000
    74.2187     7117.00000
    74.2318     6990.00000
    74.2449     6854.00000
    74.2581     6716.00000
    74.2712     6640.00000
    74.2843     6636.00000
    74.2975     6440.00000
    74.3106     6342.00000
    74.3237     6166.00000
    74.3369     6228.00000
    74.3500     6208.00000
    74.3631     6219.00000
    74.3762     6083.00000
    74.3894     6414.00000
    74.4025     6309.00000
    74.4156     6180.00000
    74.4288     6308.00000
    74.4419     6258.00000
    74.4550     6071.00000
    74.4682     5999.00000
    74.4813     6049.00000
    74.4944     6207.00000
    74.5075     5996.00000
    74.5207     6160.00000
    74.5338     6132.00000
    74.5469     6063.00000
    74.5601     6056.00000
    74.5732     6019.00000
    74.5863     5991.00000
    74.5995     5985.00000
    74.6126     6084.00000
    74.6257     5950.00000
    74.6388     5997.00000
    74.6520     6185.00000
    74.6651     5906.00000
    74.6782     6063.00000
    74.6914     5964.00000
    74.7045     5939.00000
    74.7176     5994.00000
    74.7308     5953.00000
    74.7439     6037.00000
    74.7570     6115.00000
    74.7701     6108.00000
    74.7833     6072.00000
    74.7964     6013.00000
    74.8095     6084.00000
    74.8227     6097.00000
    74.8358     6390.00000
    74.8489     6136.00000
    74.8621     5887.00000
    74.8752     5965.00000
    74.8883     6061.00000
    74.9015     5990.00000
    74.9146     5980.00000
    74.9277     5783.00000
    74.9408     6009.00000
    74.9540     5873.00000
    74.9671     5849.00000
    74.9802     5839.00000
    74.9934     6010.00000
    75.0065     6004.00000
    75.0196     5877.00000
    75.0328     6029.00000
    75.0459     6036.00000
    75.0590     6069.00000
    75.0722     6013.00000
    75.0853     5849.00000
    75.0984     5925.00000
    75.1115     5919.00000
    75.1247     6045.00000
    75.1378     5947.00000
    75.1509     5929.00000
    75.1641     6106.00000
    75.1772     5938.00000
    75.1903     5948.00000
    75.2035     5778.00000
    75.2166     5848.00000
    75.2297     5894.00000
    75.2428     5960.00000
    75.2560     5957.00000
    75.2691     5763.00000
    75.2822     5832.00000
    75.2954     5878.00000
    75.3085     5941.00000
    75.3216     5978.00000
    75.3348     6011.00000
    75.3479     6129.00000
    75.3610     5968.00000
    75.3741     5887.00000
    75.3873     5738.00000
    75.4004     5836.00000
    75.4135     5855.00000
    75.4267     5997.00000
    75.4398     5897.00000
    75.4529     5949.00000
    75.4661     5880.00000
    75.4792     5870.00000
    75.4923     6108.00000
    75.5054     5949.00000
    75.5186     5816.00000
    75.5317     5776.00000
    75.5448     5926.00000
    75.5580     5996.00000
    75.5711     6020.00000
    75.5842     6001.00000
    75.5974     6053.00000
    75.6105     6065.00000
    75.6236     6145.00000
    75.6367     6348.00000
    75.6499     6478.00000
    75.6630     6653.00000
    75.6761     6582.00000
    75.6893     6351.00000
    75.7024     6425.00000
    75.7155     6284.00000
    75.7287     6303.00000
    75.7418     6152.00000
    75.7549     6087.00000
    75.7681     6065.00000
    75.7812     6099.00000
    75.7943     6212.00000
    75.8074     6143.00000
    75.8206     6092.00000
    75.8337     6021.00000
    75.8468     6071.00000
    75.8600     6134.00000
    75.8731     6112.00000
    75.8862     6215.00000
    75.8994     6272.00000
    75.9125     6197.00000
    75.9256     6191.00000
    75.9387     6186.00000
    75.9519     6123.00000
    75.9650     6123.00000
    75.9781     6182.00000
    75.9913     5990.00000
    76.0044     5892.00000
    76.0175     6040.00000
    76.0307     6066.00000
    76.0438     5857.00000
    76.0569     5999.00000
    76.0701     5901.00000
    76.0832     5937.00000
    76.0963     5975.00000
    76.1094     5927.00000
    76.1226     6062.00000
    76.1357     5967.00000
    76.1488     5972.00000
    76.1620     5897.00000
    76.1751     5803.00000
    76.1882     5882.00000
    76.2014     5904.00000
    76.2145     5968.00000
    76.2276     5827.00000
    76.2407     5917.00000
    76.2539     5925.00000
    76.2670     6121.00000
    76.2801     5947.00000
    76.2933     5904.00000
    76.3064     6078.00000
    76.3195     6042.00000
    76.3327     6037.00000
    76.3458     6241.00000
    76.3589     6337.00000
    76.3720     6241.00000
    76.3852     6471.00000
    76.3983     6444.00000
    76.4114     6645.00000
    76.4246     6675.00000
    76.4377     6490.00000
    76.4508     6451.00000
    76.4640     6472.00000
    76.4771     6703.00000
    76.4902     6658.00000
    76.5033     6839.00000
    76.5165     7025.00000
    76.5296     6925.00000
    76.5427     7326.00000
    76.5559     7335.00000
    76.5690     7225.00000
    76.5821     7192.00000
    76.5953     7115.00000
    76.6084     6826.00000
    76.6215     6691.00000
    76.6347     6672.00000
    76.6478     6604.00000
    76.6609     6520.00000
    76.6740     6487.00000
    76.6872     6316.00000
    76.7003     6443.00000
    76.7134     6384.00000
    76.7266     6548.00000
    76.7397     6563.00000
    76.7528     6614.00000
    76.7660     6875.00000
    76.7791     6991.00000
    76.7922     7113.00000
    76.8053     7154.00000
    76.8185     7240.00000
    76.8316     7293.00000
    76.8447     7555.00000
    76.8579     7423.00000
    76.8710     7072.00000
    76.8841     6842.00000
    76.8973     6517.00000
    76.9104     6445.00000
    76.9235     6308.00000
    76.9366     6158.00000
    76.9498     6158.00000
    76.9629     6232.00000
    76.9760     6166.00000
    76.9892     6329.00000
    77.0023     6289.00000
    77.0154     6287.00000
    77.0286     6291.00000
    77.0417     6436.00000
    77.0548     6433.00000
    77.0679     6600.00000
    77.0811     6679.00000
    77.0942     6415.00000
    77.1073     6605.00000
    77.1205     6258.00000
    77.1336     6147.00000
    77.1467     6198.00000
    77.1599     6265.00000
    77.1730     6256.00000
    77.1861     6226.00000
    77.1993     6040.00000
    77.2124     6136.00000
    77.2255     6161.00000
    77.2386     6060.00000
    77.2518     6027.00000
    77.2649     6010.00000
    77.2780     6156.00000
    77.2912     6080.00000
    77.3043     6114.00000
    77.3174     6106.00000
    77.3306     6003.00000
    77.3437     6260.00000
    77.3568     6373.00000
    77.3699     6338.00000
    77.3831     6574.00000
    77.3962     6713.00000
    77.4093     6591.00000
    77.4225     6594.00000
    77.4356     6525.00000
    77.4487     6489.00000
    77.4619     6610.00000
    77.4750     6663.00000
    77.4881     6638.00000
    77.5013     6832.00000
    77.5144     6742.00000
    77.5275     6654.00000
    77.5406     6465.00000
    77.5538     6345.00000
    77.5669     6291.00000
    77.5800     6185.00000
    77.5932     6398.00000
    77.6063     6318.00000
    77.6194     6291.00000
    77.6326     6226.00000
    77.6457     6472.00000
    77.6588     6342.00000
    77.6719     6166.00000
    77.6851     6176.00000
    77.6982     6373.00000
    77.7113     6360.00000
    77.7245     6122.00000
    77.7376     6355.00000
    77.7507     6253.00000
    77.7639     6157.00000
    77.7770     6069.00000
    77.7901     6049.00000
    77.8032     5984.00000
    77.8164     5898.00000
    77.8295     5899.00000
    77.8426     5916.00000
    77.8558     5898.00000
    77.8689     6091.00000
    77.8820     6092.00000
    77.8952     5974.00000
    77.9083     5878.00000
    77.9214     5960.00000
    77.9345     5776.00000
    77.9477     5937.00000
    77.9608     5830.00000
    77.9739     6005.00000
    77.9871     5841.00000
    78.0002     5933.00000
    78.0133     5884.00000
    78.0265     5992.00000
    78.0396     5997.00000
    78.0527     6013.00000
    78.0658     6022.00000
    78.0790     5864.00000
    78.0921     5905.00000
    78.1052     6051.00000
    78.1184     5751.00000
    78.1315     5852.00000
    78.1446     5899.00000
    78.1578     5819.00000
    78.1709     5938.00000
    78.1840     5755.00000
    78.1972     6104.00000
    78.2103     5861.00000
    78.2234     5842.00000
    78.2365     5785.00000
    78.2497     5942.00000
    78.2628     5992.00000
    78.2759     6001.00000
    78.2891     5923.00000
    78.3022     5844.00000
    78.3153     5927.00000
    78.3285     5886.00000
    78.3416     5805.00000
    78.3547     5827.00000
    78.3679     6000.00000
    78.3810     6039.00000
    78.3941     6021.00000
    78.4072     5951.00000
    78.4204     5960.00000
    78.4335     6036.00000
    78.4466     6068.00000
    78.4598     6041.00000
    78.4729     5864.00000
    78.4860     6008.00000
    78.4992     6101.00000
    78.5123     5986.00000
    78.5254     5960.00000
    78.5385     6001.00000
    78.5517     6074.00000
    78.5648     6155.00000
    78.5779     6005.00000
    78.5911     6161.00000
    78.6042     6178.00000
    78.6173     6263.00000
    78.6305     6131.00000
    78.6436     6177.00000
    78.6567     6278.00000
    78.6698     6350.00000
    78.6830     6464.00000
    78.6961     6705.00000
    78.7092     6916.00000
    78.7224     6938.00000
    78.7355     7157.00000
    78.7486     7006.00000
    78.7618     6921.00000
    78.7749     6812.00000
    78.7880     6662.00000
    78.8011     6485.00000
    78.8143     6600.00000
    78.8274     6422.00000
    78.8405     6369.00000
    78.8537     6321.00000
    78.8668     6358.00000
    78.8799     6366.00000
    78.8931     6471.00000
    78.9062     6497.00000
    78.9193     6507.00000
    78.9324     6820.00000
    78.9456     6984.00000
    78.9587     6867.00000
    78.9718     6933.00000
    78.9850     6962.00000
    78.9981     6958.00000
    79.0112     6808.00000
    79.0244     6860.00000
    79.0375     6690.00000
    79.0506     6656.00000
    79.0638     6637.00000
    79.0769     6632.00000
    79.0900     6347.00000
    79.1031     6150.00000
    79.1163     6340.00000
    79.1294     6351.00000
    79.1425     6290.00000
    79.1557     6197.00000
    79.1688     6316.00000
    79.1819     6185.00000
    79.1951     6146.00000
    79.2082     6090.00000
    79.2213     6329.00000
    79.2345     6340.00000
    79.2476     6190.00000
    79.2607     6171.00000
    79.2738     6339.00000
    79.2870     6326.00000
    79.3001     6188.00000
    79.3132     6290.00000
    79.3264     6260.00000
    79.3395     6359.00000
    79.3526     6168.00000
    79.3658     6191.00000
    79.3789     6112.00000
    79.3920     6122.00000
    79.4051     6099.00000
    79.4183     6138.00000
    79.4314     6155.00000
    79.4445     6437.00000
    79.4577     6390.00000
    79.4708     6428.00000
    79.4839     6703.00000
    79.4971     6772.00000
    79.5102     6949.00000
    79.5233     7022.00000
    79.5364     7063.00000
    79.5496     7147.00000
    79.5627     6616.00000
    79.5758     6722.00000
    79.5890     6645.00000
    79.6021     6579.00000
    79.6152     6363.00000
    79.6284     6429.00000
    79.6415     6321.00000
    79.6546     6366.00000
    79.6677     6465.00000
    79.6809     6462.00000
    79.6940     6348.00000
    79.7071     6406.00000
    79.7203     6428.00000
    79.7334     6395.00000
    79.7465     6654.00000
    79.7597     6662.00000
    79.7728     6700.00000
    79.7859     6834.00000
    79.7990     6682.00000
    79.8122     6987.00000
    79.8253     6893.00000
    79.8384     6780.00000
    79.8516     6651.00000
    79.8647     6356.00000
    79.8778     6420.00000
    79.8910     6387.00000
    79.9041     6220.00000
    79.9172     6390.00000
    79.9304     6123.00000
    79.9435     6114.00000
    79.9566     6198.00000
    79.9697     6189.00000
    79.9829     6216.00000
    79.9960     6159.00000
    80.0091     6117.00000
    80.0223     6089.00000
    80.0354     6286.00000
    80.0485     6170.00000
    80.0617     6302.00000
    80.0748     6397.00000
    80.0879     6362.00000
    80.1010     6093.00000
    80.1142     6116.00000
    80.1273     6048.00000
    80.1404     5927.00000
    80.1536     5993.00000
    80.1667     6122.00000
    80.1798     5979.00000
    80.1930     5981.00000
    80.2061     5904.00000
    80.2192     5957.00000
    80.2323     6187.00000
    80.2455     6058.00000
    80.2586     5847.00000
    80.2717     6110.00000
    80.2849     5986.00000
    80.2980     5860.00000
    80.3111     5931.00000
    80.3243     6086.00000
    80.3374     6259.00000
    80.3505     6259.00000
    80.3637     6288.00000
    80.3768     6364.00000
    80.3899     6540.00000
    80.4030     6541.00000
    80.4162     6856.00000
    80.4293     6859.00000
    80.4424     7138.00000
    80.4556     6839.00000
    80.4687     6910.00000
    80.4818     7025.00000
    80.4950     7129.00000
    80.5081     6987.00000
    80.5212     6925.00000
    80.5343     7005.00000
    80.5475     6996.00000
    80.5606     7034.00000
    80.5737     7010.00000
    80.5869     6973.00000
    80.6000     6566.00000
    80.6131     6797.00000
    80.6263     6719.00000
    80.6394     6555.00000
    80.6525     6543.00000
    80.6656     6471.00000
    80.6788     6636.00000
    80.6919     6528.00000
    80.7050     6725.00000
    80.7182     6380.00000
    80.7313     6318.00000
    80.7444     6487.00000
    80.7576     6574.00000
    80.7707     6602.00000
    80.7838     6434.00000
    80.7970     6381.00000
    80.8101     6467.00000
    80.8232     6385.00000
    80.8363     6326.00000
    80.8495     6467.00000
    80.8626     6301.00000
    80.8757     6178.00000
    80.8889     6128.00000
    80.9020     6192.00000
    80.9151     6342.00000
    80.9283     6278.00000
    80.9414     6208.00000
    80.9545     6391.00000
    80.9676     6450.00000
    80.9808     6397.00000
    80.9939     6317.00000
    81.0070     6421.00000
    81.0202     6521.00000
    81.0333     6329.00000
    81.0464     6315.00000
    81.0596     6482.00000
    81.0727     6359.00000
    81.0858     6547.00000
    81.0989     6330.00000
    81.1121     6339.00000
    81.1252     6209.00000
    81.1383     6265.00000
    81.1515     6521.00000
    81.1646     6637.00000
    81.1777     6822.00000
    81.1909     7026.00000
    81.2040     7060.00000
    81.2171     6813.00000
    81.2302     6680.00000
    81.2434     6616.00000
    81.2565     6536.00000
    81.2696     6514.00000
    81.2828     6543.00000
    81.2959     6360.00000
    81.3090     6242.00000
    81.3222     6148.00000
    81.3353     6252.00000
    81.3484     6219.00000
    81.3616     6226.00000
    81.3747     6322.00000
    81.3878     6324.00000
    81.4009     6354.00000
    81.4141     6355.00000
    81.4272     6426.00000
    81.4403     6476.00000
    81.4535     6349.00000
    81.4666     6279.00000
    81.4797     6342.00000
    81.4929     6305.00000
    81.5060     6136.00000
    81.5191     6074.00000
    81.5322     6116.00000
    81.5454     5958.00000
    81.5585     6285.00000
    81.5716     6247.00000
    81.5848     6096.00000
    81.5979     6022.00000
    81.6110     6107.00000
    81.6242     6086.00000
    81.6373     6104.00000
    81.6504     6029.00000
    81.6636     6064.00000
    81.6767     5995.00000
    81.6898     5920.00000
    81.7029     6060.00000
    81.7161     5961.00000
    81.7292     5992.00000
    81.7423     6087.00000
    81.7555     5984.00000
    81.7686     6011.00000
    81.7817     5995.00000
    81.7949     6073.00000
    81.8080     6186.00000
    81.8211     6026.00000
    81.8342     6100.00000
    81.8474     6040.00000
    81.8605     5933.00000
    81.8736     5984.00000
    81.8868     5855.00000
    81.8999     6198.00000
    81.9130     6177.00000
    81.9262     6095.00000
    81.9393     6199.00000
    81.9524     6342.00000
    81.9655     6265.00000
    81.9787     6437.00000
    81.9918     6496.00000
    82.0049     6292.00000
    82.0181     6311.00000
    82.0312     6242.00000
    82.0443     5967.00000
    82.0575     6061.00000
    82.0706     5914.00000
    82.0837     6191.00000
    82.0968     5937.00000
    82.1100     5893.00000
    82.1231     5824.00000
    82.1362     5934.00000
    82.1494     6013.00000
    82.1625     6130.00000
    82.1756     6187.00000
    82.1888     6129.00000
    82.2019     6124.00000
    82.2150     6299.00000
    82.2281     6132.00000
    82.2413     6318.00000
    82.2544     6345.00000
    82.2675     6532.00000
    82.2807     6562.00000
    82.2938     6326.00000
    82.3069     6477.00000
    82.3201     6518.00000
    82.3332     6432.00000
    82.3463     6382.00000
    82.3595     6255.00000
    82.3726     6185.00000
    82.3857     6172.00000
    82.3988     6157.00000
    82.4120     6098.00000
    82.4251     6109.00000
    82.4382     5941.00000
    82.4514     6032.00000
    82.4645     6056.00000
    82.4776     5981.00000
    82.4908     5917.00000
    82.5039     5944.00000
    82.5170     6069.00000
    82.5302     6083.00000
    82.5433     6138.00000
    82.5564     6001.00000
    82.5695     6303.00000
    82.5827     6231.00000
    82.5958     5993.00000
    82.6089     6118.00000
    82.6221     6030.00000
    82.6352     6084.00000
    82.6483     5850.00000
    82.6615     6011.00000
    82.6746     5980.00000
    82.6877     5948.00000
    82.7008     5873.00000
    82.7140     5997.00000
    82.7271     5905.00000
    82.7402     6046.00000
    82.7534     5943.00000
    82.7665     6202.00000
    82.7796     6026.00000
    82.7928     6118.00000
    82.8059     5996.00000
    82.8190     6070.00000
    82.8321     6395.00000
    82.8453     6563.00000
    82.8584     6593.00000
    82.8715     6799.00000
    82.8847     6787.00000
    82.8978     6628.00000
    82.9109     6452.00000
    82.9241     6367.00000
    82.9372     6238.00000
    82.9503     6143.00000
    82.9634     6048.00000
    82.9766     6017.00000
    82.9897     5904.00000
    83.0028     6018.00000
    83.0160     5917.00000
    83.0291     6010.00000
    83.0422     6045.00000
    83.0554     5990.00000
    83.0685     6027.00000
    83.0816     5980.00000
    83.0947     6044.00000
    83.1079     6244.00000
    83.1210     6445.00000
    83.1341     6343.00000
    83.1473     6320.00000
    83.1604     6124.00000
    83.1735     6031.00000
    83.1867     6252.00000
    83.1998     6144.00000
    83.2129     5992.00000
    83.2261     6021.00000
    83.2392     5747.00000
    83.2523     5841.00000
    83.2654     5973.00000
    83.2786     5869.00000
    83.2917     5838.00000
    83.3048     5901.00000
    83.3180     5751.00000
    83.3311     5974.00000
    83.3442     5722.00000
    83.3574     5813.00000
    83.3705     5830.00000
    83.3836     5884.00000
    83.3967     5864.00000
    83.4099     5925.00000
    83.4230     5974.00000
    83.4361     5928.00000
    83.4493     5849.00000
    83.4624     5794.00000
    83.4755     5787.00000
    83.4887     5768.00000
    83.5018     5753.00000
    83.5149     5756.00000
    83.5281     5952.00000
    83.5412     5985.00000
    83.5543     5665.00000
    83.5674     5842.00000
    83.5806     5782.00000
    83.5937     5887.00000
    83.6068     5824.00000
    83.6200     5857.00000
    83.6331     5711.00000
    83.6462     5814.00000
    83.6594     5875.00000
    83.6725     5812.00000
    83.6856     5871.00000
    83.6987     5835.00000
    83.7119     5896.00000
    83.7250     5736.00000
    83.7381     5956.00000
    83.7513     5874.00000
    83.7644     5957.00000
    83.7775     5859.00000
    83.7907     5764.00000
    83.8038     5787.00000
    83.8169     5799.00000
    83.8300     5853.00000
    83.8432     5726.00000
    83.8563     5841.00000
    83.8694     5800.00000
    83.8826     5757.00000
    83.8957     5842.00000
    83.9088     5889.00000
    83.9220     6028.00000
    83.9351     6011.00000
    83.9482     6044.00000
    83.9613     5748.00000
    83.9745     5875.00000
    83.9876     5889.00000
    84.0007     5863.00000
    84.0139     5746.00000
    84.0270     5845.00000
    84.0401     5955.00000
    84.0533     5883.00000
    84.0664     6060.00000
    84.0795     6101.00000
    84.0927     6096.00000
    84.1058     6083.00000
    84.1189     6006.00000
    84.1320     6119.00000
    84.1452     5956.00000
    84.1583     6164.00000
    84.1714     6156.00000
    84.1846     6062.00000
    84.1977     6151.00000
    84.2108     6195.00000
    84.2240     6356.00000
    84.2371     6319.00000
    84.2502     6314.00000
    84.2633     6412.00000
    84.2765     6504.00000
    84.2896     6432.00000
    84.3027     6173.00000
    84.3159     6208.00000
    84.3290     5999.00000
    84.3421     6062.00000
    84.3553     6252.00000
    84.3684     6117.00000
    84.3815     6157.00000
    84.3946     6282.00000
    84.4078     6246.00000
    84.4209     6285.00000
    84.4340     6265.00000
    84.4472     6226.00000
    84.4603     6285.00000
    84.4734     6426.00000
    84.4866     6362.00000
    84.4997     6370.00000
    84.5128     6412.00000
    84.5260     6584.00000
    84.5391     6190.00000
    84.5522     6259.00000
    84.5653     6148.00000
    84.5785     6136.00000
    84.5916     6110.00000
    84.6047     5966.00000
    84.6179     5851.00000
    84.6310     5889.00000
    84.6441     6052.00000
    84.6573     6099.00000
    84.6704     5954.00000
    84.6835     5786.00000
    84.6966     6053.00000
    84.7098     6163.00000
    84.7229     5930.00000
    84.7360     5958.00000
    84.7492     5924.00000
    84.7623     5951.00000
    84.7754     5927.00000
    84.7886     5883.00000
    84.8017     5779.00000
    84.8148     5911.00000
    84.8279     5878.00000
    84.8411     5749.00000
    84.8542     5705.00000
    84.8673     5955.00000
    84.8805     5855.00000
    84.8936     5931.00000
    84.9067     5966.00000
    84.9199     5793.00000
    84.9330     5801.00000
    84.9461     5803.00000
    84.9593     5870.00000
    84.9724     5869.00000
    84.9855     5799.00000
    84.9986     5696.00000
    85.0118     5845.00000
    85.0249     6016.00000
    85.0380     5843.00000
    85.0512     5751.00000
    85.0643     5749.00000
    85.0774     5831.00000
    85.0906     5913.00000
    85.1037     5862.00000
    85.1168     5960.00000
    85.1299     5916.00000
    85.1431     5888.00000
    85.1562     5859.00000
    85.1693     6049.00000
    85.1825     5828.00000
    85.1956     5828.00000
    85.2087     5855.00000
    85.2219     5806.00000
    85.2350     5886.00000
    85.2481     5894.00000
    85.2612     5837.00000
    85.2744     5826.00000
    85.2875     5768.00000
    85.3006     5997.00000
    85.3138     5843.00000
    85.3269     5878.00000
    85.3400     5939.00000
    85.3532     5700.00000
    85.3663     5853.00000
    85.3794     5928.00000
    85.3925     5956.00000
    85.4057     5953.00000
    85.4188     5838.00000
    85.4319     5761.00000
    85.4451     5878.00000
    85.4582     5987.00000
    85.4713     5773.00000
    85.4845     6026.00000
    85.4976     5928.00000
    85.5107     5915.00000
    85.5238     5826.00000
    85.5370     5802.00000
    85.5501     5996.00000
    85.5632     5853.00000
    85.5764     5884.00000
    85.5895     5786.00000
    85.6026     5844.00000
    85.6158     6065.00000
    85.6289     6044.00000
    85.6420     6084.00000
    85.6552     6083.00000
    85.6683     6233.00000
    85.6814     6091.00000
    85.6945     6032.00000
    85.7077     5952.00000
    85.7208     5887.00000
    85.7339     5902.00000
    85.7471     5806.00000
    85.7602     5880.00000
    85.7733     5916.00000
    85.7865     5675.00000
    85.7996     5796.00000
    85.8127     5916.00000
    85.8259     5876.00000
    85.8390     5815.00000
    85.8521     5957.00000
    85.8652     5883.00000
    85.8784     5976.00000
    85.8915     5940.00000
    85.9046     5965.00000
    85.9178     5902.00000
    85.9309     6008.00000
    85.9440     6122.00000
    85.9572     5982.00000
    85.9703     5970.00000
    85.9834     6034.00000
    85.9965     5790.00000
    86.0097     6032.00000
    86.0228     5814.00000
    86.0359     5963.00000
    86.0491     5916.00000
    86.0622     5862.00000
    86.0753     6015.00000
    86.0885     5919.00000
    86.1016     5836.00000
    86.1147     6129.00000
    86.1278     6099.00000
    86.1410     5938.00000
    86.1541     5983.00000
    86.1672     5963.00000
    86.1804     5984.00000
    86.1935     5825.00000
    86.2066     5945.00000
    86.2198     5991.00000
    86.2329     6024.00000
    86.2460     6034.00000
    86.2591     5992.00000
    86.2723     6169.00000
    86.2854     6101.00000
    86.2985     6013.00000
    86.3117     6280.00000
    86.3248     6191.00000
    86.3379     6133.00000
    86.3511     6204.00000
    86.3642     6098.00000
    86.3773     6145.00000
    86.3904     5983.00000
    86.4036     6105.00000
    86.4167     6060.00000
    86.4298     5956.00000
    86.4430     6019.00000
    86.4561     6024.00000
    86.4692     5931.00000
    86.4824     6090.00000
    86.4955     6104.00000
    86.5086     6084.00000
    86.5218     6148.00000
    86.5349     6314.00000
    86.5480     6293.00000
    86.5611     6229.00000
    86.5743     6490.00000
    86.5874     6477.00000
    86.6005     6615.00000
    86.6137     6776.00000
    86.6268     6857.00000
    86.6399     6958.00000
    86.6531     6797.00000
    86.6662     7023.00000
    86.6793     6866.00000
    86.6925     6825.00000
    86.7056     6950.00000
    86.7187     6967.00000
    86.7318     7055.00000
    86.7450     7025.00000
    86.7581     6868.00000
    86.7712     6893.00000
    86.7844     6792.00000
    86.7975     6707.00000
    86.8106     6482.00000
    86.8238     6469.00000
    86.8369     6441.00000
    86.8500     6512.00000
    86.8631     6595.00000
    86.8763     6632.00000
    86.8894     6609.00000
    86.9025     6646.00000
    86.9157     6711.00000
    86.9288     6554.00000
    86.9419     6721.00000
    86.9551     6517.00000
    86.9682     6747.00000
    86.9813     6593.00000
    86.9944     6618.00000
    87.0076     6381.00000
    87.0207     6453.00000
    87.0338     6462.00000
    87.0470     6205.00000
    87.0601     6265.00000
    87.0732     6124.00000
    87.0864     6193.00000
    87.0995     6008.00000
    87.1126     6032.00000
    87.1257     6128.00000
    87.1389     6053.00000
    87.1520     5967.00000
    87.1651     6230.00000
    87.1783     6025.00000
    87.1914     5994.00000
    87.2045     6101.00000
    87.2177     6019.00000
    87.2308     5925.00000
    87.2439     6040.00000
    87.2570     5872.00000
    87.2702     5927.00000
    87.2833     6018.00000
    87.2964     5992.00000
    87.3096     5845.00000
    87.3227     5732.00000
    87.3358     5997.00000
    87.3490     5898.00000
    87.3621     5962.00000
    87.3752     5905.00000
    87.3884     6088.00000
    87.4015     5905.00000
    87.4146     5885.00000
    87.4277     5995.00000
    87.4409     5927.00000
    87.4540     5939.00000
    87.4671     6025.00000
    87.4803     5975.00000
    87.4934     5982.00000
    87.5065     6015.00000
    87.5197     6016.00000
    87.5328     6058.00000
    87.5459     6139.00000
    87.5590     6207.00000
    87.5722     6151.00000
    87.5853     6137.00000
    87.5984     6180.00000
    87.6116     6262.00000
    87.6247     6165.00000
    87.6378     6273.00000
    87.6510     6519.00000
    87.6641     6505.00000
    87.6772     6260.00000
    87.6904     6387.00000
    87.7035     6345.00000
    87.7166     6203.00000
    87.7297     6120.00000
    87.7429     6158.00000
    87.7560     6383.00000
    87.7691     6247.00000
    87.7823     6283.00000
    87.7954     6149.00000
    87.8085     6300.00000
    87.8217     6478.00000
    87.8348     6457.00000
    87.8479     6491.00000
    87.8610     6617.00000
    87.8742     6577.00000
    87.8873     6353.00000
    87.9004     6441.00000
    87.9136     6187.00000
    87.9267     6263.00000
    87.9398     6121.00000
    87.9530     6221.00000
    87.9661     6191.00000
    87.9792     6116.00000
    87.9923     6229.00000
    88.0055     5990.00000
    88.0186     6137.00000
    88.0317     6076.00000
    88.0449     5862.00000
    88.0580     5970.00000
    88.0711     6038.00000
    88.0843     6203.00000
    88.0974     5992.00000
    88.1105     6084.00000
    88.1236     6102.00000
    88.1368     6142.00000
    88.1499     6079.00000
    88.1630     6079.00000
    88.1762     5976.00000
    88.1893     5812.00000
    88.2024     5649.00000
    88.2156     6014.00000
    88.2287     6123.00000
    88.2418     5913.00000
    88.2550     5806.00000
    88.2681     5855.00000
    88.2812     5900.00000
    88.2943     6016.00000
    88.3075     6094.00000
    88.3206     5940.00000
    88.3337     5971.00000
    88.3469     6008.00000
    88.3600     5954.00000
    88.3731     5803.00000
    88.3863     5887.00000
    88.3994     5911.00000
    88.4125     5884.00000
    88.4256     5992.00000
    88.4388     6021.00000
    88.4519     6020.00000
    88.4650     6121.00000
    88.4782     6194.00000
    88.4913     6151.00000
    88.5044     6333.00000
    88.5176     6416.00000
    88.5307     6532.00000
    88.5438     6387.00000
    88.5569     6467.00000
    88.5701     6481.00000
    88.5832     6603.00000
    88.5963     6566.00000
    88.6095     6536.00000
    88.6226     6363.00000
    88.6357     6228.00000
    88.6489     6325.00000
    88.6620     6306.00000
    88.6751     6050.00000
    88.6882     5937.00000
    88.7014     6173.00000
    88.7145     6222.00000
    88.7276     6096.00000
    88.7408     6100.00000
    88.7539     5993.00000
    88.7670     6011.00000
    88.7802     6238.00000
    88.7933     6450.00000
    88.8064     6199.00000
    88.8196     6259.00000
    88.8327     6356.00000
    88.8458     6429.00000
    88.8589     6306.00000
    88.8721     6264.00000
    88.8852     6188.00000
    88.8983     6296.00000
    88.9115     6157.00000
    88.9246     6138.00000
    88.9377     6175.00000
    88.9509     6065.00000
    88.9640     5979.00000
    88.9771     6067.00000
    88.9902     6076.00000
    89.0034     6192.00000
    89.0165     6151.00000
    89.0296     6132.00000
    89.0428     6211.00000
    89.0559     6376.00000
    89.0690     6289.00000
    89.0822     6552.00000
    89.0953     6490.00000
    89.1084     6600.00000
    89.1216     6606.00000
    89.1347     6744.00000
    89.1478     6807.00000
    89.1609     6754.00000
    89.1741     6491.00000
    89.1872     6364.00000
    89.2003     6328.00000
    89.2135     6104.00000
    89.2266     6132.00000
    89.2397     6121.00000
    89.2529     6024.00000
    89.2660     5981.00000
    89.2791     6042.00000
    89.2922     6152.00000
    89.3054     6197.00000
    89.3185     6035.00000
    89.3316     6219.00000
    89.3448     6154.00000
    89.3579     6145.00000
    89.3710     6456.00000
    89.3842     6515.00000
    89.3973     6520.00000
    89.4104     6718.00000
    89.4235     6706.00000
    89.4367     6743.00000
    89.4498     6686.00000
    89.4629     6607.00000
    89.4761     6342.00000
    89.4892     6303.00000
    89.5023     6205.00000
    89.5155     6217.00000
    89.5286     6231.00000
    89.5417     6111.00000
    89.5548     6045.00000
    89.5680     5916.00000
    89.5811     6052.00000
    89.5942     6172.00000
    89.6074     6078.00000
    89.6205     6027.00000
    89.6336     6008.00000
    89.6468     6054.00000
    89.6599     6265.00000
    89.6730     6386.00000
    89.6861     6411.00000
    89.6993     6637.00000
    89.7124     6536.00000
    89.7255     6709.00000
    89.7387     6774.00000
    89.7518     6622.00000
    89.7649     6498.00000
    89.7781     6316.00000
    89.7912     6208.00000
    89.8043     6138.00000
    89.8175     6003.00000
    89.8306     6093.00000
    89.8437     6150.00000
    89.8568     6219.00000
    89.8700     6044.00000
    89.8831     5846.00000
    89.8962     5974.00000
    89.9094     5804.00000
    89.9225     5939.00000
    89.9356     5982.00000
    89.9488     6119.00000
    89.9619     6097.00000
    89.9750     6055.00000
    89.9882     6035.00000
    90.0013     6170.00000
    90.0144     6115.00000
    90.0275     6287.00000
    90.0407     6078.00000
    90.0538     6131.00000
    90.0669     6174.00000
    90.0801     5993.00000
    90.0932     5972.00000
    90.1063     5819.00000
    90.1195     5930.00000
    90.1326     5755.00000
    90.1457     5939.00000
    90.1588     5970.00000
    90.1720     5760.00000
    90.1851     5757.00000
    90.1982     5788.00000
    90.2114     5982.00000
    90.2245     5878.00000
    90.2376     5773.00000
    90.2508     5883.00000
    90.2639     5783.00000
    90.2770     5860.00000
    90.2901     5763.00000
    90.3033     5848.00000
    90.3164     5929.00000
    90.3295     5866.00000
    90.3427     5911.00000
    90.3558     5826.00000
    90.3689     5871.00000
    90.3821     5840.00000
    90.3952     5893.00000
    90.4083     5812.00000
    90.4214     5916.00000
    90.4346     5881.00000
    90.4477     5845.00000
    90.4608     5767.00000
    90.4740     5852.00000
    90.4871     6026.00000
    90.5002     5979.00000
    90.5134     5797.00000
    90.5265     5923.00000
    90.5396     5798.00000
    90.5527     5788.00000
    90.5659     5825.00000
    90.5790     5850.00000
    90.5921     5842.00000
    90.6053     5774.00000
    90.6184     5888.00000
    90.6315     5859.00000
    90.6447     5755.00000
    90.6578     5731.00000
    90.6709     5927.00000
    90.6841     5824.00000
    90.6972     5838.00000
    90.7103     5803.00000
    90.7234     5941.00000
    90.7366     5823.00000
    90.7497     5720.00000
    90.7628     5974.00000
    90.7760     5849.00000
    90.7891     5812.00000
    90.8022     5933.00000
    90.8154     5995.00000
    90.8285     5775.00000
    90.8416     5840.00000
    90.8548     6033.00000
    90.8679     6137.00000
    90.8810     6324.00000
    90.8941     6202.00000
    90.9073     6105.00000
    90.9204     6127.00000
    90.9335     6176.00000
    90.9467     6129.00000
    90.9598     6100.00000
    90.9729     6128.00000
    90.9861     6189.00000
    90.9992     5787.00000
    91.0123     5983.00000
    91.0254     6031.00000
    91.0386     5954.00000
    91.0517     5989.00000
    91.0648     5922.00000
    91.0780     5955.00000
    91.0911     6067.00000
    91.1042     5774.00000
    91.1174     5962.00000
    91.1305     6064.00000
    91.1436     5951.00000
    91.1567     6113.00000
    91.1699     6009.00000
    91.1830     5835.00000
    91.1961     5984.00000
    91.2093     6086.00000
    91.2224     6149.00000
    91.2355     6118.00000
    91.2487     6074.00000
    91.2618     6219.00000
    91.2749     5912.00000
    91.2880     6077.00000
    91.3012     6160.00000
    91.3143     6127.00000
    91.3274     6187.00000
    91.3406     6188.00000
    91.3537     6168.00000
    91.3668     6248.00000
    91.3800     6351.00000
    91.3931     6341.00000
    91.4062     6250.00000
    91.4193     6117.00000
    91.4325     6163.00000
    91.4456     6228.00000
    91.4587     6205.00000
    91.4719     6100.00000
    91.4850     6053.00000
    91.4981     6084.00000
    91.5113     6022.00000
    91.5244     6064.00000
    91.5375     6051.00000
    91.5507     6170.00000
    91.5638     6291.00000
    91.5769     6422.00000
    91.5900     6304.00000
    91.6032     6486.00000
    91.6163     6435.00000
    91.6294     6304.00000
    91.6426     6315.00000
    91.6557     6353.00000
    91.6688     6308.00000
    91.6820     6284.00000
    91.6951     6261.00000
    91.7082     6193.00000
    91.7213     6337.00000
    91.7345     6031.00000
    91.7476     6055.00000
    91.7607     6105.00000
    91.7739     6239.00000
    91.7870     6406.00000
    91.8001     6263.00000
    91.8133     6368.00000
    91.8264     6302.00000
    91.8395     6171.00000
    91.8526     6115.00000
    91.8658     6289.00000
    91.8789     6296.00000
    91.8920     6193.00000
    91.9052     6362.00000
    91.9183     6322.00000
    91.9314     6400.00000
    91.9446     6309.00000
    91.9577     6257.00000
    91.9708     6542.00000
    91.9840     6487.00000
    91.9971     6562.00000
    92.0102     6547.00000
    92.0233     6825.00000
    92.0365     6725.00000
    92.0496     6650.00000
    92.0627     6534.00000
    92.0759     6558.00000
    92.0890     6586.00000
    92.1021     6408.00000
    92.1153     6302.00000
    92.1284     6188.00000
    92.1415     6167.00000
    92.1546     5994.00000
    92.1678     5979.00000
    92.1809     6022.00000
    92.1940     6021.00000
    92.2072     5873.00000
    92.2203     5877.00000
    92.2334     5973.00000
    92.2466     6032.00000
    92.2597     6125.00000
    92.2728     6154.00000
    92.2859     6261.00000
    92.2991     6052.00000
    92.3122     6256.00000
    92.3253     6085.00000
    92.3385     5939.00000
    92.3516     5997.00000
    92.3647     6195.00000
    92.3779     5884.00000
    92.3910     5962.00000
    92.4041     6089.00000
    92.4173     5799.00000
    92.4304     5943.00000
    92.4435     5928.00000
    92.4566     5815.00000
    92.4698     5888.00000
    92.4829     5962.00000
    92.4960     5749.00000
    92.5092     5752.00000
    92.5223     5750.00000
    92.5354     5925.00000
    92.5486     5727.00000
    92.5617     5946.00000
    92.5748     5776.00000
    92.5879     5948.00000
    92.6011     5974.00000
    92.6142     6005.00000
    92.6273     6018.00000
    92.6405     6073.00000
    92.6536     6048.00000
    92.6667     6134.00000
    92.6799     5897.00000
    92.6930     5948.00000
    92.7061     6051.00000
    92.7192     5954.00000
    92.7324     5773.00000
    92.7455     5792.00000
    92.7586     5863.00000
    92.7718     5862.00000
    92.7849     5829.00000
    92.7980     5919.00000
    92.8112     5742.00000
    92.8243     5848.00000
    92.8374     5807.00000
    92.8505     5836.00000
    92.8637     5889.00000
    92.8768     5812.00000
    92.8899     5842.00000
    92.9031     5743.00000
    92.9162     5886.00000
    92.9293     5842.00000
    92.9425     5859.00000
    92.9556     5973.00000
    92.9687     5928.00000
    92.9819     5847.00000
    92.9950     5876.00000
    93.0081     5902.00000
    93.0212     5815.00000
    93.0344     5856.00000
    93.0475     5846.00000
    93.0606     5666.00000
    93.0738     5984.00000
    93.0869     5830.00000
    93.1000     5838.00000
    93.1132     5936.00000
    93.1263     5793.00000
    93.1394     5897.00000
    93.1525     5804.00000
    93.1657     6030.00000
    93.1788     5805.00000
    93.1919     5872.00000
    93.2051     6105.00000
    93.2182     5852.00000
    93.2313     5934.00000
    93.2445     5866.00000
    93.2576     5965.00000
    93.2707     5888.00000
    93.2839     5972.00000
    93.2970     6115.00000
    93.3101     5937.00000
    93.3232     6091.00000
    93.3364     6072.00000
    93.3495     6176.00000
    93.3626     6162.00000
    93.3758     6174.00000
    93.3889     6382.00000
    93.4020     6382.00000
    93.4152     6499.00000
    93.4283     6570.00000
    93.4414     6437.00000
    93.4545     6393.00000
    93.4677     6325.00000
    93.4808     6206.00000
    93.4939     6117.00000
    93.5071     5835.00000
    93.5202     6011.00000
    93.5333     6068.00000
    93.5465     5938.00000
    93.5596     5918.00000
    93.5727     5980.00000
    93.5858     5983.00000
    93.5990     5820.00000
    93.6121     5874.00000
    93.6252     6010.00000
    93.6384     6062.00000
    93.6515     6046.00000
    93.6646     6106.00000
    93.6778     6039.00000
    93.6909     6275.00000
    93.7040     6151.00000
    93.7171     6160.00000
    93.7303     6233.00000
    93.7434     6145.00000
    93.7565     6111.00000
    93.7697     6080.00000
    93.7828     5937.00000
    93.7959     5663.00000
    93.8091     5855.00000
    93.8222     5996.00000
    93.8353     5646.00000
    93.8484     5750.00000
    93.8616     5786.00000
    93.8747     5862.00000
    93.8878     5782.00000
    93.9010     5889.00000
    93.9141     5943.00000
    93.9272     5747.00000
    93.9404     5754.00000
    93.9535     5713.00000
    93.9666     5584.00000
    93.9798     5833.00000
    93.9929     5881.00000
    94.0060     5895.00000
    94.0191     5799.00000
    94.0323     6064.00000
    94.0454     5872.00000
    94.0585     5711.00000
    94.0717     5742.00000
    94.0848     5903.00000
    94.0979     6008.00000
    94.1111     6064.00000
    94.1242     5889.00000
    94.1373     6029.00000
    94.1505     6107.00000
    94.1636     6190.00000
    94.1767     6131.00000
    94.1898     6513.00000
    94.2030     6417.00000
    94.2161     6347.00000
    94.2292     6397.00000
    94.2424     6395.00000
    94.2555     6484.00000
    94.2686     6421.00000
    94.2818     6298.00000
    94.2949     6281.00000
    94.3080     6156.00000
    94.3211     6102.00000
    94.3343     6138.00000
    94.3474     6039.00000
    94.3605     5975.00000
    94.3737     5842.00000
    94.3868     6056.00000
    94.3999     6110.00000
    94.4131     6352.00000
    94.4262     6088.00000
    94.4393     6066.00000
    94.4524     6330.00000
    94.4656     6196.00000
    94.4787     6021.00000
    94.4918     6151.00000
    94.5050     6257.00000
    94.5181     6306.00000
    94.5312     6239.00000
    94.5444     6203.00000
    94.5575     6282.00000
    94.5706     6170.00000
    94.5837     6195.00000
    94.5969     6228.00000
    94.6100     6046.00000
    94.6231     6114.00000
    94.6363     6171.00000
    94.6494     6176.00000
    94.6625     6236.00000
    94.6757     6321.00000
    94.6888     6344.00000
    94.7019     6429.00000
    94.7150     6204.00000
    94.7282     6229.00000
    94.7413     6081.00000
    94.7544     6030.00000
    94.7676     6108.00000
    94.7807     5889.00000
    94.7938     5782.00000
    94.8070     5812.00000
    94.8201     5927.00000
    94.8332     5919.00000
    94.8464     6051.00000
    94.8595     5904.00000
    94.8726     5875.00000
    94.8857     5877.00000
    94.8989     5840.00000
    94.9120     5738.00000
    94.9251     5731.00000
    94.9383     5761.00000
    94.9514     5775.00000
    94.9645     5955.00000
    94.9777     5948.00000
    94.9908     6082.00000
    95.0039     6092.00000
    95.0170     5869.00000
    95.0302     5915.00000
    95.0433     5915.00000
    95.0564     6133.00000
    95.0696     6019.00000
    95.0827     5889.00000
    95.0958     5874.00000
    95.1090     5990.00000
    95.1221     5833.00000
    95.1352     5779.00000
    95.1484     5901.00000
    95.1615     5942.00000
    95.1746     6092.00000
    95.1877     6059.00000
    95.2009     6054.00000
    95.2140     6197.00000
    95.2271     6125.00000
    95.2403     6511.00000
    95.2534     6475.00000
    95.2665     6320.00000
    95.2797     6055.00000
    95.2928     6026.00000
    95.3059     6041.00000
    95.3190     5977.00000
    95.3322     5948.00000
    95.3453     6001.00000
    95.3584     5932.00000
    95.3716     6004.00000
    95.3847     6265.00000
    95.3978     6103.00000
    95.4110     6240.00000
    95.4241     6328.00000
    95.4372     6299.00000
    95.4503     6363.00000
    95.4635     6294.00000
    95.4766     6356.00000
    95.4897     6290.00000
    95.5029     6398.00000
    95.5160     6477.00000
    95.5291     6320.00000
    95.5423     6246.00000
    95.5554     6315.00000
    95.5685     6300.00000
    95.5816     6199.00000
    95.5948     6130.00000
    95.6079     6063.00000
    95.6210     5896.00000
    95.6342     5905.00000
    95.6473     5991.00000
    95.6604     5906.00000
    95.6736     5843.00000
    95.6867     5937.00000
    95.6998     5866.00000
    95.7130     5909.00000
    95.7261     5904.00000
    95.7392     5839.00000
    95.7523     5950.00000
    95.7655     6103.00000
    95.7786     6016.00000
    95.7917     5948.00000
    95.8049     6112.00000
    95.8180     5968.00000
    95.8311     5994.00000
    95.8443     5888.00000
    95.8574     5857.00000
    95.8705     5945.00000
    95.8836     6118.00000
    95.8968     5837.00000
    95.9099     5846.00000
    95.9230     5720.00000
    95.9362     5698.00000
    95.9493     5696.00000
    95.9624     5693.00000
    95.9756     5848.00000
    95.9887     5764.00000
    96.0018     5710.00000
    96.0149     5876.00000
    96.0281     5832.00000
    96.0412     5757.00000
    96.0543     5903.00000
    96.0675     5797.00000
    96.0806     5771.00000
    96.0937     5629.00000
    96.1069     5707.00000
    96.1200     5847.00000
    96.1331     5706.00000
    96.1463     5720.00000
    96.1594     5793.00000
    96.1725     5737.00000
    96.1856     5669.00000
    96.1988     5644.00000
    96.2119     5799.00000
    96.2250     5795.00000
    96.2382     5696.00000
    96.2513     5825.00000
    96.2644     5843.00000
    96.2776     5783.00000
    96.2907     5743.00000
    96.3038     5817.00000
    96.3169     5858.00000
    96.3301     5776.00000
    96.3432     5574.00000
    96.3563     5618.00000
    96.3695     5683.00000
    96.3826     5581.00000
    96.3957     5864.00000
    96.4089     5900.00000
    96.4220     5948.00000
    96.4351     5798.00000
    96.4482     5835.00000
    96.4614     5866.00000
    96.4745     5924.00000
    96.4876     5887.00000
    96.5008     5897.00000
    96.5139     5781.00000
    96.5270     5846.00000
    96.5402     5823.00000
    96.5533     5801.00000
    96.5664     5982.00000
    96.5796     5957.00000
    96.5927     5985.00000
    96.6058     5794.00000
    96.6189     5806.00000
    96.6321     5853.00000
    96.6452     5925.00000
    96.6583     5767.00000
    96.6715     5806.00000
    96.6846     5968.00000
    96.6977     5991.00000
    96.7109     5927.00000
    96.7240     5897.00000
    96.7371     6045.00000
    96.7502     6003.00000
    96.7634     6256.00000
    96.7765     6164.00000
    96.7896     6159.00000
    96.8028     6051.00000
    96.8159     6132.00000
    96.8290     6058.00000
    96.8422     5991.00000
    96.8553     6029.00000
    96.8684     5975.00000
    96.8815     5851.00000
    96.8947     5942.00000
    96.9078     5807.00000
    96.9209     5987.00000
    96.9341     6027.00000
    96.9472     6143.00000
    96.9603     5945.00000
    96.9735     5970.00000
    96.9866     6083.00000
    96.9997     5928.00000
    97.0128     6031.00000
    97.0260     5862.00000
    97.0391     6112.00000
    97.0522     6261.00000
    97.0654     6218.00000
    97.0785     6221.00000
    97.0916     6297.00000
    97.1048     6335.00000
    97.1179     6044.00000
    97.1310     6108.00000
    97.1442     6213.00000
    97.1573     6015.00000
    97.1704     5786.00000
    97.1835     5975.00000
    97.1967     5865.00000
    97.2098     5843.00000
    97.2229     5852.00000
    97.2361     5879.00000
    97.2492     5930.00000
    97.2623     5789.00000
    97.2755     5663.00000
    97.2886     5792.00000
    97.3017     5828.00000
    97.3148     6038.00000
    97.3280     5875.00000
    97.3411     5918.00000
    97.3542     5958.00000
    97.3674     6017.00000
    97.3805     6075.00000
    97.3936     6070.00000
    97.4068     5944.00000
    97.4199     5976.00000
    97.4330     5857.00000
    97.4462     5968.00000
    97.4593     6072.00000
    97.4724     5868.00000
    97.4855     5890.00000
    97.4987     5731.00000
    97.5118     5892.00000
    97.5249     5985.00000
    97.5381     5843.00000
    97.5512     5924.00000
    97.5643     5951.00000
    97.5775     5937.00000
    97.5906     5866.00000
    97.6037     5707.00000
    97.6168     5942.00000
    97.6300     5808.00000
    97.6431     5904.00000
    97.6562     5889.00000
    97.6694     5878.00000
    97.6825     5802.00000
    97.6956     5703.00000
    97.7088     5832.00000
    97.7219     5783.00000
    97.7350     5736.00000
    97.7481     5688.00000
    97.7613     5651.00000
    97.7744     5833.00000
    97.7875     5870.00000
    97.8007     5869.00000
    97.8138     5768.00000
    97.8269     5674.00000
    97.8401     5873.00000
    97.8532     5857.00000
    97.8663     5767.00000
    97.8794     5889.00000
    97.8926     5929.00000
    97.9057     5901.00000
    97.9188     5934.00000
    97.9320     5858.00000
    97.9451     5943.00000
    97.9582     5876.00000
    97.9714     5835.00000
    97.9845     5862.00000
    97.9976     5862.00000
    98.0107     5811.00000
    98.0239     5700.00000
    98.0370     5815.00000
    98.0501     5910.00000
    98.0633     5943.00000
    98.0764     5961.00000
    98.0895     6181.00000
    98.1027     6040.00000
    98.1158     5894.00000
    98.1289     5934.00000
    98.1421     5980.00000
    98.1552     5991.00000
    98.1683     6246.00000
    98.1814     6176.00000
    98.1946     6052.00000
    98.2077     6223.00000
    98.2208     6003.00000
    98.2340     6170.00000
    98.2471     6073.00000
    98.2602     6085.00000
    98.2734     6107.00000
    98.2865     6219.00000
    98.2996     5923.00000
    98.3128     6052.00000
    98.3259     5839.00000
    98.3390     6008.00000
    98.3521     5998.00000
    98.3653     6146.00000
    98.3784     6010.00000
    98.3915     6001.00000
    98.4047     5906.00000
    98.4178     5982.00000
    98.4309     6046.00000
    98.4441     5955.00000
    98.4572     6098.00000
    98.4703     6129.00000
    98.4834     6004.00000
    98.4966     6018.00000
    98.5097     6111.00000
    98.5228     5949.00000
    98.5360     6123.00000
    98.5491     6189.00000
    98.5622     6167.00000
    98.5754     6139.00000
    98.5885     6058.00000
    98.6016     6164.00000
    98.6147     6052.00000
    98.6279     6074.00000
    98.6410     5949.00000
    98.6541     5957.00000
    98.6673     5960.00000
    98.6804     6057.00000
    98.6935     5884.00000
    98.7067     5912.00000
    98.7198     5916.00000
    98.7329     5740.00000
    98.7460     5817.00000
    98.7592     5898.00000
    98.7723     5969.00000
    98.7854     5903.00000
    98.7986     5810.00000
    98.8117     5848.00000
    98.8248     5916.00000
    98.8380     5840.00000
    98.8511     5849.00000
    98.8642     5845.00000
    98.8773     5803.00000
    98.8905     5794.00000
    98.9036     5853.00000
    98.9167     5980.00000
    98.9299     5919.00000
    98.9430     5956.00000
    98.9561     5820.00000
    98.9693     5850.00000
    98.9824     5900.00000
    98.9955     5762.00000
    99.0087     5681.00000
    99.0218     5835.00000
    99.0349     5844.00000
    99.0480     5682.00000
    99.0612     5641.00000
    99.0743     5867.00000
    99.0874     5640.00000
    99.1006     5711.00000
    99.1137     5780.00000
    99.1268     5701.00000
    99.1400     5845.00000
    99.1531     5746.00000
    99.1662     5658.00000
    99.1793     5634.00000
    99.1925     5759.00000
    99.2056     5695.00000
    99.2187     5791.00000
    99.2319     5833.00000
    99.2450     5525.00000
    99.2581     5680.00000
    99.2713     5782.00000
    99.2844     5706.00000
    99.2975     5735.00000
    99.3107     5839.00000
    99.3238     5720.00000
    99.3369     5783.00000
    99.3500     5955.00000
    99.3632     5820.00000
    99.3763     5688.00000
    99.3894     5715.00000
    99.4026     5788.00000
    99.4157     5702.00000
    99.4288     5808.00000
    99.4420     5619.00000
    99.4551     5859.00000
    99.4682     5900.00000
    99.4813     5715.00000
    99.4945     5702.00000
    99.5076     5824.00000
    99.5207     5649.00000
    99.5339     5865.00000
    99.5470     5791.00000
    99.5601     5708.00000
    99.5733     5749.00000
    99.5864     5607.00000
    99.5995     5760.00000
    99.6126     5682.00000
    99.6258     5666.00000
    99.6389     5843.00000
    99.6520     5736.00000
    99.6652     5847.00000
    99.6783     5805.00000
    99.6914     5885.00000
    99.7046     5864.00000
    99.7177     5896.00000
    99.7308     5758.00000
    99.7439     5754.00000
    99.7571     5774.00000
    99.7702     5931.00000
    99.7833     5906.00000
    99.7965     5755.00000
    99.8096     5660.00000
    99.8227     5838.00000
    99.8359     5833.00000
    99.8490     5885.00000
    99.8621     5749.00000
    99.8753     5701.00000
    99.8884     5875.00000
    99.9015     5980.00000
    99.9146     5790.00000
    99.9278     5608.00000
    99.9409     5609.00000
    99.9540     5760.00000
    99.9672     5684.00000
    99.9803     5613.00000
    99.9934     5674.00000
