! Initial file:   D:\ZAKARY_OUAIL\MA_THESE\Deuxième_année_de_thèse\DRX\Affinement_DRX\Fullprof\Thermodiff3-nuit_NaNbO2F2\80°C\NaNbO2F2-Lent_80°C.xrdml
! Initial format:  58
! WAVE (A):      1.54060     1.54060     1.00000
! REM : data have been multiplied by     1.0000
! X_data : 2 Theta (deg.)                                                                                                                                                                                                                                                  
! Y_data : Intensity (arb. units)                                                                                                                                                                                                                                          
!     X         Y
!--------------------------------------------------------------------------------
    10.0116     7951.00000
    10.0247     8184.00000
    10.0379     8428.00000
    10.0510     8254.00000
    10.0641     8254.00000
    10.0772     8050.00000
    10.0904     8123.00000
    10.1035     8046.00000
    10.1166     8208.00000
    10.1298     8098.00000
    10.1429     8242.00000
    10.1560     8260.00000
    10.1692     8415.00000
    10.1823     8346.00000
    10.1954     8216.00000
    10.2086     8377.00000
    10.2217     8341.00000
    10.2348     8184.00000
    10.2479     8123.00000
    10.2611     8177.00000
    10.2742     8220.00000
    10.2873     8147.00000
    10.3005     8271.00000
    10.3136     8119.00000
    10.3267     8096.00000
    10.3399     8186.00000
    10.3530     8002.00000
    10.3661     8262.00000
    10.3792     8090.00000
    10.3924     8042.00000
    10.4055     8120.00000
    10.4186     8056.00000
    10.4318     7984.00000
    10.4449     7999.00000
    10.4580     8117.00000
    10.4712     8125.00000
    10.4843     7926.00000
    10.4974     8009.00000
    10.5105     7988.00000
    10.5237     7951.00000
    10.5368     8061.00000
    10.5499     8107.00000
    10.5631     7960.00000
    10.5762     8014.00000
    10.5893     8107.00000
    10.6025     8077.00000
    10.6156     8103.00000
    10.6287     7984.00000
    10.6418     8107.00000
    10.6550     8032.00000
    10.6681     8162.00000
    10.6812     8060.00000
    10.6944     8015.00000
    10.7075     7888.00000
    10.7206     7979.00000
    10.7338     7999.00000
    10.7469     8188.00000
    10.7600     8111.00000
    10.7732     8114.00000
    10.7863     8157.00000
    10.7994     7969.00000
    10.8125     8109.00000
    10.8257     8195.00000
    10.8388     8127.00000
    10.8519     8148.00000
    10.8651     8195.00000
    10.8782     8388.00000
    10.8913     8498.00000
    10.9045     8467.00000
    10.9176     8473.00000
    10.9307     8503.00000
    10.9438     8523.00000
    10.9570     8642.00000
    10.9701     8772.00000
    10.9832     8616.00000
    10.9964     8614.00000
    11.0095     8849.00000
    11.0226     8936.00000
    11.0358     8785.00000
    11.0489     8959.00000
    11.0620     9283.00000
    11.0751     9289.00000
    11.0883     9644.00000
    11.1014     9788.00000
    11.1145    10127.00000
    11.1277    10720.00000
    11.1408    11667.00000
    11.1539    12447.00000
    11.1671    13860.00000
    11.1802    16302.00000
    11.1933    20007.00000
    11.2065    25418.00000
    11.2196    35128.00000
    11.2327    48758.00000
    11.2458    63151.00000
    11.2590    76425.00000
    11.2721    78670.00000
    11.2852    71690.00000
    11.2984    59756.00000
    11.3115    43796.00000
    11.3246    30280.00000
    11.3378    20732.00000
    11.3509    15127.00000
    11.3640    11858.00000
    11.3771    10432.00000
    11.3903     9459.00000
    11.4034     9246.00000
    11.4165     9062.00000
    11.4297     8883.00000
    11.4428     8736.00000
    11.4559     8565.00000
    11.4691     8553.00000
    11.4822     8378.00000
    11.4953     8459.00000
    11.5084     8395.00000
    11.5216     8087.00000
    11.5347     8217.00000
    11.5478     8358.00000
    11.5610     8354.00000
    11.5741     8124.00000
    11.5872     7860.00000
    11.6004     8249.00000
    11.6135     8186.00000
    11.6266     8243.00000
    11.6398     8182.00000
    11.6529     8286.00000
    11.6660     8202.00000
    11.6791     8221.00000
    11.6923     8081.00000
    11.7054     7991.00000
    11.7185     8055.00000
    11.7317     8117.00000
    11.7448     8159.00000
    11.7579     8173.00000
    11.7711     8261.00000
    11.7842     8267.00000
    11.7973     8318.00000
    11.8104     8175.00000
    11.8236     8334.00000
    11.8367     8400.00000
    11.8498     8425.00000
    11.8630     8240.00000
    11.8761     8320.00000
    11.8892     8337.00000
    11.9024     8301.00000
    11.9155     8338.00000
    11.9286     8202.00000
    11.9417     8462.00000
    11.9549     8514.00000
    11.9680     8614.00000
    11.9811     8289.00000
    11.9943     8391.00000
    12.0074     8276.00000
    12.0205     8447.00000
    12.0337     8479.00000
    12.0468     8354.00000
    12.0599     8158.00000
    12.0731     8428.00000
    12.0862     8363.00000
    12.0993     8481.00000
    12.1124     8615.00000
    12.1256     8567.00000
    12.1387     8290.00000
    12.1518     8471.00000
    12.1650     8580.00000
    12.1781     8492.00000
    12.1912     8643.00000
    12.2044     8529.00000
    12.2175     8315.00000
    12.2306     8212.00000
    12.2437     8279.00000
    12.2569     8584.00000
    12.2700     8419.00000
    12.2831     8730.00000
    12.2963     8775.00000
    12.3094     8423.00000
    12.3225     8400.00000
    12.3357     8346.00000
    12.3488     8553.00000
    12.3619     8517.00000
    12.3750     8524.00000
    12.3882     8350.00000
    12.4013     8366.00000
    12.4144     8518.00000
    12.4276     8490.00000
    12.4407     8389.00000
    12.4538     8506.00000
    12.4670     8301.00000
    12.4801     8380.00000
    12.4932     8342.00000
    12.5063     8506.00000
    12.5195     8504.00000
    12.5326     8313.00000
    12.5457     8355.00000
    12.5589     8310.00000
    12.5720     8450.00000
    12.5851     8321.00000
    12.5983     8469.00000
    12.6114     8332.00000
    12.6245     8297.00000
    12.6377     8536.00000
    12.6508     8384.00000
    12.6639     8352.00000
    12.6770     8497.00000
    12.6902     8497.00000
    12.7033     8193.00000
    12.7164     8357.00000
    12.7296     8493.00000
    12.7427     8246.00000
    12.7558     8187.00000
    12.7690     8249.00000
    12.7821     8450.00000
    12.7952     8330.00000
    12.8083     8369.00000
    12.8215     8358.00000
    12.8346     8662.00000
    12.8477     8325.00000
    12.8609     8313.00000
    12.8740     8234.00000
    12.8871     8194.00000
    12.9003     8371.00000
    12.9134     8366.00000
    12.9265     8423.00000
    12.9396     8256.00000
    12.9528     8496.00000
    12.9659     8375.00000
    12.9790     8258.00000
    12.9922     8305.00000
    13.0053     8266.00000
    13.0184     8358.00000
    13.0316     8219.00000
    13.0447     8438.00000
    13.0578     8425.00000
    13.0710     8372.00000
    13.0841     8526.00000
    13.0972     8335.00000
    13.1103     8138.00000
    13.1235     8130.00000
    13.1366     8178.00000
    13.1497     8221.00000
    13.1629     8304.00000
    13.1760     8229.00000
    13.1891     8035.00000
    13.2023     8258.00000
    13.2154     8583.00000
    13.2285     8421.00000
    13.2416     8183.00000
    13.2548     8169.00000
    13.2679     8066.00000
    13.2810     8067.00000
    13.2942     8125.00000
    13.3073     8180.00000
    13.3204     8197.00000
    13.3336     8196.00000
    13.3467     8329.00000
    13.3598     8194.00000
    13.3729     8262.00000
    13.3861     8074.00000
    13.3992     8120.00000
    13.4123     8225.00000
    13.4255     8201.00000
    13.4386     8189.00000
    13.4517     8245.00000
    13.4649     8247.00000
    13.4780     8170.00000
    13.4911     8246.00000
    13.5043     8187.00000
    13.5174     8124.00000
    13.5305     8312.00000
    13.5436     8109.00000
    13.5568     7981.00000
    13.5699     8240.00000
    13.5830     8051.00000
    13.5962     8028.00000
    13.6093     8020.00000
    13.6224     8009.00000
    13.6356     8262.00000
    13.6487     8285.00000
    13.6618     8360.00000
    13.6749     8432.00000
    13.6881     8175.00000
    13.7012     8367.00000
    13.7143     8087.00000
    13.7275     8395.00000
    13.7406     8686.00000
    13.7537     8342.00000
    13.7669     8147.00000
    13.7800     8407.00000
    13.7931     8278.00000
    13.8062     8076.00000
    13.8194     8320.00000
    13.8325     8232.00000
    13.8456     8249.00000
    13.8588     8027.00000
    13.8719     8022.00000
    13.8850     8107.00000
    13.8982     8125.00000
    13.9113     8230.00000
    13.9244     8159.00000
    13.9376     8215.00000
    13.9507     8106.00000
    13.9638     8115.00000
    13.9769     8097.00000
    13.9901     7998.00000
    14.0032     8255.00000
    14.0163     8119.00000
    14.0295     8033.00000
    14.0426     7900.00000
    14.0557     8244.00000
    14.0689     8109.00000
    14.0820     8153.00000
    14.0951     8152.00000
    14.1082     8354.00000
    14.1214     8367.00000
    14.1345     8227.00000
    14.1476     8184.00000
    14.1608     8184.00000
    14.1739     8234.00000
    14.1870     8168.00000
    14.2002     8047.00000
    14.2133     8210.00000
    14.2264     8046.00000
    14.2395     8106.00000
    14.2527     8286.00000
    14.2658     8078.00000
    14.2789     8059.00000
    14.2921     8073.00000
    14.3052     8137.00000
    14.3183     8177.00000
    14.3315     8198.00000
    14.3446     8242.00000
    14.3577     8028.00000
    14.3708     8268.00000
    14.3840     8148.00000
    14.3971     8249.00000
    14.4102     8315.00000
    14.4234     8241.00000
    14.4365     8453.00000
    14.4496     8397.00000
    14.4628     8617.00000
    14.4759     8854.00000
    14.4890     9179.00000
    14.5022     9525.00000
    14.5153     9715.00000
    14.5284     9731.00000
    14.5415     9843.00000
    14.5547     9594.00000
    14.5678     9306.00000
    14.5809     8901.00000
    14.5941     8623.00000
    14.6072     8568.00000
    14.6203     8448.00000
    14.6335     8271.00000
    14.6466     8335.00000
    14.6597     8244.00000
    14.6728     8071.00000
    14.6860     8150.00000
    14.6991     8027.00000
    14.7122     8088.00000
    14.7254     7962.00000
    14.7385     8016.00000
    14.7516     8057.00000
    14.7648     7954.00000
    14.7779     8006.00000
    14.7910     8085.00000
    14.8041     8038.00000
    14.8173     8071.00000
    14.8304     7952.00000
    14.8435     8053.00000
    14.8567     7836.00000
    14.8698     8090.00000
    14.8829     8068.00000
    14.8961     8108.00000
    14.9092     7775.00000
    14.9223     8005.00000
    14.9355     8193.00000
    14.9486     8059.00000
    14.9617     8148.00000
    14.9748     8211.00000
    14.9880     8064.00000
    15.0011     7974.00000
    15.0142     7913.00000
    15.0274     7941.00000
    15.0405     7888.00000
    15.0536     8005.00000
    15.0668     7946.00000
    15.0799     8062.00000
    15.0930     7913.00000
    15.1061     7938.00000
    15.1193     7946.00000
    15.1324     7847.00000
    15.1455     8026.00000
    15.1587     7970.00000
    15.1718     7943.00000
    15.1849     7895.00000
    15.1981     8054.00000
    15.2112     7906.00000
    15.2243     8080.00000
    15.2374     8032.00000
    15.2506     7967.00000
    15.2637     8003.00000
    15.2768     7975.00000
    15.2900     8034.00000
    15.3031     7994.00000
    15.3162     8122.00000
    15.3294     8000.00000
    15.3425     7860.00000
    15.3556     8005.00000
    15.3688     7835.00000
    15.3819     7996.00000
    15.3950     7941.00000
    15.4081     8110.00000
    15.4213     8046.00000
    15.4344     7859.00000
    15.4475     7868.00000
    15.4607     7867.00000
    15.4738     7940.00000
    15.4869     7866.00000
    15.5001     7782.00000
    15.5132     7683.00000
    15.5263     8000.00000
    15.5394     7738.00000
    15.5526     7880.00000
    15.5657     7941.00000
    15.5788     7979.00000
    15.5920     7929.00000
    15.6051     7960.00000
    15.6182     7823.00000
    15.6314     8047.00000
    15.6445     7911.00000
    15.6576     7827.00000
    15.6707     7780.00000
    15.6839     7936.00000
    15.6970     7973.00000
    15.7101     8079.00000
    15.7233     7870.00000
    15.7364     7936.00000
    15.7495     7922.00000
    15.7627     7963.00000
    15.7758     7893.00000
    15.7889     7734.00000
    15.8021     7929.00000
    15.8152     7763.00000
    15.8283     7962.00000
    15.8414     7876.00000
    15.8546     7945.00000
    15.8677     7972.00000
    15.8808     7877.00000
    15.8940     7733.00000
    15.9071     7933.00000
    15.9202     8075.00000
    15.9334     8064.00000
    15.9465     7986.00000
    15.9596     7895.00000
    15.9727     7888.00000
    15.9859     7918.00000
    15.9990     7829.00000
    16.0121     8031.00000
    16.0253     8083.00000
    16.0384     8015.00000
    16.0515     7995.00000
    16.0647     7804.00000
    16.0778     7865.00000
    16.0909     7876.00000
    16.1040     8058.00000
    16.1172     7830.00000
    16.1303     7927.00000
    16.1434     7744.00000
    16.1566     7811.00000
    16.1697     7694.00000
    16.1828     7733.00000
    16.1960     7793.00000
    16.2091     7700.00000
    16.2222     7720.00000
    16.2353     8015.00000
    16.2485     7863.00000
    16.2616     7940.00000
    16.2747     7930.00000
    16.2879     7824.00000
    16.3010     7718.00000
    16.3141     7934.00000
    16.3273     7946.00000
    16.3404     7855.00000
    16.3535     8023.00000
    16.3667     7827.00000
    16.3798     7855.00000
    16.3929     7843.00000
    16.4060     7681.00000
    16.4192     7788.00000
    16.4323     7707.00000
    16.4454     7907.00000
    16.4586     7813.00000
    16.4717     7718.00000
    16.4848     7819.00000
    16.4980     8003.00000
    16.5111     7777.00000
    16.5242     7926.00000
    16.5373     7854.00000
    16.5505     7885.00000
    16.5636     7777.00000
    16.5767     7644.00000
    16.5899     7838.00000
    16.6030     7884.00000
    16.6161     7644.00000
    16.6293     7771.00000
    16.6424     7769.00000
    16.6555     7980.00000
    16.6686     7662.00000
    16.6818     7763.00000
    16.6949     7645.00000
    16.7080     7779.00000
    16.7212     7612.00000
    16.7343     7871.00000
    16.7474     7891.00000
    16.7606     8293.00000
    16.7737     8244.00000
    16.7868     8119.00000
    16.8000     8196.00000
    16.8131     8338.00000
    16.8262     8295.00000
    16.8393     8023.00000
    16.8525     7978.00000
    16.8656     7982.00000
    16.8787     7889.00000
    16.8919     7917.00000
    16.9050     7754.00000
    16.9181     7891.00000
    16.9313     7843.00000
    16.9444     7723.00000
    16.9575     7924.00000
    16.9706     7867.00000
    16.9838     7712.00000
    16.9969     7847.00000
    17.0100     7627.00000
    17.0232     7493.00000
    17.0363     7644.00000
    17.0494     7608.00000
    17.0626     7585.00000
    17.0757     7616.00000
    17.0888     7713.00000
    17.1019     7663.00000
    17.1151     7770.00000
    17.1282     7626.00000
    17.1413     7671.00000
    17.1545     7675.00000
    17.1676     7743.00000
    17.1807     7704.00000
    17.1939     7781.00000
    17.2070     7563.00000
    17.2201     7547.00000
    17.2333     7440.00000
    17.2464     7659.00000
    17.2595     7447.00000
    17.2726     7567.00000
    17.2858     7369.00000
    17.2989     7745.00000
    17.3120     7621.00000
    17.3252     7490.00000
    17.3383     7721.00000
    17.3514     7498.00000
    17.3646     7706.00000
    17.3777     7648.00000
    17.3908     7669.00000
    17.4039     7645.00000
    17.4171     7557.00000
    17.4302     7652.00000
    17.4433     7662.00000
    17.4565     7504.00000
    17.4696     7496.00000
    17.4827     7592.00000
    17.4959     7660.00000
    17.5090     7696.00000
    17.5221     7430.00000
    17.5352     7669.00000
    17.5484     7674.00000
    17.5615     7530.00000
    17.5746     7541.00000
    17.5878     7537.00000
    17.6009     7467.00000
    17.6140     7440.00000
    17.6272     7647.00000
    17.6403     7433.00000
    17.6534     7596.00000
    17.6666     7658.00000
    17.6797     7654.00000
    17.6928     7637.00000
    17.7059     7476.00000
    17.7191     7640.00000
    17.7322     7788.00000
    17.7453     7479.00000
    17.7585     7586.00000
    17.7716     7643.00000
    17.7847     7636.00000
    17.7979     7612.00000
    17.8110     7454.00000
    17.8241     7651.00000
    17.8372     7690.00000
    17.8504     7489.00000
    17.8635     7525.00000
    17.8766     7491.00000
    17.8898     7495.00000
    17.9029     7628.00000
    17.9160     7413.00000
    17.9292     7645.00000
    17.9423     7657.00000
    17.9554     7526.00000
    17.9685     7835.00000
    17.9817     7651.00000
    17.9948     7572.00000
    18.0079     7434.00000
    18.0211     7485.00000
    18.0342     7569.00000
    18.0473     7455.00000
    18.0605     7330.00000
    18.0736     7439.00000
    18.0867     7297.00000
    18.0998     7503.00000
    18.1130     7359.00000
    18.1261     7604.00000
    18.1392     7572.00000
    18.1524     7561.00000
    18.1655     7308.00000
    18.1786     7605.00000
    18.1918     7435.00000
    18.2049     7503.00000
    18.2180     7336.00000
    18.2312     7287.00000
    18.2443     7342.00000
    18.2574     7385.00000
    18.2705     7483.00000
    18.2837     7471.00000
    18.2968     7416.00000
    18.3099     7519.00000
    18.3231     7452.00000
    18.3362     7304.00000
    18.3493     7574.00000
    18.3625     7383.00000
    18.3756     7374.00000
    18.3887     7542.00000
    18.4018     7299.00000
    18.4150     7359.00000
    18.4281     7480.00000
    18.4412     7463.00000
    18.4544     7315.00000
    18.4675     7319.00000
    18.4806     7352.00000
    18.4938     7403.00000
    18.5069     7274.00000
    18.5200     7387.00000
    18.5331     7499.00000
    18.5463     7329.00000
    18.5594     7513.00000
    18.5725     7722.00000
    18.5857     7482.00000
    18.5988     7368.00000
    18.6119     7343.00000
    18.6251     7471.00000
    18.6382     7399.00000
    18.6513     7417.00000
    18.6645     7506.00000
    18.6776     7461.00000
    18.6907     7519.00000
    18.7038     7499.00000
    18.7170     7411.00000
    18.7301     7350.00000
    18.7432     7217.00000
    18.7564     7332.00000
    18.7695     7322.00000
    18.7826     7440.00000
    18.7958     7423.00000
    18.8089     7324.00000
    18.8220     7372.00000
    18.8351     7426.00000
    18.8483     7563.00000
    18.8614     7450.00000
    18.8745     7343.00000
    18.8877     7411.00000
    18.9008     7317.00000
    18.9139     7419.00000
    18.9271     7275.00000
    18.9402     7487.00000
    18.9533     7329.00000
    18.9664     7449.00000
    18.9796     7320.00000
    18.9927     7382.00000
    19.0058     7583.00000
    19.0190     7381.00000
    19.0321     7437.00000
    19.0452     7310.00000
    19.0584     7404.00000
    19.0715     7361.00000
    19.0846     7554.00000
    19.0978     7460.00000
    19.1109     7475.00000
    19.1240     7185.00000
    19.1371     7401.00000
    19.1503     7395.00000
    19.1634     7504.00000
    19.1765     7493.00000
    19.1897     7644.00000
    19.2028     7562.00000
    19.2159     7725.00000
    19.2291     7820.00000
    19.2422     7685.00000
    19.2553     7845.00000
    19.2684     7686.00000
    19.2816     7820.00000
    19.2947     7949.00000
    19.3078     7749.00000
    19.3210     7660.00000
    19.3341     7785.00000
    19.3472     7679.00000
    19.3604     7614.00000
    19.3735     7824.00000
    19.3866     7604.00000
    19.3997     7612.00000
    19.4129     7797.00000
    19.4260     7865.00000
    19.4391     7889.00000
    19.4523     7718.00000
    19.4654     7737.00000
    19.4785     7660.00000
    19.4917     8015.00000
    19.5048     7852.00000
    19.5179     7547.00000
    19.5311     7678.00000
    19.5442     7631.00000
    19.5573     7699.00000
    19.5704     7805.00000
    19.5836     7712.00000
    19.5967     7971.00000
    19.6098     8040.00000
    19.6230     8343.00000
    19.6361     8352.00000
    19.6492     8507.00000
    19.6624     8507.00000
    19.6755     8704.00000
    19.6886     8702.00000
    19.7017     8782.00000
    19.7149     8873.00000
    19.7280     8951.00000
    19.7411     9316.00000
    19.7543     9883.00000
    19.7674    10525.00000
    19.7805    11699.00000
    19.7937    13456.00000
    19.8068    15849.00000
    19.8199    19357.00000
    19.8330    25613.00000
    19.8462    35481.00000
    19.8593    49291.00000
    19.8724    65229.00000
    19.8856    81160.00000
    19.8987    91143.00000
    19.9118    89691.00000
    19.9250    81413.00000
    19.9381    70647.00000
    19.9512    60372.00000
    19.9643    47550.00000
    19.9775    34904.00000
    19.9906    25475.00000
    20.0037    18536.00000
    20.0169    14171.00000
    20.0300    11814.00000
    20.0431    10586.00000
    20.0563     9818.00000
    20.0694     9459.00000
    20.0825     9067.00000
    20.0957     9075.00000
    20.1088     8723.00000
    20.1219     8491.00000
    20.1350     8271.00000
    20.1482     8228.00000
    20.1613     8222.00000
    20.1744     8190.00000
    20.1876     8089.00000
    20.2007     8009.00000
    20.2138     8010.00000
    20.2270     7992.00000
    20.2401     8123.00000
    20.2532     7959.00000
    20.2663     7949.00000
    20.2795     8016.00000
    20.2926     7739.00000
    20.3057     7671.00000
    20.3189     7793.00000
    20.3320     7797.00000
    20.3451     7782.00000
    20.3583     7594.00000
    20.3714     7733.00000
    20.3845     7795.00000
    20.3976     7558.00000
    20.4108     7666.00000
    20.4239     7460.00000
    20.4370     7706.00000
    20.4502     7693.00000
    20.4633     7734.00000
    20.4764     7737.00000
    20.4896     7565.00000
    20.5027     7668.00000
    20.5158     7482.00000
    20.5290     7564.00000
    20.5421     7583.00000
    20.5552     7498.00000
    20.5683     7598.00000
    20.5815     7683.00000
    20.5946     7721.00000
    20.6077     7729.00000
    20.6209     7569.00000
    20.6340     7702.00000
    20.6471     7607.00000
    20.6603     7531.00000
    20.6734     7346.00000
    20.6865     7693.00000
    20.6996     7546.00000
    20.7128     7509.00000
    20.7259     7642.00000
    20.7390     7574.00000
    20.7522     7432.00000
    20.7653     7543.00000
    20.7784     7436.00000
    20.7916     7580.00000
    20.8047     7663.00000
    20.8178     7490.00000
    20.8309     7696.00000
    20.8441     7487.00000
    20.8572     7607.00000
    20.8703     7447.00000
    20.8835     7570.00000
    20.8966     7607.00000
    20.9097     7758.00000
    20.9229     7543.00000
    20.9360     7636.00000
    20.9491     7606.00000
    20.9623     7484.00000
    20.9754     7502.00000
    20.9885     7566.00000
    21.0016     7706.00000
    21.0148     7611.00000
    21.0279     7678.00000
    21.0410     7513.00000
    21.0542     7520.00000
    21.0673     7400.00000
    21.0804     7599.00000
    21.0936     7606.00000
    21.1067     7533.00000
    21.1198     7550.00000
    21.1329     7458.00000
    21.1461     7360.00000
    21.1592     7462.00000
    21.1723     7411.00000
    21.1855     7576.00000
    21.1986     7702.00000
    21.2117     7480.00000
    21.2249     7481.00000
    21.2380     7249.00000
    21.2511     7393.00000
    21.2642     7544.00000
    21.2774     7519.00000
    21.2905     7456.00000
    21.3036     7805.00000
    21.3168     7644.00000
    21.3299     7575.00000
    21.3430     7536.00000
    21.3562     7504.00000
    21.3693     7464.00000
    21.3824     7349.00000
    21.3956     7607.00000
    21.4087     7468.00000
    21.4218     7478.00000
    21.4349     7442.00000
    21.4481     7614.00000
    21.4612     7855.00000
    21.4743     7731.00000
    21.4875     7587.00000
    21.5006     7486.00000
    21.5137     7604.00000
    21.5269     7718.00000
    21.5400     7578.00000
    21.5531     7555.00000
    21.5662     7482.00000
    21.5794     7438.00000
    21.5925     7408.00000
    21.6056     7455.00000
    21.6188     7523.00000
    21.6319     7528.00000
    21.6450     7709.00000
    21.6582     7524.00000
    21.6713     7633.00000
    21.6844     7641.00000
    21.6975     7636.00000
    21.7107     7494.00000
    21.7238     7626.00000
    21.7369     7539.00000
    21.7501     7446.00000
    21.7632     7457.00000
    21.7763     7487.00000
    21.7895     7481.00000
    21.8026     7548.00000
    21.8157     7656.00000
    21.8288     7571.00000
    21.8420     7466.00000
    21.8551     7375.00000
    21.8682     7559.00000
    21.8814     7713.00000
    21.8945     7447.00000
    21.9076     7597.00000
    21.9208     7503.00000
    21.9339     7601.00000
    21.9470     7635.00000
    21.9602     7719.00000
    21.9733     7846.00000
    21.9864     7692.00000
    21.9995     7585.00000
    22.0127     7551.00000
    22.0258     7620.00000
    22.0389     7587.00000
    22.0521     7454.00000
    22.0652     7532.00000
    22.0783     7467.00000
    22.0915     7658.00000
    22.1046     7636.00000
    22.1177     7509.00000
    22.1308     7564.00000
    22.1440     7574.00000
    22.1571     7488.00000
    22.1702     7504.00000
    22.1834     7444.00000
    22.1965     7299.00000
    22.2096     7362.00000
    22.2228     7365.00000
    22.2359     7436.00000
    22.2490     7469.00000
    22.2621     7556.00000
    22.2753     7418.00000
    22.2884     7390.00000
    22.3015     7509.00000
    22.3147     7533.00000
    22.3278     7476.00000
    22.3409     7438.00000
    22.3541     7610.00000
    22.3672     7721.00000
    22.3803     7452.00000
    22.3935     7755.00000
    22.4066     7736.00000
    22.4197     7624.00000
    22.4328     7872.00000
    22.4460     7710.00000
    22.4591     7705.00000
    22.4722     7748.00000
    22.4854     7812.00000
    22.4985     8012.00000
    22.5116     8069.00000
    22.5248     8340.00000
    22.5379     8359.00000
    22.5510     9002.00000
    22.5641     9496.00000
    22.5773    10726.00000
    22.5904    12501.00000
    22.6035    15603.00000
    22.6167    20649.00000
    22.6298    26504.00000
    22.6429    32138.00000
    22.6561    34368.00000
    22.6692    32202.00000
    22.6823    29281.00000
    22.6954    26708.00000
    22.7086    23969.00000
    22.7217    20526.00000
    22.7348    16787.00000
    22.7480    13155.00000
    22.7611    10907.00000
    22.7742     9293.00000
    22.7874     8716.00000
    22.8005     8249.00000
    22.8136     8096.00000
    22.8268     8170.00000
    22.8399     7861.00000
    22.8530     7747.00000
    22.8661     7703.00000
    22.8793     7744.00000
    22.8924     7696.00000
    22.9055     7772.00000
    22.9187     7613.00000
    22.9318     7454.00000
    22.9449     7586.00000
    22.9581     7524.00000
    22.9712     7674.00000
    22.9843     7620.00000
    22.9974     7693.00000
    23.0106     7558.00000
    23.0237     7566.00000
    23.0368     7473.00000
    23.0500     7609.00000
    23.0631     7587.00000
    23.0762     7462.00000
    23.0894     7498.00000
    23.1025     7409.00000
    23.1156     7530.00000
    23.1287     7410.00000
    23.1419     7555.00000
    23.1550     7551.00000
    23.1681     7505.00000
    23.1813     7569.00000
    23.1944     7585.00000
    23.2075     7662.00000
    23.2207     7810.00000
    23.2338     7556.00000
    23.2469     7584.00000
    23.2601     7629.00000
    23.2732     7787.00000
    23.2863     7747.00000
    23.2994     7684.00000
    23.3126     7803.00000
    23.3257     7634.00000
    23.3388     7751.00000
    23.3520     7645.00000
    23.3651     7696.00000
    23.3782     7569.00000
    23.3914     7688.00000
    23.4045     7754.00000
    23.4176     7783.00000
    23.4307     7565.00000
    23.4439     7657.00000
    23.4570     7649.00000
    23.4701     7599.00000
    23.4833     7385.00000
    23.4964     7562.00000
    23.5095     7670.00000
    23.5227     7658.00000
    23.5358     7737.00000
    23.5489     7782.00000
    23.5620     7747.00000
    23.5752     7594.00000
    23.5883     7807.00000
    23.6014     7768.00000
    23.6146     7734.00000
    23.6277     7842.00000
    23.6408     7751.00000
    23.6540     7696.00000
    23.6671     7988.00000
    23.6802     8136.00000
    23.6933     8439.00000
    23.7065     8337.00000
    23.7196     8510.00000
    23.7327     9028.00000
    23.7459     9891.00000
    23.7590    11355.00000
    23.7721    14054.00000
    23.7853    17918.00000
    23.7984    23647.00000
    23.8115    28746.00000
    23.8247    30189.00000
    23.8378    28275.00000
    23.8509    25496.00000
    23.8640    23435.00000
    23.8772    22150.00000
    23.8903    19752.00000
    23.9034    16317.00000
    23.9166    13640.00000
    23.9297    11403.00000
    23.9428    10115.00000
    23.9560     9175.00000
    23.9691     8876.00000
    23.9822     8663.00000
    23.9953     8643.00000
    24.0085     8622.00000
    24.0216     8679.00000
    24.0347     8523.00000
    24.0479     8870.00000
    24.0610     9139.00000
    24.0741     9726.00000
    24.0873    10681.00000
    24.1004    12481.00000
    24.1135    15668.00000
    24.1266    20983.00000
    24.1398    28203.00000
    24.1529    35280.00000
    24.1660    37370.00000
    24.1792    33764.00000
    24.1923    29970.00000
    24.2054    27635.00000
    24.2186    26110.00000
    24.2317    22945.00000
    24.2448    18669.00000
    24.2580    14951.00000
    24.2711    12027.00000
    24.2842    10188.00000
    24.2973     9000.00000
    24.3105     8622.00000
    24.3236     8298.00000
    24.3367     8086.00000
    24.3499     8212.00000
    24.3630     8087.00000
    24.3761     7981.00000
    24.3893     8016.00000
    24.4024     8077.00000
    24.4155     8178.00000
    24.4286     8091.00000
    24.4418     7902.00000
    24.4549     7832.00000
    24.4680     7924.00000
    24.4812     7804.00000
    24.4943     7807.00000
    24.5074     7581.00000
    24.5206     7732.00000
    24.5337     7563.00000
    24.5468     7562.00000
    24.5599     7578.00000
    24.5731     7567.00000
    24.5862     7407.00000
    24.5993     7371.00000
    24.6125     7399.00000
    24.6256     7367.00000
    24.6387     7283.00000
    24.6519     7349.00000
    24.6650     7494.00000
    24.6781     7617.00000
    24.6913     7430.00000
    24.7044     7275.00000
    24.7175     7391.00000
    24.7306     7480.00000
    24.7438     7570.00000
    24.7569     7661.00000
    24.7700     7514.00000
    24.7832     7366.00000
    24.7963     7335.00000
    24.8094     7399.00000
    24.8226     7437.00000
    24.8357     7291.00000
    24.8488     7604.00000
    24.8619     7501.00000
    24.8751     7477.00000
    24.8882     7489.00000
    24.9013     7489.00000
    24.9145     7544.00000
    24.9276     7325.00000
    24.9407     7162.00000
    24.9539     7422.00000
    24.9670     7301.00000
    24.9801     7473.00000
    24.9932     7454.00000
    25.0064     7309.00000
    25.0195     7338.00000
    25.0326     7325.00000
    25.0458     7430.00000
    25.0589     7440.00000
    25.0720     7394.00000
    25.0852     7368.00000
    25.0983     7389.00000
    25.1114     7384.00000
    25.1246     7350.00000
    25.1377     7564.00000
    25.1508     7282.00000
    25.1639     7304.00000
    25.1771     7288.00000
    25.1902     7468.00000
    25.2033     7479.00000
    25.2165     7414.00000
    25.2296     7484.00000
    25.2427     7614.00000
    25.2559     7470.00000
    25.2690     7507.00000
    25.2821     7537.00000
    25.2952     7606.00000
    25.3084     7644.00000
    25.3215     7720.00000
    25.3346     7668.00000
    25.3478     7345.00000
    25.3609     7451.00000
    25.3740     7586.00000
    25.3872     7433.00000
    25.4003     7425.00000
    25.4134     7411.00000
    25.4265     7384.00000
    25.4397     7345.00000
    25.4528     7368.00000
    25.4659     7248.00000
    25.4791     7318.00000
    25.4922     7337.00000
    25.5053     7309.00000
    25.5185     7211.00000
    25.5316     7342.00000
    25.5447     7334.00000
    25.5579     7155.00000
    25.5710     7281.00000
    25.5841     7333.00000
    25.5972     7412.00000
    25.6104     7328.00000
    25.6235     7364.00000
    25.6366     7463.00000
    25.6498     7501.00000
    25.6629     7423.00000
    25.6760     7407.00000
    25.6892     7405.00000
    25.7023     7319.00000
    25.7154     7417.00000
    25.7285     7247.00000
    25.7417     7419.00000
    25.7548     7428.00000
    25.7679     7314.00000
    25.7811     7381.00000
    25.7942     7331.00000
    25.8073     7444.00000
    25.8205     7308.00000
    25.8336     7345.00000
    25.8467     7314.00000
    25.8598     7317.00000
    25.8730     7445.00000
    25.8861     7410.00000
    25.8992     7462.00000
    25.9124     7408.00000
    25.9255     7289.00000
    25.9386     7344.00000
    25.9518     7405.00000
    25.9649     7491.00000
    25.9780     7455.00000
    25.9911     7300.00000
    26.0043     7454.00000
    26.0174     7387.00000
    26.0305     7322.00000
    26.0437     7266.00000
    26.0568     7624.00000
    26.0699     7470.00000
    26.0831     7471.00000
    26.0962     7374.00000
    26.1093     7374.00000
    26.1225     7309.00000
    26.1356     7416.00000
    26.1487     7238.00000
    26.1618     7462.00000
    26.1750     7192.00000
    26.1881     7393.00000
    26.2012     7294.00000
    26.2144     7326.00000
    26.2275     7322.00000
    26.2406     7297.00000
    26.2538     7160.00000
    26.2669     7264.00000
    26.2800     7258.00000
    26.2931     7368.00000
    26.3063     7112.00000
    26.3194     7319.00000
    26.3325     7169.00000
    26.3457     7203.00000
    26.3588     7202.00000
    26.3719     7202.00000
    26.3851     7270.00000
    26.3982     7344.00000
    26.4113     7357.00000
    26.4244     7265.00000
    26.4376     7255.00000
    26.4507     7210.00000
    26.4638     7120.00000
    26.4770     7279.00000
    26.4901     7335.00000
    26.5032     7191.00000
    26.5164     7283.00000
    26.5295     7173.00000
    26.5426     7195.00000
    26.5558     7152.00000
    26.5689     7161.00000
    26.5820     7055.00000
    26.5951     7073.00000
    26.6083     7247.00000
    26.6214     7221.00000
    26.6345     7291.00000
    26.6477     7216.00000
    26.6608     7243.00000
    26.6739     7180.00000
    26.6871     7259.00000
    26.7002     7245.00000
    26.7133     7077.00000
    26.7264     7259.00000
    26.7396     7231.00000
    26.7527     7206.00000
    26.7658     7089.00000
    26.7790     7196.00000
    26.7921     7283.00000
    26.8052     7077.00000
    26.8184     7014.00000
    26.8315     7170.00000
    26.8446     7172.00000
    26.8577     7276.00000
    26.8709     7305.00000
    26.8840     7086.00000
    26.8971     7237.00000
    26.9103     7211.00000
    26.9234     7071.00000
    26.9365     7088.00000
    26.9497     7360.00000
    26.9628     7277.00000
    26.9759     7238.00000
    26.9891     7457.00000
    27.0022     7333.00000
    27.0153     7376.00000
    27.0284     7399.00000
    27.0416     7296.00000
    27.0547     7435.00000
    27.0678     7301.00000
    27.0810     7461.00000
    27.0941     7539.00000
    27.1072     7435.00000
    27.1204     7555.00000
    27.1335     7654.00000
    27.1466     7516.00000
    27.1597     7577.00000
    27.1729     7469.00000
    27.1860     7484.00000
    27.1991     7464.00000
    27.2123     7521.00000
    27.2254     7402.00000
    27.2385     7487.00000
    27.2517     7465.00000
    27.2648     7515.00000
    27.2779     7387.00000
    27.2910     7449.00000
    27.3042     7493.00000
    27.3173     7517.00000
    27.3304     7609.00000
    27.3436     7631.00000
    27.3567     7432.00000
    27.3698     7249.00000
    27.3830     7455.00000
    27.3961     7270.00000
    27.4092     7361.00000
    27.4224     7408.00000
    27.4355     7426.00000
    27.4486     7377.00000
    27.4617     7414.00000
    27.4749     7343.00000
    27.4880     7380.00000
    27.5011     7414.00000
    27.5143     7303.00000
    27.5274     7558.00000
    27.5405     7492.00000
    27.5537     7588.00000
    27.5668     7447.00000
    27.5799     7449.00000
    27.5930     7328.00000
    27.6062     7471.00000
    27.6193     7495.00000
    27.6324     7608.00000
    27.6456     7574.00000
    27.6587     7412.00000
    27.6718     7410.00000
    27.6850     7518.00000
    27.6981     7603.00000
    27.7112     7624.00000
    27.7243     7828.00000
    27.7375     7724.00000
    27.7506     7762.00000
    27.7637     7781.00000
    27.7769     8146.00000
    27.7900     8385.00000
    27.8031     8413.00000
    27.8163     8458.00000
    27.8294     8511.00000
    27.8425     8778.00000
    27.8556     9056.00000
    27.8688     9285.00000
    27.8819     9477.00000
    27.8950     9728.00000
    27.9082    10270.00000
    27.9213    10770.00000
    27.9344    11481.00000
    27.9476    12407.00000
    27.9607    14039.00000
    27.9738    16367.00000
    27.9870    20253.00000
    28.0001    26253.00000
    28.0132    36260.00000
    28.0263    50494.00000
    28.0395    67097.00000
    28.0526    81817.00000
    28.0657    88062.00000
    28.0789    84919.00000
    28.0920    76109.00000
    28.1051    67529.00000
    28.1183    61570.00000
    28.1314    57594.00000
    28.1445    50388.00000
    28.1576    41683.00000
    28.1708    32452.00000
    28.1839    24383.00000
    28.1970    18361.00000
    28.2102    14771.00000
    28.2233    12792.00000
    28.2364    11076.00000
    28.2496    10347.00000
    28.2627    10124.00000
    28.2758     9477.00000
    28.2889     9315.00000
    28.3021     8913.00000
    28.3152     8663.00000
    28.3283     8443.00000
    28.3415     8483.00000
    28.3546     8095.00000
    28.3677     8111.00000
    28.3809     7948.00000
    28.3940     7999.00000
    28.4071     7912.00000
    28.4203     7769.00000
    28.4334     7821.00000
    28.4465     7877.00000
    28.4596     7883.00000
    28.4728     8205.00000
    28.4859     8195.00000
    28.4990     8632.00000
    28.5122     8810.00000
    28.5253     9049.00000
    28.5384     8644.00000
    28.5516     8499.00000
    28.5647     8595.00000
    28.5778     8576.00000
    28.5909     8594.00000
    28.6041     8384.00000
    28.6172     8279.00000
    28.6303     8158.00000
    28.6435     7999.00000
    28.6566     7801.00000
    28.6697     7838.00000
    28.6829     7783.00000
    28.6960     7603.00000
    28.7091     7570.00000
    28.7222     7661.00000
    28.7354     7689.00000
    28.7485     7634.00000
    28.7616     7742.00000
    28.7748     7681.00000
    28.7879     7854.00000
    28.8010     7740.00000
    28.8142     7867.00000
    28.8273     7948.00000
    28.8404     7756.00000
    28.8536     7919.00000
    28.8667     8079.00000
    28.8798     8043.00000
    28.8929     8249.00000
    28.9061     8499.00000
    28.9192     8741.00000
    28.9323     9239.00000
    28.9455     9849.00000
    28.9586    11251.00000
    28.9717    13547.00000
    28.9849    18368.00000
    28.9980    26145.00000
    29.0111    35177.00000
    29.0242    40722.00000
    29.0374    38780.00000
    29.0505    33151.00000
    29.0636    27843.00000
    29.0768    25869.00000
    29.0899    26488.00000
    29.1030    25829.00000
    29.1162    22570.00000
    29.1293    18095.00000
    29.1424    14029.00000
    29.1555    11449.00000
    29.1687     9652.00000
    29.1818     9164.00000
    29.1949     8885.00000
    29.2081     8832.00000
    29.2212     8954.00000
    29.2343     9118.00000
    29.2475     9388.00000
    29.2606    10031.00000
    29.2737    10920.00000
    29.2869    12052.00000
    29.3000    12953.00000
    29.3131    13754.00000
    29.3262    14417.00000
    29.3394    14275.00000
    29.3525    14720.00000
    29.3656    15646.00000
    29.3788    16399.00000
    29.3919    16048.00000
    29.4050    14479.00000
    29.4182    13107.00000
    29.4313    11913.00000
    29.4444    11456.00000
    29.4575    10950.00000
    29.4707    10725.00000
    29.4838     9817.00000
    29.4969     8693.00000
    29.5101     8283.00000
    29.5232     8009.00000
    29.5363     7641.00000
    29.5495     7679.00000
    29.5626     7544.00000
    29.5757     7539.00000
    29.5888     7463.00000
    29.6020     7408.00000
    29.6151     7430.00000
    29.6282     7460.00000
    29.6414     7389.00000
    29.6545     7223.00000
    29.6676     7138.00000
    29.6808     7192.00000
    29.6939     7176.00000
    29.7070     7250.00000
    29.7201     7198.00000
    29.7333     7201.00000
    29.7464     7181.00000
    29.7595     7266.00000
    29.7727     7207.00000
    29.7858     7371.00000
    29.7989     7347.00000
    29.8121     7154.00000
    29.8252     7382.00000
    29.8383     7100.00000
    29.8515     7223.00000
    29.8646     7302.00000
    29.8777     7012.00000
    29.8908     7103.00000
    29.9040     7210.00000
    29.9171     7312.00000
    29.9302     7180.00000
    29.9434     7038.00000
    29.9565     7239.00000
    29.9696     7092.00000
    29.9828     6944.00000
    29.9959     7098.00000
    30.0090     6930.00000
    30.0221     6876.00000
    30.0353     6982.00000
    30.0484     7155.00000
    30.0615     6983.00000
    30.0747     6986.00000
    30.0878     7010.00000
    30.1009     7106.00000
    30.1141     6919.00000
    30.1272     6883.00000
    30.1403     7100.00000
    30.1535     6954.00000
    30.1666     6906.00000
    30.1797     6909.00000
    30.1928     7065.00000
    30.2060     6938.00000
    30.2191     7124.00000
    30.2322     7315.00000
    30.2454     7029.00000
    30.2585     7101.00000
    30.2716     7261.00000
    30.2848     7005.00000
    30.2979     7225.00000
    30.3110     7084.00000
    30.3241     7013.00000
    30.3373     6951.00000
    30.3504     6949.00000
    30.3635     6964.00000
    30.3767     7012.00000
    30.3898     7180.00000
    30.4029     6991.00000
    30.4161     7056.00000
    30.4292     6946.00000
    30.4423     7012.00000
    30.4554     6889.00000
    30.4686     7070.00000
    30.4817     7045.00000
    30.4948     7043.00000
    30.5080     7020.00000
    30.5211     7050.00000
    30.5342     6777.00000
    30.5474     7046.00000
    30.5605     6906.00000
    30.5736     6904.00000
    30.5868     7020.00000
    30.5999     6843.00000
    30.6130     7105.00000
    30.6261     6879.00000
    30.6393     7050.00000
    30.6524     6908.00000
    30.6655     7122.00000
    30.6787     6916.00000
    30.6918     7073.00000
    30.7049     7111.00000
    30.7181     6910.00000
    30.7312     6898.00000
    30.7443     6986.00000
    30.7574     7051.00000
    30.7706     7125.00000
    30.7837     6908.00000
    30.7968     6906.00000
    30.8100     6973.00000
    30.8231     6881.00000
    30.8362     6870.00000
    30.8494     7031.00000
    30.8625     6770.00000
    30.8756     6866.00000
    30.8887     7071.00000
    30.9019     6974.00000
    30.9150     6854.00000
    30.9281     6919.00000
    30.9413     7109.00000
    30.9544     7023.00000
    30.9675     7146.00000
    30.9807     7085.00000
    30.9938     6837.00000
    31.0069     6923.00000
    31.0200     6897.00000
    31.0332     6969.00000
    31.0463     7015.00000
    31.0594     6824.00000
    31.0726     6880.00000
    31.0857     6848.00000
    31.0988     6941.00000
    31.1120     6997.00000
    31.1251     7053.00000
    31.1382     6946.00000
    31.1514     6901.00000
    31.1645     6786.00000
    31.1776     6831.00000
    31.1907     6783.00000
    31.2039     6904.00000
    31.2170     6946.00000
    31.2301     6989.00000
    31.2433     6782.00000
    31.2564     7058.00000
    31.2695     6898.00000
    31.2827     6943.00000
    31.2958     7060.00000
    31.3089     6875.00000
    31.3220     6885.00000
    31.3352     7086.00000
    31.3483     6912.00000
    31.3614     6846.00000
    31.3746     6809.00000
    31.3877     7037.00000
    31.4008     6858.00000
    31.4140     6819.00000
    31.4271     6846.00000
    31.4402     6754.00000
    31.4533     6847.00000
    31.4665     6844.00000
    31.4796     6816.00000
    31.4927     6931.00000
    31.5059     6966.00000
    31.5190     6919.00000
    31.5321     6982.00000
    31.5453     7005.00000
    31.5584     6885.00000
    31.5715     6949.00000
    31.5847     6847.00000
    31.5978     6702.00000
    31.6109     6911.00000
    31.6240     6833.00000
    31.6372     6774.00000
    31.6503     7028.00000
    31.6634     6868.00000
    31.6766     6907.00000
    31.6897     6881.00000
    31.7028     6914.00000
    31.7160     6915.00000
    31.7291     6775.00000
    31.7422     6878.00000
    31.7553     6935.00000
    31.7685     6916.00000
    31.7816     7028.00000
    31.7947     6870.00000
    31.8079     7069.00000
    31.8210     6859.00000
    31.8341     6700.00000
    31.8473     6564.00000
    31.8604     6871.00000
    31.8735     6979.00000
    31.8866     6814.00000
    31.8998     6712.00000
    31.9129     7047.00000
    31.9260     7002.00000
    31.9392     6811.00000
    31.9523     6937.00000
    31.9654     6906.00000
    31.9786     6925.00000
    31.9917     6561.00000
    32.0048     6852.00000
    32.0180     6961.00000
    32.0311     6686.00000
    32.0442     6684.00000
    32.0573     6756.00000
    32.0705     6699.00000
    32.0836     6934.00000
    32.0967     6780.00000
    32.1099     6937.00000
    32.1230     6992.00000
    32.1361     7053.00000
    32.1493     6933.00000
    32.1624     6705.00000
    32.1755     6993.00000
    32.1886     7089.00000
    32.2018     6982.00000
    32.2149     6835.00000
    32.2280     6928.00000
    32.2412     6876.00000
    32.2543     6965.00000
    32.2674     6940.00000
    32.2806     7015.00000
    32.2937     6722.00000
    32.3068     6962.00000
    32.3199     6964.00000
    32.3331     6824.00000
    32.3462     6837.00000
    32.3593     6771.00000
    32.3725     6924.00000
    32.3856     7019.00000
    32.3987     6832.00000
    32.4119     6793.00000
    32.4250     6982.00000
    32.4381     7037.00000
    32.4512     6927.00000
    32.4644     6945.00000
    32.4775     6932.00000
    32.4906     7016.00000
    32.5038     6858.00000
    32.5169     6938.00000
    32.5300     6796.00000
    32.5432     6862.00000
    32.5563     6835.00000
    32.5694     7000.00000
    32.5826     7013.00000
    32.5957     6847.00000
    32.6088     6732.00000
    32.6219     6729.00000
    32.6351     7127.00000
    32.6482     7002.00000
    32.6613     6622.00000
    32.6745     6614.00000
    32.6876     6869.00000
    32.7007     6929.00000
    32.7139     6898.00000
    32.7270     7019.00000
    32.7401     7075.00000
    32.7532     6980.00000
    32.7664     7136.00000
    32.7795     7233.00000
    32.7926     7096.00000
    32.8058     6996.00000
    32.8189     7224.00000
    32.8320     7311.00000
    32.8452     7260.00000
    32.8583     7261.00000
    32.8714     7339.00000
    32.8845     7600.00000
    32.8977     7448.00000
    32.9108     7575.00000
    32.9239     7699.00000
    32.9371     7870.00000
    32.9502     8182.00000
    32.9633     8615.00000
    32.9765     9763.00000
    32.9896    11883.00000
    33.0027    15006.00000
    33.0159    20158.00000
    33.0290    25570.00000
    33.0421    28555.00000
    33.0552    26730.00000
    33.0684    22925.00000
    33.0815    19621.00000
    33.0946    18047.00000
    33.1078    18180.00000
    33.1209    18788.00000
    33.1340    18158.00000
    33.1472    15593.00000
    33.1603    13005.00000
    33.1734    11082.00000
    33.1865     9550.00000
    33.1997     8596.00000
    33.2128     7972.00000
    33.2259     7684.00000
    33.2391     7457.00000
    33.2522     7554.00000
    33.2653     7651.00000
    33.2785     7240.00000
    33.2916     7195.00000
    33.3047     7101.00000
    33.3178     7232.00000
    33.3310     7092.00000
    33.3441     7009.00000
    33.3572     6904.00000
    33.3704     6998.00000
    33.3835     6980.00000
    33.3966     7025.00000
    33.4098     6777.00000
    33.4229     6836.00000
    33.4360     6855.00000
    33.4492     6888.00000
    33.4623     6869.00000
    33.4754     7025.00000
    33.4885     6892.00000
    33.5017     6966.00000
    33.5148     7019.00000
    33.5279     6916.00000
    33.5411     6928.00000
    33.5542     7007.00000
    33.5673     6961.00000
    33.5805     6902.00000
    33.5936     7057.00000
    33.6067     7003.00000
    33.6198     6949.00000
    33.6330     6947.00000
    33.6461     7047.00000
    33.6592     7029.00000
    33.6724     7281.00000
    33.6855     7475.00000
    33.6986     7336.00000
    33.7118     7598.00000
    33.7249     7814.00000
    33.7380     8501.00000
    33.7511     9126.00000
    33.7643    10487.00000
    33.7774    11695.00000
    33.7905    13626.00000
    33.8037    14623.00000
    33.8168    14899.00000
    33.8299    14429.00000
    33.8431    12811.00000
    33.8562    11760.00000
    33.8693    11662.00000
    33.8825    11356.00000
    33.8956    11601.00000
    33.9087    11129.00000
    33.9218    10415.00000
    33.9350     9506.00000
    33.9481     8842.00000
    33.9612     8622.00000
    33.9744     8440.00000
    33.9875     8053.00000
    34.0006     7877.00000
    34.0138     8029.00000
    34.0269     7724.00000
    34.0400     7693.00000
    34.0531     7489.00000
    34.0663     7417.00000
    34.0794     7428.00000
    34.0925     7375.00000
    34.1057     7303.00000
    34.1188     7095.00000
    34.1319     7223.00000
    34.1451     7270.00000
    34.1582     7177.00000
    34.1713     7284.00000
    34.1844     7438.00000
    34.1976     7636.00000
    34.2107     8219.00000
    34.2238     9144.00000
    34.2370    10309.00000
    34.2501    12180.00000
    34.2632    13516.00000
    34.2764    13722.00000
    34.2895    12867.00000
    34.3026    11682.00000
    34.3158    10412.00000
    34.3289    10120.00000
    34.3420    10521.00000
    34.3551    10653.00000
    34.3683    10250.00000
    34.3814     9497.00000
    34.3945     8701.00000
    34.4077     8068.00000
    34.4208     7695.00000
    34.4339     7379.00000
    34.4471     7069.00000
    34.4602     6932.00000
    34.4733     6906.00000
    34.4864     6885.00000
    34.4996     6922.00000
    34.5127     6900.00000
    34.5258     6854.00000
    34.5390     6944.00000
    34.5521     6641.00000
    34.5652     6762.00000
    34.5784     6720.00000
    34.5915     6665.00000
    34.6046     6629.00000
    34.6177     6751.00000
    34.6309     6672.00000
    34.6440     6700.00000
    34.6571     6669.00000
    34.6703     6747.00000
    34.6834     6759.00000
    34.6965     6792.00000
    34.7097     6908.00000
    34.7228     6651.00000
    34.7359     6936.00000
    34.7491     6757.00000
    34.7622     6856.00000
    34.7753     6803.00000
    34.7884     6744.00000
    34.8016     6760.00000
    34.8147     6671.00000
    34.8278     6720.00000
    34.8410     6830.00000
    34.8541     6831.00000
    34.8672     6800.00000
    34.8804     6945.00000
    34.8935     7045.00000
    34.9066     7061.00000
    34.9197     7091.00000
    34.9329     7425.00000
    34.9460     7676.00000
    34.9591     8065.00000
    34.9723     9071.00000
    34.9854     9929.00000
    34.9985    10916.00000
    35.0117    11561.00000
    35.0248    11383.00000
    35.0379    11008.00000
    35.0510    10360.00000
    35.0642     9769.00000
    35.0773     9600.00000
    35.0904     9645.00000
    35.1036     9380.00000
    35.1167     9145.00000
    35.1298     8870.00000
    35.1430     8224.00000
    35.1561     7882.00000
    35.1692     7804.00000
    35.1824     7364.00000
    35.1955     7558.00000
    35.2086     7771.00000
    35.2217     7560.00000
    35.2349     7533.00000
    35.2480     7284.00000
    35.2611     7205.00000
    35.2743     7248.00000
    35.2874     7017.00000
    35.3005     7056.00000
    35.3137     7186.00000
    35.3268     7204.00000
    35.3399     7007.00000
    35.3530     6793.00000
    35.3662     6789.00000
    35.3793     6780.00000
    35.3924     6715.00000
    35.4056     6827.00000
    35.4187     6651.00000
    35.4318     6683.00000
    35.4450     6920.00000
    35.4581     6660.00000
    35.4712     6656.00000
    35.4843     6573.00000
    35.4975     6476.00000
    35.5106     6587.00000
    35.5237     6606.00000
    35.5369     6730.00000
    35.5500     6567.00000
    35.5631     6687.00000
    35.5763     6767.00000
    35.5894     6529.00000
    35.6025     6601.00000
    35.6156     6474.00000
    35.6288     6470.00000
    35.6419     6770.00000
    35.6550     6614.00000
    35.6682     6602.00000
    35.6813     6503.00000
    35.6944     6673.00000
    35.7076     6567.00000
    35.7207     6765.00000
    35.7338     6647.00000
    35.7470     6585.00000
    35.7601     6559.00000
    35.7732     6534.00000
    35.7863     6446.00000
    35.7995     6517.00000
    35.8126     6684.00000
    35.8257     6519.00000
    35.8389     6643.00000
    35.8520     6761.00000
    35.8651     6635.00000
    35.8783     6598.00000
    35.8914     6530.00000
    35.9045     6458.00000
    35.9176     6544.00000
    35.9308     6665.00000
    35.9439     6611.00000
    35.9570     6688.00000
    35.9702     6645.00000
    35.9833     6471.00000
    35.9964     6593.00000
    36.0096     6552.00000
    36.0227     6334.00000
    36.0358     6438.00000
    36.0489     6490.00000
    36.0621     6520.00000
    36.0752     6552.00000
    36.0883     6429.00000
    36.1015     6546.00000
    36.1146     6536.00000
    36.1277     6528.00000
    36.1409     6535.00000
    36.1540     6520.00000
    36.1671     6646.00000
    36.1802     6504.00000
    36.1934     6715.00000
    36.2065     6721.00000
    36.2196     6512.00000
    36.2328     6762.00000
    36.2459     6660.00000
    36.2590     6721.00000
    36.2722     6638.00000
    36.2853     6748.00000
    36.2984     6649.00000
    36.3116     6741.00000
    36.3247     6740.00000
    36.3378     6772.00000
    36.3509     6691.00000
    36.3641     6697.00000
    36.3772     6796.00000
    36.3903     6849.00000
    36.4035     6860.00000
    36.4166     7038.00000
    36.4297     7049.00000
    36.4429     7220.00000
    36.4560     7637.00000
    36.4691     8700.00000
    36.4822     9511.00000
    36.4954    10088.00000
    36.5085     9830.00000
    36.5216     9258.00000
    36.5348     8485.00000
    36.5479     8028.00000
    36.5610     8171.00000
    36.5742     8293.00000
    36.5873     8418.00000
    36.6004     8134.00000
    36.6135     7840.00000
    36.6267     7627.00000
    36.6398     7056.00000
    36.6529     7044.00000
    36.6661     6851.00000
    36.6792     6961.00000
    36.6923     6774.00000
    36.7055     6566.00000
    36.7186     6712.00000
    36.7317     6715.00000
    36.7449     6599.00000
    36.7580     6506.00000
    36.7711     6561.00000
    36.7842     6613.00000
    36.7974     6640.00000
    36.8105     6660.00000
    36.8236     6765.00000
    36.8368     6639.00000
    36.8499     6557.00000
    36.8630     6561.00000
    36.8762     6530.00000
    36.8893     6681.00000
    36.9024     6482.00000
    36.9155     6618.00000
    36.9287     6741.00000
    36.9418     6651.00000
    36.9549     6659.00000
    36.9681     6548.00000
    36.9812     6542.00000
    36.9943     6643.00000
    37.0075     6657.00000
    37.0206     6548.00000
    37.0337     6432.00000
    37.0468     6482.00000
    37.0600     6695.00000
    37.0731     6571.00000
    37.0862     6582.00000
    37.0994     6454.00000
    37.1125     6654.00000
    37.1256     6626.00000
    37.1388     6561.00000
    37.1519     6593.00000
    37.1650     6528.00000
    37.1782     6638.00000
    37.1913     6633.00000
    37.2044     6498.00000
    37.2175     6603.00000
    37.2307     6565.00000
    37.2438     6581.00000
    37.2569     6402.00000
    37.2701     6463.00000
    37.2832     6415.00000
    37.2963     6595.00000
    37.3095     6510.00000
    37.3226     6629.00000
    37.3357     6616.00000
    37.3488     6382.00000
    37.3620     6412.00000
    37.3751     6552.00000
    37.3882     6514.00000
    37.4014     6666.00000
    37.4145     6577.00000
    37.4276     6537.00000
    37.4408     6393.00000
    37.4539     6304.00000
    37.4670     6558.00000
    37.4801     6618.00000
    37.4933     6539.00000
    37.5064     6617.00000
    37.5195     6790.00000
    37.5327     6509.00000
    37.5458     6651.00000
    37.5589     6720.00000
    37.5721     6785.00000
    37.5852     6929.00000
    37.5983     6721.00000
    37.6115     6979.00000
    37.6246     7167.00000
    37.6377     7411.00000
    37.6508     7690.00000
    37.6640     7795.00000
    37.6771     7389.00000
    37.6902     7280.00000
    37.7034     7284.00000
    37.7165     7519.00000
    37.7296     7595.00000
    37.7428     7862.00000
    37.7559     8127.00000
    37.7690     8731.00000
    37.7821     9502.00000
    37.7953    10583.00000
    37.8084    11700.00000
    37.8215    12459.00000
    37.8347    12694.00000
    37.8478    12666.00000
    37.8609    12567.00000
    37.8741    12347.00000
    37.8872    12064.00000
    37.9003    11932.00000
    37.9134    11535.00000
    37.9266    11049.00000
    37.9397    10704.00000
    37.9528    10010.00000
    37.9660     9499.00000
    37.9791     9100.00000
    37.9922     8694.00000
    38.0054     8229.00000
    38.0185     7655.00000
    38.0316     7440.00000
    38.0448     7149.00000
    38.0579     7067.00000
    38.0710     6715.00000
    38.0841     6695.00000
    38.0973     6788.00000
    38.1104     6863.00000
    38.1235     6785.00000
    38.1367     6717.00000
    38.1498     6782.00000
    38.1629     6867.00000
    38.1761     6815.00000
    38.1892     6788.00000
    38.2023     6599.00000
    38.2154     6757.00000
    38.2286     6691.00000
    38.2417     6557.00000
    38.2548     6417.00000
    38.2680     6639.00000
    38.2811     6656.00000
    38.2942     6717.00000
    38.3074     6478.00000
    38.3205     6579.00000
    38.3336     6498.00000
    38.3467     6424.00000
    38.3599     6608.00000
    38.3730     6690.00000
    38.3861     6514.00000
    38.3993     6587.00000
    38.4124     6579.00000
    38.4255     6368.00000
    38.4387     6520.00000
    38.4518     6660.00000
    38.4649     6475.00000
    38.4781     6595.00000
    38.4912     6562.00000
    38.5043     6592.00000
    38.5174     6553.00000
    38.5306     6519.00000
    38.5437     6455.00000
    38.5568     6442.00000
    38.5700     6629.00000
    38.5831     6501.00000
    38.5962     6529.00000
    38.6094     6535.00000
    38.6225     6347.00000
    38.6356     6450.00000
    38.6487     6524.00000
    38.6619     6485.00000
    38.6750     6306.00000
    38.6881     6414.00000
    38.7013     6553.00000
    38.7144     6311.00000
    38.7275     6518.00000
    38.7407     6316.00000
    38.7538     6481.00000
    38.7669     6612.00000
    38.7800     6404.00000
    38.7932     6436.00000
    38.8063     6259.00000
    38.8194     6211.00000
    38.8326     6402.00000
    38.8457     6407.00000
    38.8588     6503.00000
    38.8720     6502.00000
    38.8851     6483.00000
    38.8982     6622.00000
    38.9114     6293.00000
    38.9245     6334.00000
    38.9376     6370.00000
    38.9507     6411.00000
    38.9639     6321.00000
    38.9770     6568.00000
    38.9901     6538.00000
    39.0033     6590.00000
    39.0164     6543.00000
    39.0295     6570.00000
    39.0427     6512.00000
    39.0558     6569.00000
    39.0689     6405.00000
    39.0820     6527.00000
    39.0952     6337.00000
    39.1083     6349.00000
    39.1214     6391.00000
    39.1346     6562.00000
    39.1477     6627.00000
    39.1608     6474.00000
    39.1740     6570.00000
    39.1871     6834.00000
    39.2002     6803.00000
    39.2133     6897.00000
    39.2265     6881.00000
    39.2396     7090.00000
    39.2527     7469.00000
    39.2659     8065.00000
    39.2790     8930.00000
    39.2921     9491.00000
    39.3053     9902.00000
    39.3184     9239.00000
    39.3315     8490.00000
    39.3446     7804.00000
    39.3578     7670.00000
    39.3709     7749.00000
    39.3840     8000.00000
    39.3972     8246.00000
    39.4103     7983.00000
    39.4234     7808.00000
    39.4366     7328.00000
    39.4497     6925.00000
    39.4628     6874.00000
    39.4760     6835.00000
    39.4891     6682.00000
    39.5022     6474.00000
    39.5153     6648.00000
    39.5285     6362.00000
    39.5416     6470.00000
    39.5547     6477.00000
    39.5679     6383.00000
    39.5810     6405.00000
    39.5941     6496.00000
    39.6073     6516.00000
    39.6204     6498.00000
    39.6335     6439.00000
    39.6466     6585.00000
    39.6598     6373.00000
    39.6729     6210.00000
    39.6860     6372.00000
    39.6992     6310.00000
    39.7123     6415.00000
    39.7254     6436.00000
    39.7386     6513.00000
    39.7517     6602.00000
    39.7648     6396.00000
    39.7779     6495.00000
    39.7911     6520.00000
    39.8042     6528.00000
    39.8173     6426.00000
    39.8305     6285.00000
    39.8436     6450.00000
    39.8567     6434.00000
    39.8699     6620.00000
    39.8830     6277.00000
    39.8961     6335.00000
    39.9092     6403.00000
    39.9224     6286.00000
    39.9355     6433.00000
    39.9486     6564.00000
    39.9618     6460.00000
    39.9749     6286.00000
    39.9880     6572.00000
    40.0012     6372.00000
    40.0143     6380.00000
    40.0274     6584.00000
    40.0406     6331.00000
    40.0537     6444.00000
    40.0668     6503.00000
    40.0799     6590.00000
    40.0931     6506.00000
    40.1062     6659.00000
    40.1193     6507.00000
    40.1325     6448.00000
    40.1456     6474.00000
    40.1587     6635.00000
    40.1719     6632.00000
    40.1850     6695.00000
    40.1981     7062.00000
    40.2112     7068.00000
    40.2244     7174.00000
    40.2375     7217.00000
    40.2506     7481.00000
    40.2638     6979.00000
    40.2769     6927.00000
    40.2900     7015.00000
    40.3032     7005.00000
    40.3163     7099.00000
    40.3294     7091.00000
    40.3425     7059.00000
    40.3557     7186.00000
    40.3688     7308.00000
    40.3819     7411.00000
    40.3951     7873.00000
    40.4082     8214.00000
    40.4213     8749.00000
    40.4345     9077.00000
    40.4476     9218.00000
    40.4607     9182.00000
    40.4739     8783.00000
    40.4870     8277.00000
    40.5001     7921.00000
    40.5132     7910.00000
    40.5264     8005.00000
    40.5395     7811.00000
    40.5526     7970.00000
    40.5658     7878.00000
    40.5789     7560.00000
    40.5920     7309.00000
    40.6052     7027.00000
    40.6183     6908.00000
    40.6314     6594.00000
    40.6445     6588.00000
    40.6577     6545.00000
    40.6708     6528.00000
    40.6839     6556.00000
    40.6971     6659.00000
    40.7102     6440.00000
    40.7233     6521.00000
    40.7365     6345.00000
    40.7496     6192.00000
    40.7627     6391.00000
    40.7758     6409.00000
    40.7890     6439.00000
    40.8021     6337.00000
    40.8152     6503.00000
    40.8284     6386.00000
    40.8415     6312.00000
    40.8546     6498.00000
    40.8678     6459.00000
    40.8809     6450.00000
    40.8940     6502.00000
    40.9072     6595.00000
    40.9203     6297.00000
    40.9334     6349.00000
    40.9465     6451.00000
    40.9597     6447.00000
    40.9728     6452.00000
    40.9859     6403.00000
    40.9991     6478.00000
    41.0122     6627.00000
    41.0253     6471.00000
    41.0385     6569.00000
    41.0516     6624.00000
    41.0647     6665.00000
    41.0778     6716.00000
    41.0910     6892.00000
    41.1041     7283.00000
    41.1172     7522.00000
    41.1304     7889.00000
    41.1435     8219.00000
    41.1566     8215.00000
    41.1698     7930.00000
    41.1829     7700.00000
    41.1960     7519.00000
    41.2091     7702.00000
    41.2223     7960.00000
    41.2354     8597.00000
    41.2485     8961.00000
    41.2617     9595.00000
    41.2748    10454.00000
    41.2879    11223.00000
    41.3011    11714.00000
    41.3142    11879.00000
    41.3273    12233.00000
    41.3405    12123.00000
    41.3536    11437.00000
    41.3667    11309.00000
    41.3798    10919.00000
    41.3930    10360.00000
    41.4061    10110.00000
    41.4192     9767.00000
    41.4324     9473.00000
    41.4455     9294.00000
    41.4586     8954.00000
    41.4718     8507.00000
    41.4849     7997.00000
    41.4980     7564.00000
    41.5111     7213.00000
    41.5243     7083.00000
    41.5374     6884.00000
    41.5505     6721.00000
    41.5637     6723.00000
    41.5768     6580.00000
    41.5899     6641.00000
    41.6031     6776.00000
    41.6162     6650.00000
    41.6293     6478.00000
    41.6424     6321.00000
    41.6556     6346.00000
    41.6687     6430.00000
    41.6818     6440.00000
    41.6950     6475.00000
    41.7081     6320.00000
    41.7212     6368.00000
    41.7344     6361.00000
    41.7475     6259.00000
    41.7606     6552.00000
    41.7738     6430.00000
    41.7869     6494.00000
    41.8000     6404.00000
    41.8131     6373.00000
    41.8263     6626.00000
    41.8394     6538.00000
    41.8525     6433.00000
    41.8657     6407.00000
    41.8788     6503.00000
    41.8919     6376.00000
    41.9051     6394.00000
    41.9182     6343.00000
    41.9313     6524.00000
    41.9444     6524.00000
    41.9576     6344.00000
    41.9707     6460.00000
    41.9838     6401.00000
    41.9970     6303.00000
    42.0101     6401.00000
    42.0232     6373.00000
    42.0364     6429.00000
    42.0495     6562.00000
    42.0626     6445.00000
    42.0757     6370.00000
    42.0889     6323.00000
    42.1020     6362.00000
    42.1151     6363.00000
    42.1283     6422.00000
    42.1414     6487.00000
    42.1545     6503.00000
    42.1677     6570.00000
    42.1808     6473.00000
    42.1939     6515.00000
    42.2071     6363.00000
    42.2202     6448.00000
    42.2333     6367.00000
    42.2464     6445.00000
    42.2596     6377.00000
    42.2727     6368.00000
    42.2858     6488.00000
    42.2990     6416.00000
    42.3121     6479.00000
    42.3252     6415.00000
    42.3384     6472.00000
    42.3515     6411.00000
    42.3646     6420.00000
    42.3777     6474.00000
    42.3909     6498.00000
    42.4040     6403.00000
    42.4171     6456.00000
    42.4303     6385.00000
    42.4434     6428.00000
    42.4565     6443.00000
    42.4697     6508.00000
    42.4828     6348.00000
    42.4959     6309.00000
    42.5090     6291.00000
    42.5222     6386.00000
    42.5353     6314.00000
    42.5484     6352.00000
    42.5616     6402.00000
    42.5747     6215.00000
    42.5878     6331.00000
    42.6010     6391.00000
    42.6141     6397.00000
    42.6272     6378.00000
    42.6404     6391.00000
    42.6535     6392.00000
    42.6666     6379.00000
    42.6797     6214.00000
    42.6929     6419.00000
    42.7060     6410.00000
    42.7191     6437.00000
    42.7323     6207.00000
    42.7454     6335.00000
    42.7585     6394.00000
    42.7717     6572.00000
    42.7848     6422.00000
    42.7979     6414.00000
    42.8110     6297.00000
    42.8242     6452.00000
    42.8373     6412.00000
    42.8504     6504.00000
    42.8636     6209.00000
    42.8767     6210.00000
    42.8898     6324.00000
    42.9030     6278.00000
    42.9161     6331.00000
    42.9292     6232.00000
    42.9423     6466.00000
    42.9555     6181.00000
    42.9686     6281.00000
    42.9817     6305.00000
    42.9949     6216.00000
    43.0080     6319.00000
    43.0211     6155.00000
    43.0343     6346.00000
    43.0474     6269.00000
    43.0605     6396.00000
    43.0736     6326.00000
    43.0868     6429.00000
    43.0999     6334.00000
    43.1130     6274.00000
    43.1262     6407.00000
    43.1393     6289.00000
    43.1524     6320.00000
    43.1656     6301.00000
    43.1787     6192.00000
    43.1918     6324.00000
    43.2050     6211.00000
    43.2181     6472.00000
    43.2312     6426.00000
    43.2443     6410.00000
    43.2575     6396.00000
    43.2706     6279.00000
    43.2837     6357.00000
    43.2969     6267.00000
    43.3100     6410.00000
    43.3231     6506.00000
    43.3363     6253.00000
    43.3494     6237.00000
    43.3625     6290.00000
    43.3756     6306.00000
    43.3888     6336.00000
    43.4019     6263.00000
    43.4150     6424.00000
    43.4282     6300.00000
    43.4413     6408.00000
    43.4544     6318.00000
    43.4676     6208.00000
    43.4807     6351.00000
    43.4938     6487.00000
    43.5069     6591.00000
    43.5201     6387.00000
    43.5332     6373.00000
    43.5463     6358.00000
    43.5595     6433.00000
    43.5726     6501.00000
    43.5857     6436.00000
    43.5989     6382.00000
    43.6120     6511.00000
    43.6251     6504.00000
    43.6383     6640.00000
    43.6514     6865.00000
    43.6645     7371.00000
    43.6776     7563.00000
    43.6908     7971.00000
    43.7039     8056.00000
    43.7170     7774.00000
    43.7302     7709.00000
    43.7433     7512.00000
    43.7564     7282.00000
    43.7696     7038.00000
    43.7827     7122.00000
    43.7958     7341.00000
    43.8089     7187.00000
    43.8221     7116.00000
    43.8352     7076.00000
    43.8483     7019.00000
    43.8615     6919.00000
    43.8746     6654.00000
    43.8877     6690.00000
    43.9009     6520.00000
    43.9140     6560.00000
    43.9271     6717.00000
    43.9402     6390.00000
    43.9534     6372.00000
    43.9665     6515.00000
    43.9796     6387.00000
    43.9928     6533.00000
    44.0059     6439.00000
    44.0190     6314.00000
    44.0322     6162.00000
    44.0453     6490.00000
    44.0584     6424.00000
    44.0715     6231.00000
    44.0847     6340.00000
    44.0978     6473.00000
    44.1109     6332.00000
    44.1241     6434.00000
    44.1372     6434.00000
    44.1503     6471.00000
    44.1635     6363.00000
    44.1766     6508.00000
    44.1897     6544.00000
    44.2029     6493.00000
    44.2160     6603.00000
    44.2291     6580.00000
    44.2422     6463.00000
    44.2554     6627.00000
    44.2685     6440.00000
    44.2816     6390.00000
    44.2948     6509.00000
    44.3079     6589.00000
    44.3210     6441.00000
    44.3342     6374.00000
    44.3473     6378.00000
    44.3604     6643.00000
    44.3735     6519.00000
    44.3867     6344.00000
    44.3998     6289.00000
    44.4129     6526.00000
    44.4261     6395.00000
    44.4392     6379.00000
    44.4523     6399.00000
    44.4655     6575.00000
    44.4786     6606.00000
    44.4917     6468.00000
    44.5048     6656.00000
    44.5180     6445.00000
    44.5311     6615.00000
    44.5442     6615.00000
    44.5574     6592.00000
    44.5705     6807.00000
    44.5836     6932.00000
    44.5968     6889.00000
    44.6099     7016.00000
    44.6230     7007.00000
    44.6362     6807.00000
    44.6493     6878.00000
    44.6624     6843.00000
    44.6755     6974.00000
    44.6887     7363.00000
    44.7018     7503.00000
    44.7149     7706.00000
    44.7281     7888.00000
    44.7412     8605.00000
    44.7543     9355.00000
    44.7675    10879.00000
    44.7806    12117.00000
    44.7937    13003.00000
    44.8068    13462.00000
    44.8200    12937.00000
    44.8331    11969.00000
    44.8462    11033.00000
    44.8594     9996.00000
    44.8725     9401.00000
    44.8856     9532.00000
    44.8988     9841.00000
    44.9119    10075.00000
    44.9250    10085.00000
    44.9381     9745.00000
    44.9513     8933.00000
    44.9644     8683.00000
    44.9775     7920.00000
    44.9907     7245.00000
    45.0038     7124.00000
    45.0169     6743.00000
    45.0301     6681.00000
    45.0432     6658.00000
    45.0563     6643.00000
    45.0695     6508.00000
    45.0826     6603.00000
    45.0957     6433.00000
    45.1088     6554.00000
    45.1220     6361.00000
    45.1351     6342.00000
    45.1482     6451.00000
    45.1614     6614.00000
    45.1745     6494.00000
    45.1876     6457.00000
    45.2008     6495.00000
    45.2139     6316.00000
    45.2270     6322.00000
    45.2401     6354.00000
    45.2533     6412.00000
    45.2664     6304.00000
    45.2795     6385.00000
    45.2927     6411.00000
    45.3058     6420.00000
    45.3189     6540.00000
    45.3321     6427.00000
    45.3452     6347.00000
    45.3583     6410.00000
    45.3714     6378.00000
    45.3846     6175.00000
    45.3977     6224.00000
    45.4108     6278.00000
    45.4240     6426.00000
    45.4371     6371.00000
    45.4502     6432.00000
    45.4634     6368.00000
    45.4765     6188.00000
    45.4896     6438.00000
    45.5028     6290.00000
    45.5159     6391.00000
    45.5290     6466.00000
    45.5421     6530.00000
    45.5553     6401.00000
    45.5684     6407.00000
    45.5815     6220.00000
    45.5947     6331.00000
    45.6078     6343.00000
    45.6209     6548.00000
    45.6341     6453.00000
    45.6472     6275.00000
    45.6603     6253.00000
    45.6734     6183.00000
    45.6866     6253.00000
    45.6997     6280.00000
    45.7128     6481.00000
    45.7260     6569.00000
    45.7391     6393.00000
    45.7522     6566.00000
    45.7654     6404.00000
    45.7785     6423.00000
    45.7916     6266.00000
    45.8047     6394.00000
    45.8179     6461.00000
    45.8310     6394.00000
    45.8441     6336.00000
    45.8573     6305.00000
    45.8704     6307.00000
    45.8835     6422.00000
    45.8967     6263.00000
    45.9098     6345.00000
    45.9229     6453.00000
    45.9361     6396.00000
    45.9492     6658.00000
    45.9623     6507.00000
    45.9754     6615.00000
    45.9886     6543.00000
    46.0017     6535.00000
    46.0148     6592.00000
    46.0280     6865.00000
    46.0411     6639.00000
    46.0542     6912.00000
    46.0674     6925.00000
    46.0805     6775.00000
    46.0936     6927.00000
    46.1067     6926.00000
    46.1199     7038.00000
    46.1330     7105.00000
    46.1461     7290.00000
    46.1593     7302.00000
    46.1724     7682.00000
    46.1855     8185.00000
    46.1987     8971.00000
    46.2118    10430.00000
    46.2249    12636.00000
    46.2380    15594.00000
    46.2512    18266.00000
    46.2643    19775.00000
    46.2774    20159.00000
    46.2906    18837.00000
    46.3037    16463.00000
    46.3168    14491.00000
    46.3300    12863.00000
    46.3431    12050.00000
    46.3562    12346.00000
    46.3694    13201.00000
    46.3825    13800.00000
    46.3956    13665.00000
    46.4087    12916.00000
    46.4219    11929.00000
    46.4350    10422.00000
    46.4481     9466.00000
    46.4613     8380.00000
    46.4744     7781.00000
    46.4875     7600.00000
    46.5007     7111.00000
    46.5138     6943.00000
    46.5269     6932.00000
    46.5400     6777.00000
    46.5532     6610.00000
    46.5663     6864.00000
    46.5794     6562.00000
    46.5926     6592.00000
    46.6057     6733.00000
    46.6188     6539.00000
    46.6320     6565.00000
    46.6451     6553.00000
    46.6582     6592.00000
    46.6713     6364.00000
    46.6845     6482.00000
    46.6976     6538.00000
    46.7107     6483.00000
    46.7239     6363.00000
    46.7370     6482.00000
    46.7501     6507.00000
    46.7633     6325.00000
    46.7764     6359.00000
    46.7895     6329.00000
    46.8027     6470.00000
    46.8158     6532.00000
    46.8289     6430.00000
    46.8420     6518.00000
    46.8552     6567.00000
    46.8683     6310.00000
    46.8814     6279.00000
    46.8946     6465.00000
    46.9077     6291.00000
    46.9208     6276.00000
    46.9340     6366.00000
    46.9471     6397.00000
    46.9602     6254.00000
    46.9733     6451.00000
    46.9865     6534.00000
    46.9996     6499.00000
    47.0127     6269.00000
    47.0259     6390.00000
    47.0390     6318.00000
    47.0521     6313.00000
    47.0653     6439.00000
    47.0784     6373.00000
    47.0915     6214.00000
    47.1046     6309.00000
    47.1178     6473.00000
    47.1309     6566.00000
    47.1440     6514.00000
    47.1572     6568.00000
    47.1703     6450.00000
    47.1834     6461.00000
    47.1966     6200.00000
    47.2097     6402.00000
    47.2228     6339.00000
    47.2359     6341.00000
    47.2491     6342.00000
    47.2622     6312.00000
    47.2753     6265.00000
    47.2885     6339.00000
    47.3016     6462.00000
    47.3147     6459.00000
    47.3279     6498.00000
    47.3410     6309.00000
    47.3541     6461.00000
    47.3673     6462.00000
    47.3804     6471.00000
    47.3935     6640.00000
    47.4066     6283.00000
    47.4198     6503.00000
    47.4329     6602.00000
    47.4460     6779.00000
    47.4592     6715.00000
    47.4723     6510.00000
    47.4854     6551.00000
    47.4986     6614.00000
    47.5117     6609.00000
    47.5248     6646.00000
    47.5379     6957.00000
    47.5511     7022.00000
    47.5642     7091.00000
    47.5773     7396.00000
    47.5905     7897.00000
    47.6036     8780.00000
    47.6167     9769.00000
    47.6299    11668.00000
    47.6430    13621.00000
    47.6561    14950.00000
    47.6692    14711.00000
    47.6824    13186.00000
    47.6955    11545.00000
    47.7086    10299.00000
    47.7218     9444.00000
    47.7349     8941.00000
    47.7480     9447.00000
    47.7612    10157.00000
    47.7743    10643.00000
    47.7874    10874.00000
    47.8005    10388.00000
    47.8137     9576.00000
    47.8268     8645.00000
    47.8399     8156.00000
    47.8531     7588.00000
    47.8662     7347.00000
    47.8793     7311.00000
    47.8925     7124.00000
    47.9056     7011.00000
    47.9187     7012.00000
    47.9319     6848.00000
    47.9450     6757.00000
    47.9581     6784.00000
    47.9712     6871.00000
    47.9844     6805.00000
    47.9975     6624.00000
    48.0106     6718.00000
    48.0238     6770.00000
    48.0369     6798.00000
    48.0500     6763.00000
    48.0632     6804.00000
    48.0763     6894.00000
    48.0894     6943.00000
    48.1025     6879.00000
    48.1157     6908.00000
    48.1288     6849.00000
    48.1419     7025.00000
    48.1551     6962.00000
    48.1682     6933.00000
    48.1813     7085.00000
    48.1945     7288.00000
    48.2076     7614.00000
    48.2207     7659.00000
    48.2338     7920.00000
    48.2470     8167.00000
    48.2601     8899.00000
    48.2732     9577.00000
    48.2864    10601.00000
    48.2995    11838.00000
    48.3126    13591.00000
    48.3258    15448.00000
    48.3389    16787.00000
    48.3520    17563.00000
    48.3652    17916.00000
    48.3783    16603.00000
    48.3914    15170.00000
    48.4045    13677.00000
    48.4177    12852.00000
    48.4308    12095.00000
    48.4439    12233.00000
    48.4571    12446.00000
    48.4702    12828.00000
    48.4833    12854.00000
    48.4965    12567.00000
    48.5096    11572.00000
    48.5227    10534.00000
    48.5358     9785.00000
    48.5490     8819.00000
    48.5621     8382.00000
    48.5752     7787.00000
    48.5884     7355.00000
    48.6015     7300.00000
    48.6146     7163.00000
    48.6278     7113.00000
    48.6409     6879.00000
    48.6540     6901.00000
    48.6671     6857.00000
    48.6803     6903.00000
    48.6934     6965.00000
    48.7065     6900.00000
    48.7197     7019.00000
    48.7328     7284.00000
    48.7459     7434.00000
    48.7591     7696.00000
    48.7722     8027.00000
    48.7853     7977.00000
    48.7985     8020.00000
    48.8116     7848.00000
    48.8247     7738.00000
    48.8378     7727.00000
    48.8510     7801.00000
    48.8641     7803.00000
    48.8772     7809.00000
    48.8904     7968.00000
    48.9035     7926.00000
    48.9166     7728.00000
    48.9298     7674.00000
    48.9429     7390.00000
    48.9560     7206.00000
    48.9691     7052.00000
    48.9823     7115.00000
    48.9954     7049.00000
    49.0085     7124.00000
    49.0217     6902.00000
    49.0348     6762.00000
    49.0479     6809.00000
    49.0611     6953.00000
    49.0742     6850.00000
    49.0873     6702.00000
    49.1004     6573.00000
    49.1136     6666.00000
    49.1267     6655.00000
    49.1398     6695.00000
    49.1530     6731.00000
    49.1661     6845.00000
    49.1792     6949.00000
    49.1924     6842.00000
    49.2055     6971.00000
    49.2186     7052.00000
    49.2318     7146.00000
    49.2449     7163.00000
    49.2580     7312.00000
    49.2711     7477.00000
    49.2843     7635.00000
    49.2974     7945.00000
    49.3105     8298.00000
    49.3237     8716.00000
    49.3368     9504.00000
    49.3499    11202.00000
    49.3631    12666.00000
    49.3762    14534.00000
    49.3893    15650.00000
    49.4024    16115.00000
    49.4156    15757.00000
    49.4287    14664.00000
    49.4418    13697.00000
    49.4550    12825.00000
    49.4681    12600.00000
    49.4812    12886.00000
    49.4944    13790.00000
    49.5075    14322.00000
    49.5206    14717.00000
    49.5337    13859.00000
    49.5469    12943.00000
    49.5600    11646.00000
    49.5731    10527.00000
    49.5863     9802.00000
    49.5994     9546.00000
    49.6125     8995.00000
    49.6257     9014.00000
    49.6388     8899.00000
    49.6519     8814.00000
    49.6651     8196.00000
    49.6782     7720.00000
    49.6913     7502.00000
    49.7044     7037.00000
    49.7176     7102.00000
    49.7307     6954.00000
    49.7438     6991.00000
    49.7570     6824.00000
    49.7701     7033.00000
    49.7832     7059.00000
    49.7964     6774.00000
    49.8095     6874.00000
    49.8226     6903.00000
    49.8357     6879.00000
    49.8489     7077.00000
    49.8620     7061.00000
    49.8751     7018.00000
    49.8883     7209.00000
    49.9014     7160.00000
    49.9145     7302.00000
    49.9277     7447.00000
    49.9408     7705.00000
    49.9539     8173.00000
    49.9670     8487.00000
    49.9802     9447.00000
    49.9933    10657.00000
    50.0064    12457.00000
    50.0196    14692.00000
    50.0327    17164.00000
    50.0458    18996.00000
    50.0590    19262.00000
    50.0721    18097.00000
    50.0852    16196.00000
    50.0984    14205.00000
    50.1115    12262.00000
    50.1246    11475.00000
    50.1377    11273.00000
    50.1509    11802.00000
    50.1640    12485.00000
    50.1771    13385.00000
    50.1903    13445.00000
    50.2034    12622.00000
    50.2165    11618.00000
    50.2297    10504.00000
    50.2428     9226.00000
    50.2559     8408.00000
    50.2690     7868.00000
    50.2822     7453.00000
    50.2953     7058.00000
    50.3084     7033.00000
    50.3216     6981.00000
    50.3347     6867.00000
    50.3478     6740.00000
    50.3610     6776.00000
    50.3741     6895.00000
    50.3872     6676.00000
    50.4003     6616.00000
    50.4135     6573.00000
    50.4266     6601.00000
    50.4397     6534.00000
    50.4529     6643.00000
    50.4660     6521.00000
    50.4791     6567.00000
    50.4923     6823.00000
    50.5054     6610.00000
    50.5185     6631.00000
    50.5317     6661.00000
    50.5448     6568.00000
    50.5579     6622.00000
    50.5710     6508.00000
    50.5842     6616.00000
    50.5973     6530.00000
    50.6104     6598.00000
    50.6236     6623.00000
    50.6367     6852.00000
    50.6498     7125.00000
    50.6630     7141.00000
    50.6761     7577.00000
    50.6892     7916.00000
    50.7023     8547.00000
    50.7155     9045.00000
    50.7286     9192.00000
    50.7417     8879.00000
    50.7549     8383.00000
    50.7680     8060.00000
    50.7811     7804.00000
    50.7943     7460.00000
    50.8074     7537.00000
    50.8205     7584.00000
    50.8336     7877.00000
    50.8468     8119.00000
    50.8599     8263.00000
    50.8730     8149.00000
    50.8862     8269.00000
    50.8993     8224.00000
    50.9124     8499.00000
    50.9256     8573.00000
    50.9387     8805.00000
    50.9518     9254.00000
    50.9649     9114.00000
    50.9781     8811.00000
    50.9912     8407.00000
    51.0043     8332.00000
    51.0175     7850.00000
    51.0306     7636.00000
    51.0437     7645.00000
    51.0569     7601.00000
    51.0700     7610.00000
    51.0831     7764.00000
    51.0963     7892.00000
    51.1094     7920.00000
    51.1225     7654.00000
    51.1356     7398.00000
    51.1488     7192.00000
    51.1619     7122.00000
    51.1750     6917.00000
    51.1882     6797.00000
    51.2013     6697.00000
    51.2144     6605.00000
    51.2276     6616.00000
    51.2407     6542.00000
    51.2538     6613.00000
    51.2669     6353.00000
    51.2801     6510.00000
    51.2932     6597.00000
    51.3063     6535.00000
    51.3195     6357.00000
    51.3326     6490.00000
    51.3457     6387.00000
    51.3589     6487.00000
    51.3720     6437.00000
    51.3851     6445.00000
    51.3982     6441.00000
    51.4114     6370.00000
    51.4245     6643.00000
    51.4376     6589.00000
    51.4508     6474.00000
    51.4639     6343.00000
    51.4770     6576.00000
    51.4902     6335.00000
    51.5033     6496.00000
    51.5164     6308.00000
    51.5296     6493.00000
    51.5427     6565.00000
    51.5558     6526.00000
    51.5689     6497.00000
    51.5821     6474.00000
    51.5952     6407.00000
    51.6083     6540.00000
    51.6215     6776.00000
    51.6346     6580.00000
    51.6477     6643.00000
    51.6609     6723.00000
    51.6740     6787.00000
    51.6871     7038.00000
    51.7002     7301.00000
    51.7134     7733.00000
    51.7265     8428.00000
    51.7396     9573.00000
    51.7528    11234.00000
    51.7659    13012.00000
    51.7790    14281.00000
    51.7922    14073.00000
    51.8053    12415.00000
    51.8184    11057.00000
    51.8315     9618.00000
    51.8447     9149.00000
    51.8578     8835.00000
    51.8709     8884.00000
    51.8841     9886.00000
    51.8972    10892.00000
    51.9103    12050.00000
    51.9235    12357.00000
    51.9366    11943.00000
    51.9497    10679.00000
    51.9628     9775.00000
    51.9760     8890.00000
    51.9891     8147.00000
    52.0022     7978.00000
    52.0154     8077.00000
    52.0285     8046.00000
    52.0416     8313.00000
    52.0548     8527.00000
    52.0679     8641.00000
    52.0810     8455.00000
    52.0942     7957.00000
    52.1073     7905.00000
    52.1204     7194.00000
    52.1335     6968.00000
    52.1467     7073.00000
    52.1598     6831.00000
    52.1729     6860.00000
    52.1861     7130.00000
    52.1992     7064.00000
    52.2123     6883.00000
    52.2255     6987.00000
    52.2386     6811.00000
    52.2517     6937.00000
    52.2648     6625.00000
    52.2780     6470.00000
    52.2911     6363.00000
    52.3042     6299.00000
    52.3174     6323.00000
    52.3305     6454.00000
    52.3436     6438.00000
    52.3568     6454.00000
    52.3699     6527.00000
    52.3830     6351.00000
    52.3961     6357.00000
    52.4093     6399.00000
    52.4224     6558.00000
    52.4355     6326.00000
    52.4487     6266.00000
    52.4618     6402.00000
    52.4749     6476.00000
    52.4881     6233.00000
    52.5012     6418.00000
    52.5143     6333.00000
    52.5275     6349.00000
    52.5406     6237.00000
    52.5537     6330.00000
    52.5668     6288.00000
    52.5800     6500.00000
    52.5931     6451.00000
    52.6062     6410.00000
    52.6194     6752.00000
    52.6325     6776.00000
    52.6456     6795.00000
    52.6588     6997.00000
    52.6719     7638.00000
    52.6850     8179.00000
    52.6981     8036.00000
    52.7113     7997.00000
    52.7244     7542.00000
    52.7375     7035.00000
    52.7507     6729.00000
    52.7638     6614.00000
    52.7769     6624.00000
    52.7901     6623.00000
    52.8032     6699.00000
    52.8163     7045.00000
    52.8294     7244.00000
    52.8426     7233.00000
    52.8557     7053.00000
    52.8688     6893.00000
    52.8820     6598.00000
    52.8951     6707.00000
    52.9082     6563.00000
    52.9214     6392.00000
    52.9345     6342.00000
    52.9476     6415.00000
    52.9608     6549.00000
    52.9739     6316.00000
    52.9870     6291.00000
    53.0001     6464.00000
    53.0133     6403.00000
    53.0264     6326.00000
    53.0395     6476.00000
    53.0527     6331.00000
    53.0658     6146.00000
    53.0789     6201.00000
    53.0921     6262.00000
    53.1052     6263.00000
    53.1183     6236.00000
    53.1314     6250.00000
    53.1446     6328.00000
    53.1577     6331.00000
    53.1708     6362.00000
    53.1840     6281.00000
    53.1971     6075.00000
    53.2102     6142.00000
    53.2234     6275.00000
    53.2365     6096.00000
    53.2496     6245.00000
    53.2627     6309.00000
    53.2759     6227.00000
    53.2890     6136.00000
    53.3021     6278.00000
    53.3153     6211.00000
    53.3284     6264.00000
    53.3415     6206.00000
    53.3547     6477.00000
    53.3678     6216.00000
    53.3809     6354.00000
    53.3941     6423.00000
    53.4072     6393.00000
    53.4203     6462.00000
    53.4334     6521.00000
    53.4466     6491.00000
    53.4597     6257.00000
    53.4728     6453.00000
    53.4860     6410.00000
    53.4991     6266.00000
    53.5122     6303.00000
    53.5254     6371.00000
    53.5385     6319.00000
    53.5516     6295.00000
    53.5647     6430.00000
    53.5779     6368.00000
    53.5910     6273.00000
    53.6041     6252.00000
    53.6173     6261.00000
    53.6304     6345.00000
    53.6435     6155.00000
    53.6567     6105.00000
    53.6698     6300.00000
    53.6829     6188.00000
    53.6960     6226.00000
    53.7092     6265.00000
    53.7223     6270.00000
    53.7354     6162.00000
    53.7486     6248.00000
    53.7617     6360.00000
    53.7748     6324.00000
    53.7880     6209.00000
    53.8011     6470.00000
    53.8142     6462.00000
    53.8274     6295.00000
    53.8405     6228.00000
    53.8536     6164.00000
    53.8667     6160.00000
    53.8799     6132.00000
    53.8930     6204.00000
    53.9061     6354.00000
    53.9193     6144.00000
    53.9324     6267.00000
    53.9455     6206.00000
    53.9587     6372.00000
    53.9718     6233.00000
    53.9849     6233.00000
    53.9980     6473.00000
    54.0112     6453.00000
    54.0243     6329.00000
    54.0374     6431.00000
    54.0506     6406.00000
    54.0637     6553.00000
    54.0768     6296.00000
    54.0900     6373.00000
    54.1031     6360.00000
    54.1162     6284.00000
    54.1293     6429.00000
    54.1425     6210.00000
    54.1556     6401.00000
    54.1687     6362.00000
    54.1819     6279.00000
    54.1950     6275.00000
    54.2081     6330.00000
    54.2213     6409.00000
    54.2344     6177.00000
    54.2475     6406.00000
    54.2607     6270.00000
    54.2738     6297.00000
    54.2869     6331.00000
    54.3000     6273.00000
    54.3132     6329.00000
    54.3263     6154.00000
    54.3394     6062.00000
    54.3526     6029.00000
    54.3657     6188.00000
    54.3788     6273.00000
    54.3920     6242.00000
    54.4051     6367.00000
    54.4182     6066.00000
    54.4313     6164.00000
    54.4445     6151.00000
    54.4576     6221.00000
    54.4707     6218.00000
    54.4839     6093.00000
    54.4970     6208.00000
    54.5101     6344.00000
    54.5233     6163.00000
    54.5364     6179.00000
    54.5495     6318.00000
    54.5626     6237.00000
    54.5758     6121.00000
    54.5889     6198.00000
    54.6020     5983.00000
    54.6152     6223.00000
    54.6283     6287.00000
    54.6414     6261.00000
    54.6546     6141.00000
    54.6677     6285.00000
    54.6808     6202.00000
    54.6940     6293.00000
    54.7071     6155.00000
    54.7202     6126.00000
    54.7333     6226.00000
    54.7465     6170.00000
    54.7596     6124.00000
    54.7727     6427.00000
    54.7859     6218.00000
    54.7990     6311.00000
    54.8121     6225.00000
    54.8253     6209.00000
    54.8384     6176.00000
    54.8515     6353.00000
    54.8646     6325.00000
    54.8778     6213.00000
    54.8909     6179.00000
    54.9040     6192.00000
    54.9172     6110.00000
    54.9303     6225.00000
    54.9434     6301.00000
    54.9566     6255.00000
    54.9697     6303.00000
    54.9828     6345.00000
    54.9959     6275.00000
    55.0091     6364.00000
    55.0222     6312.00000
    55.0353     6172.00000
    55.0485     6154.00000
    55.0616     6262.00000
    55.0747     6190.00000
    55.0879     6112.00000
    55.1010     6445.00000
    55.1141     6314.00000
    55.1272     6173.00000
    55.1404     6218.00000
    55.1535     6355.00000
    55.1666     6231.00000
    55.1798     6193.00000
    55.1929     6208.00000
    55.2060     6344.00000
    55.2192     6337.00000
    55.2323     6355.00000
    55.2454     6309.00000
    55.2586     6187.00000
    55.2717     6229.00000
    55.2848     6227.00000
    55.2979     6166.00000
    55.3111     6379.00000
    55.3242     6216.00000
    55.3373     6280.00000
    55.3505     6229.00000
    55.3636     6149.00000
    55.3767     6227.00000
    55.3899     6412.00000
    55.4030     6202.00000
    55.4161     6323.00000
    55.4292     6526.00000
    55.4424     6322.00000
    55.4555     6386.00000
    55.4686     6658.00000
    55.4818     6705.00000
    55.4949     6992.00000
    55.5080     7195.00000
    55.5212     7706.00000
    55.5343     8003.00000
    55.5474     8213.00000
    55.5605     8152.00000
    55.5737     7915.00000
    55.5868     7558.00000
    55.5999     7251.00000
    55.6131     6984.00000
    55.6262     6842.00000
    55.6393     6842.00000
    55.6525     6869.00000
    55.6656     7055.00000
    55.6787     7255.00000
    55.6918     7269.00000
    55.7050     7371.00000
    55.7181     7273.00000
    55.7312     7108.00000
    55.7444     6918.00000
    55.7575     6967.00000
    55.7706     6749.00000
    55.7838     6759.00000
    55.7969     6616.00000
    55.8100     6615.00000
    55.8232     6808.00000
    55.8363     6791.00000
    55.8494     6825.00000
    55.8625     6878.00000
    55.8757     6895.00000
    55.8888     7457.00000
    55.9019     7370.00000
    55.9151     7638.00000
    55.9282     7978.00000
    55.9413     8376.00000
    55.9545     8712.00000
    55.9676     9286.00000
    55.9807    10026.00000
    55.9938    10786.00000
    56.0070    11554.00000
    56.0201    12377.00000
    56.0332    12547.00000
    56.0464    12077.00000
    56.0595    11651.00000
    56.0726    10547.00000
    56.0858     9845.00000
    56.0989     9324.00000
    56.1120     9151.00000
    56.1251     8869.00000
    56.1383     9054.00000
    56.1514     9139.00000
    56.1645     9423.00000
    56.1777     9560.00000
    56.1908     9409.00000
    56.2039     9004.00000
    56.2171     8534.00000
    56.2302     8442.00000
    56.2433     7752.00000
    56.2565     7449.00000
    56.2696     7269.00000
    56.2827     7237.00000
    56.2958     7273.00000
    56.3090     7264.00000
    56.3221     7188.00000
    56.3352     7292.00000
    56.3484     7175.00000
    56.3615     7198.00000
    56.3746     7156.00000
    56.3878     6875.00000
    56.4009     6813.00000
    56.4140     6712.00000
    56.4271     6769.00000
    56.4403     6840.00000
    56.4534     6728.00000
    56.4665     6805.00000
    56.4797     7088.00000
    56.4928     7147.00000
    56.5059     7125.00000
    56.5191     7573.00000
    56.5322     7867.00000
    56.5453     8614.00000
    56.5584     9070.00000
    56.5716     9786.00000
    56.5847     9664.00000
    56.5978     9375.00000
    56.6110     8764.00000
    56.6241     8091.00000
    56.6372     7423.00000
    56.6504     7366.00000
    56.6635     7366.00000
    56.6766     7357.00000
    56.6898     7612.00000
    56.7029     7754.00000
    56.7160     8162.00000
    56.7291     8316.00000
    56.7423     8391.00000
    56.7554     8247.00000
    56.7685     7996.00000
    56.7817     7570.00000
    56.7948     7394.00000
    56.8079     7272.00000
    56.8211     7578.00000
    56.8342     7834.00000
    56.8473     8042.00000
    56.8604     8745.00000
    56.8736     9478.00000
    56.8867    10077.00000
    56.8998    10345.00000
    56.9130    10466.00000
    56.9261    10022.00000
    56.9392     9211.00000
    56.9524     8489.00000
    56.9655     7857.00000
    56.9786     7655.00000
    56.9917     7483.00000
    57.0049     7711.00000
    57.0180     8013.00000
    57.0311     8225.00000
    57.0443     8373.00000
    57.0574     8380.00000
    57.0705     8289.00000
    57.0837     8165.00000
    57.0968     7843.00000
    57.1099     7310.00000
    57.1231     7340.00000
    57.1362     7060.00000
    57.1493     7019.00000
    57.1624     7118.00000
    57.1756     7170.00000
    57.1887     7095.00000
    57.2018     7253.00000
    57.2150     7019.00000
    57.2281     6866.00000
    57.2412     6958.00000
    57.2544     6852.00000
    57.2675     6761.00000
    57.2806     6714.00000
    57.2937     6582.00000
    57.3069     6613.00000
    57.3200     6734.00000
    57.3331     6718.00000
    57.3463     6830.00000
    57.3594     6617.00000
    57.3725     6574.00000
    57.3857     6463.00000
    57.3988     6480.00000
    57.4119     6531.00000
    57.4250     6541.00000
    57.4382     6538.00000
    57.4513     6540.00000
    57.4644     6445.00000
    57.4776     6416.00000
    57.4907     6384.00000
    57.5038     6381.00000
    57.5170     6307.00000
    57.5301     6238.00000
    57.5432     6168.00000
    57.5564     6210.00000
    57.5695     6400.00000
    57.5826     6317.00000
    57.5957     6371.00000
    57.6089     6344.00000
    57.6220     6388.00000
    57.6351     6543.00000
    57.6483     6571.00000
    57.6614     6357.00000
    57.6745     6300.00000
    57.6877     6293.00000
    57.7008     6238.00000
    57.7139     6332.00000
    57.7270     6592.00000
    57.7402     6263.00000
    57.7533     6382.00000
    57.7664     6479.00000
    57.7796     6540.00000
    57.7927     6472.00000
    57.8058     6503.00000
    57.8190     6535.00000
    57.8321     6564.00000
    57.8452     6478.00000
    57.8583     6794.00000
    57.8715     6988.00000
    57.8846     7138.00000
    57.8977     7230.00000
    57.9109     7564.00000
    57.9240     7740.00000
    57.9371     7876.00000
    57.9503     8139.00000
    57.9634     8533.00000
    57.9765     8830.00000
    57.9897     9377.00000
    58.0028    10008.00000
    58.0159    10438.00000
    58.0290    10960.00000
    58.0422    11399.00000
    58.0553    11336.00000
    58.0684    11250.00000
    58.0816    11074.00000
    58.0947    10839.00000
    58.1078    10371.00000
    58.1210     9808.00000
    58.1341     9426.00000
    58.1472     9301.00000
    58.1603     9171.00000
    58.1735     8750.00000
    58.1866     8820.00000
    58.1997     8921.00000
    58.2129     9121.00000
    58.2260     8980.00000
    58.2391     8673.00000
    58.2523     8400.00000
    58.2654     8155.00000
    58.2785     7948.00000
    58.2916     7396.00000
    58.3048     7093.00000
    58.3179     6961.00000
    58.3310     6799.00000
    58.3442     6918.00000
    58.3573     6675.00000
    58.3704     6548.00000
    58.3836     6493.00000
    58.3967     6501.00000
    58.4098     6345.00000
    58.4230     6390.00000
    58.4361     6351.00000
    58.4492     6344.00000
    58.4623     6380.00000
    58.4755     6370.00000
    58.4886     6359.00000
    58.5017     6242.00000
    58.5149     6296.00000
    58.5280     6230.00000
    58.5411     6404.00000
    58.5543     6426.00000
    58.5674     6272.00000
    58.5805     6168.00000
    58.5936     6136.00000
    58.6068     6321.00000
    58.6199     6267.00000
    58.6330     6438.00000
    58.6462     6522.00000
    58.6593     6410.00000
    58.6724     6372.00000
    58.6856     6455.00000
    58.6987     6419.00000
    58.7118     6482.00000
    58.7249     6444.00000
    58.7381     6594.00000
    58.7512     6738.00000
    58.7643     6784.00000
    58.7775     6942.00000
    58.7906     6957.00000
    58.8037     7073.00000
    58.8169     7064.00000
    58.8300     7244.00000
    58.8431     7313.00000
    58.8562     7346.00000
    58.8694     7411.00000
    58.8825     7552.00000
    58.8956     7512.00000
    58.9088     7548.00000
    58.9219     7546.00000
    58.9350     7482.00000
    58.9482     7667.00000
    58.9613     7872.00000
    58.9744     7997.00000
    58.9876     8428.00000
    59.0007     8738.00000
    59.0138     9128.00000
    59.0269     9795.00000
    59.0401     9602.00000
    59.0532     9540.00000
    59.0663     9102.00000
    59.0795     8579.00000
    59.0926     8289.00000
    59.1057     8019.00000
    59.1189     8045.00000
    59.1320     8293.00000
    59.1451     8503.00000
    59.1582     9242.00000
    59.1714     9618.00000
    59.1845    10863.00000
    59.1976    11307.00000
    59.2108    12083.00000
    59.2239    12158.00000
    59.2370    11985.00000
    59.2502    11278.00000
    59.2633    10547.00000
    59.2764     9978.00000
    59.2895     9043.00000
    59.3027     8699.00000
    59.3158     8189.00000
    59.3289     8395.00000
    59.3421     8520.00000
    59.3552     8883.00000
    59.3683     9049.00000
    59.3815     9244.00000
    59.3946     9299.00000
    59.4077     9225.00000
    59.4208     8979.00000
    59.4340     8805.00000
    59.4471     8663.00000
    59.4602     8816.00000
    59.4734     8685.00000
    59.4865     9345.00000
    59.4996     9586.00000
    59.5128     9959.00000
    59.5259     9907.00000
    59.5390     9659.00000
    59.5522     9232.00000
    59.5653     8688.00000
    59.5784     8347.00000
    59.5915     7787.00000
    59.6047     7685.00000
    59.6178     7501.00000
    59.6309     7579.00000
    59.6441     7734.00000
    59.6572     7936.00000
    59.6703     8221.00000
    59.6835     8270.00000
    59.6966     7993.00000
    59.7097     7774.00000
    59.7228     7594.00000
    59.7360     7342.00000
    59.7491     6998.00000
    59.7622     6650.00000
    59.7754     6615.00000
    59.7885     6592.00000
    59.8016     6666.00000
    59.8148     6547.00000
    59.8279     6441.00000
    59.8410     6609.00000
    59.8541     6564.00000
    59.8673     6523.00000
    59.8804     6572.00000
    59.8935     6433.00000
    59.9067     6437.00000
    59.9198     6515.00000
    59.9329     6437.00000
    59.9461     6501.00000
    59.9592     6573.00000
    59.9723     6485.00000
    59.9855     6680.00000
    59.9986     6861.00000
    60.0117     6822.00000
    60.0248     7015.00000
    60.0380     7455.00000
    60.0511     7641.00000
    60.0642     8108.00000
    60.0774     8915.00000
    60.0905     9750.00000
    60.1036    10980.00000
    60.1168    11869.00000
    60.1299    12579.00000
    60.1430    12480.00000
    60.1561    11651.00000
    60.1693    10704.00000
    60.1824     9634.00000
    60.1955     8748.00000
    60.2087     8237.00000
    60.2218     7814.00000
    60.2349     8034.00000
    60.2481     8029.00000
    60.2612     8700.00000
    60.2743     9085.00000
    60.2874     9188.00000
    60.3006     9529.00000
    60.3137     9292.00000
    60.3268     8780.00000
    60.3400     8207.00000
    60.3531     7778.00000
    60.3662     7395.00000
    60.3794     7051.00000
    60.3925     6677.00000
    60.4056     6653.00000
    60.4188     6597.00000
    60.4319     6585.00000
    60.4450     6421.00000
    60.4581     6376.00000
    60.4713     6395.00000
    60.4844     6424.00000
    60.4975     6402.00000
    60.5107     6417.00000
    60.5238     6280.00000
    60.5369     6164.00000
    60.5501     6244.00000
    60.5632     6260.00000
    60.5763     6375.00000
    60.5894     6193.00000
    60.6026     6350.00000
    60.6157     6272.00000
    60.6288     6340.00000
    60.6420     6309.00000
    60.6551     6293.00000
    60.6682     6259.00000
    60.6814     6415.00000
    60.6945     6404.00000
    60.7076     6492.00000
    60.7207     6661.00000
    60.7339     6756.00000
    60.7470     7002.00000
    60.7601     7260.00000
    60.7733     7711.00000
    60.7864     8014.00000
    60.7995     8429.00000
    60.8127     8783.00000
    60.8258     9105.00000
    60.8389     8956.00000
    60.8521     8359.00000
    60.8652     8070.00000
    60.8783     7362.00000
    60.8914     7305.00000
    60.9046     7131.00000
    60.9177     7177.00000
    60.9308     7147.00000
    60.9440     7471.00000
    60.9571     7594.00000
    60.9702     8090.00000
    60.9834     8034.00000
    60.9965     7910.00000
    61.0096     7681.00000
    61.0227     7382.00000
    61.0359     7256.00000
    61.0490     6952.00000
    61.0621     6773.00000
    61.0753     6388.00000
    61.0884     6528.00000
    61.1015     6521.00000
    61.1147     6396.00000
    61.1278     6499.00000
    61.1409     6413.00000
    61.1540     6516.00000
    61.1672     6535.00000
    61.1803     6720.00000
    61.1934     6653.00000
    61.2066     6521.00000
    61.2197     6492.00000
    61.2328     6421.00000
    61.2460     6250.00000
    61.2591     6340.00000
    61.2722     6405.00000
    61.2854     6668.00000
    61.2985     6573.00000
    61.3116     6455.00000
    61.3247     6759.00000
    61.3379     6750.00000
    61.3510     6745.00000
    61.3641     6751.00000
    61.3773     7004.00000
    61.3904     7107.00000
    61.4035     7228.00000
    61.4167     7610.00000
    61.4298     7854.00000
    61.4429     8631.00000
    61.4560     9281.00000
    61.4692    10308.00000
    61.4823    11153.00000
    61.4954    11885.00000
    61.5086    12377.00000
    61.5217    12637.00000
    61.5348    12713.00000
    61.5480    12289.00000
    61.5611    11953.00000
    61.5742    11425.00000
    61.5873    11016.00000
    61.6005    10391.00000
    61.6136    10273.00000
    61.6267    10207.00000
    61.6399    10270.00000
    61.6530    10453.00000
    61.6661    10865.00000
    61.6793    11264.00000
    61.6924    10996.00000
    61.7055    11172.00000
    61.7187    10924.00000
    61.7318    10425.00000
    61.7449     9810.00000
    61.7580     9112.00000
    61.7712     8418.00000
    61.7843     8092.00000
    61.7974     7815.00000
    61.8106     7483.00000
    61.8237     7206.00000
    61.8368     7238.00000
    61.8500     6920.00000
    61.8631     7330.00000
    61.8762     7187.00000
    61.8893     7188.00000
    61.9025     7046.00000
    61.9156     6720.00000
    61.9287     6749.00000
    61.9419     6511.00000
    61.9550     6517.00000
    61.9681     6444.00000
    61.9813     6522.00000
    61.9944     6352.00000
    62.0075     6139.00000
    62.0206     6271.00000
    62.0338     6154.00000
    62.0469     6199.00000
    62.0600     6041.00000
    62.0732     6046.00000
    62.0863     6167.00000
    62.0994     6131.00000
    62.1126     6134.00000
    62.1257     6197.00000
    62.1388     6102.00000
    62.1520     6269.00000
    62.1651     6178.00000
    62.1782     5974.00000
    62.1913     5964.00000
    62.2045     5982.00000
    62.2176     6027.00000
    62.2307     5999.00000
    62.2439     6095.00000
    62.2570     6186.00000
    62.2701     6118.00000
    62.2833     6206.00000
    62.2964     6035.00000
    62.3095     6051.00000
    62.3226     5933.00000
    62.3358     6027.00000
    62.3489     6118.00000
    62.3620     6168.00000
    62.3752     5880.00000
    62.3883     6008.00000
    62.4014     6204.00000
    62.4146     6168.00000
    62.4277     6077.00000
    62.4408     5982.00000
    62.4539     6047.00000
    62.4671     6366.00000
    62.4802     6156.00000
    62.4933     5974.00000
    62.5065     5905.00000
    62.5196     6111.00000
    62.5327     6024.00000
    62.5459     5975.00000
    62.5590     5996.00000
    62.5721     6171.00000
    62.5852     6103.00000
    62.5984     6178.00000
    62.6115     6055.00000
    62.6246     5970.00000
    62.6378     6226.00000
    62.6509     5995.00000
    62.6640     6000.00000
    62.6772     5948.00000
    62.6903     6058.00000
    62.7034     6022.00000
    62.7166     6023.00000
    62.7297     6017.00000
    62.7428     6043.00000
    62.7559     6059.00000
    62.7691     5885.00000
    62.7822     6224.00000
    62.7953     6138.00000
    62.8085     6077.00000
    62.8216     6008.00000
    62.8347     5899.00000
    62.8479     6027.00000
    62.8610     6136.00000
    62.8741     6154.00000
    62.8872     5809.00000
    62.9004     6169.00000
    62.9135     6061.00000
    62.9266     6123.00000
    62.9398     6077.00000
    62.9529     6209.00000
    62.9660     6031.00000
    62.9792     5987.00000
    62.9923     6156.00000
    63.0054     6023.00000
    63.0185     6073.00000
    63.0317     6033.00000
    63.0448     6014.00000
    63.0579     6077.00000
    63.0711     6132.00000
    63.0842     6093.00000
    63.0973     5988.00000
    63.1105     5983.00000
    63.1236     5965.00000
    63.1367     5922.00000
    63.1499     5944.00000
    63.1630     6126.00000
    63.1761     6104.00000
    63.1892     5972.00000
    63.2024     5932.00000
    63.2155     6007.00000
    63.2286     6054.00000
    63.2418     6108.00000
    63.2549     6205.00000
    63.2680     6264.00000
    63.2812     6259.00000
    63.2943     5986.00000
    63.3074     6081.00000
    63.3205     6109.00000
    63.3337     6085.00000
    63.3468     6092.00000
    63.3599     6179.00000
    63.3731     6236.00000
    63.3862     6164.00000
    63.3993     6207.00000
    63.4125     6196.00000
    63.4256     6508.00000
    63.4387     6189.00000
    63.4518     6405.00000
    63.4650     6238.00000
    63.4781     6363.00000
    63.4912     6504.00000
    63.5044     6666.00000
    63.5175     6724.00000
    63.5306     6850.00000
    63.5438     7161.00000
    63.5569     7356.00000
    63.5700     7679.00000
    63.5831     8286.00000
    63.5963     8802.00000
    63.6094     9085.00000
    63.6225     9343.00000
    63.6357     9028.00000
    63.6488     8706.00000
    63.6619     7955.00000
    63.6751     7633.00000
    63.6882     7280.00000
    63.7013     7058.00000
    63.7145     6851.00000
    63.7276     7082.00000
    63.7407     7219.00000
    63.7538     7247.00000
    63.7670     7400.00000
    63.7801     7707.00000
    63.7932     7784.00000
    63.8064     7761.00000
    63.8195     7621.00000
    63.8326     7004.00000
    63.8458     6768.00000
    63.8589     6753.00000
    63.8720     6759.00000
    63.8851     6605.00000
    63.8983     6412.00000
    63.9114     6293.00000
    63.9245     6492.00000
    63.9377     6207.00000
    63.9508     6263.00000
    63.9639     6413.00000
    63.9771     6345.00000
    63.9902     6106.00000
    64.0033     6127.00000
    64.0164     6027.00000
    64.0296     6151.00000
    64.0427     6120.00000
    64.0558     6289.00000
    64.0690     6271.00000
    64.0821     6197.00000
    64.0952     6190.00000
    64.1084     6089.00000
    64.1215     6121.00000
    64.1346     6107.00000
    64.1478     6251.00000
    64.1609     6010.00000
    64.1740     6096.00000
    64.1871     6102.00000
    64.2003     6040.00000
    64.2134     5904.00000
    64.2265     6135.00000
    64.2397     5853.00000
    64.2528     6021.00000
    64.2659     5924.00000
    64.2791     6046.00000
    64.2922     6129.00000
    64.3053     5916.00000
    64.3184     6043.00000
    64.3316     6014.00000
    64.3447     5927.00000
    64.3578     6039.00000
    64.3710     6064.00000
    64.3841     5965.00000
    64.3972     5874.00000
    64.4104     5952.00000
    64.4235     6069.00000
    64.4366     5925.00000
    64.4498     6012.00000
    64.4629     6138.00000
    64.4760     6072.00000
    64.4891     6125.00000
    64.5023     6301.00000
    64.5154     6235.00000
    64.5285     6179.00000
    64.5417     6072.00000
    64.5548     6162.00000
    64.5679     6217.00000
    64.5811     6333.00000
    64.5942     6413.00000
    64.6073     6372.00000
    64.6204     6506.00000
    64.6336     6665.00000
    64.6467     6704.00000
    64.6598     6935.00000
    64.6730     7104.00000
    64.6861     6984.00000
    64.6992     7037.00000
    64.7124     7144.00000
    64.7255     7016.00000
    64.7386     6899.00000
    64.7517     6730.00000
    64.7649     6586.00000
    64.7780     6420.00000
    64.7911     6302.00000
    64.8043     6570.00000
    64.8174     6608.00000
    64.8305     6555.00000
    64.8437     6834.00000
    64.8568     6826.00000
    64.8699     6780.00000
    64.8830     6650.00000
    64.8962     6598.00000
    64.9093     6414.00000
    64.9224     6546.00000
    64.9356     6470.00000
    64.9487     6143.00000
    64.9618     6227.00000
    64.9750     6123.00000
    64.9881     6098.00000
    65.0012     6207.00000
    65.0144     6112.00000
    65.0275     6073.00000
    65.0406     6229.00000
    65.0537     6057.00000
    65.0669     5871.00000
    65.0800     5931.00000
    65.0931     6060.00000
    65.1063     5989.00000
    65.1194     5936.00000
    65.1325     6168.00000
    65.1457     6039.00000
    65.1588     5996.00000
    65.1719     5783.00000
    65.1850     6048.00000
    65.1982     6056.00000
    65.2113     5985.00000
    65.2244     6152.00000
    65.2376     6006.00000
    65.2507     6006.00000
    65.2638     5892.00000
    65.2770     6018.00000
    65.2901     5936.00000
    65.3032     6042.00000
    65.3163     6081.00000
    65.3295     6070.00000
    65.3426     5861.00000
    65.3557     6026.00000
    65.3689     5966.00000
    65.3820     6156.00000
    65.3951     6046.00000
    65.4083     6097.00000
    65.4214     6075.00000
    65.4345     5994.00000
    65.4476     5951.00000
    65.4608     5971.00000
    65.4739     6202.00000
    65.4870     6093.00000
    65.5002     6052.00000
    65.5133     6134.00000
    65.5264     5989.00000
    65.5396     6066.00000
    65.5527     6040.00000
    65.5658     6142.00000
    65.5790     6082.00000
    65.5921     6215.00000
    65.6052     6115.00000
    65.6183     6033.00000
    65.6315     6196.00000
    65.6446     6113.00000
    65.6577     6086.00000
    65.6709     6034.00000
    65.6840     6166.00000
    65.6971     6218.00000
    65.7103     6079.00000
    65.7234     6103.00000
    65.7365     6153.00000
    65.7496     6073.00000
    65.7628     6168.00000
    65.7759     5857.00000
    65.7890     6126.00000
    65.8022     5942.00000
    65.8153     6106.00000
    65.8284     6053.00000
    65.8416     6019.00000
    65.8547     5990.00000
    65.8678     5931.00000
    65.8810     5980.00000
    65.8941     5903.00000
    65.9072     5893.00000
    65.9203     5931.00000
    65.9335     6033.00000
    65.9466     6059.00000
    65.9597     5864.00000
    65.9729     5808.00000
    65.9860     5886.00000
    65.9991     5991.00000
    66.0123     5959.00000
    66.0254     5877.00000
    66.0385     6009.00000
    66.0516     5895.00000
    66.0648     5853.00000
    66.0779     5818.00000
    66.0910     5918.00000
    66.1042     5868.00000
    66.1173     6043.00000
    66.1304     5980.00000
    66.1436     5919.00000
    66.1567     5883.00000
    66.1698     5795.00000
    66.1829     5820.00000
    66.1961     5885.00000
    66.2092     5805.00000
    66.2223     6043.00000
    66.2355     5963.00000
    66.2486     6074.00000
    66.2617     5978.00000
    66.2749     5956.00000
    66.2880     6013.00000
    66.3011     6014.00000
    66.3142     6111.00000
    66.3274     5869.00000
    66.3405     5997.00000
    66.3536     5996.00000
    66.3668     6034.00000
    66.3799     5836.00000
    66.3930     6050.00000
    66.4062     5925.00000
    66.4193     5972.00000
    66.4324     6025.00000
    66.4455     6185.00000
    66.4587     6098.00000
    66.4718     5992.00000
    66.4849     5880.00000
    66.4981     6066.00000
    66.5112     5985.00000
    66.5243     6114.00000
    66.5375     6053.00000
    66.5506     5886.00000
    66.5637     5936.00000
    66.5769     6078.00000
    66.5900     6127.00000
    66.6031     6258.00000
    66.6162     6364.00000
    66.6294     6261.00000
    66.6425     6202.00000
    66.6556     5996.00000
    66.6688     6151.00000
    66.6819     6074.00000
    66.6950     6052.00000
    66.7082     6041.00000
    66.7213     5925.00000
    66.7344     6099.00000
    66.7476     5962.00000
    66.7607     6060.00000
    66.7738     6075.00000
    66.7869     5947.00000
    66.8001     6067.00000
    66.8132     6236.00000
    66.8263     6153.00000
    66.8395     5984.00000
    66.8526     6159.00000
    66.8657     5880.00000
    66.8789     5933.00000
    66.8920     5884.00000
    66.9051     5793.00000
    66.9182     5972.00000
    66.9314     6050.00000
    66.9445     5987.00000
    66.9576     5915.00000
    66.9708     5826.00000
    66.9839     5854.00000
    66.9970     5943.00000
    67.0102     5893.00000
    67.0233     5904.00000
    67.0364     5982.00000
    67.0495     5910.00000
    67.0627     5757.00000
    67.0758     5977.00000
    67.0889     5916.00000
    67.1021     5937.00000
    67.1152     5947.00000
    67.1283     5844.00000
    67.1415     5921.00000
    67.1546     5895.00000
    67.1677     5914.00000
    67.1808     5838.00000
    67.1940     6027.00000
    67.2071     6008.00000
    67.2202     5863.00000
    67.2334     6001.00000
    67.2465     5972.00000
    67.2596     6126.00000
    67.2728     5868.00000
    67.2859     5892.00000
    67.2990     6065.00000
    67.3121     6055.00000
    67.3253     5968.00000
    67.3384     5830.00000
    67.3515     5935.00000
    67.3647     6035.00000
    67.3778     5962.00000
    67.3909     6024.00000
    67.4041     6259.00000
    67.4172     6045.00000
    67.4303     6165.00000
    67.4435     6182.00000
    67.4566     6020.00000
    67.4697     6009.00000
    67.4828     5864.00000
    67.4960     5747.00000
    67.5091     5973.00000
    67.5222     5975.00000
    67.5354     5847.00000
    67.5485     6109.00000
    67.5616     5874.00000
    67.5748     5902.00000
    67.5879     6068.00000
    67.6010     6089.00000
    67.6142     5967.00000
    67.6273     6016.00000
    67.6404     6003.00000
    67.6535     5722.00000
    67.6667     6019.00000
    67.6798     5951.00000
    67.6929     5939.00000
    67.7061     6089.00000
    67.7192     5906.00000
    67.7323     5898.00000
    67.7455     6013.00000
    67.7586     5855.00000
    67.7717     5912.00000
    67.7848     5928.00000
    67.7980     5930.00000
    67.8111     5949.00000
    67.8242     6060.00000
    67.8374     6123.00000
    67.8505     5929.00000
    67.8636     6019.00000
    67.8768     5997.00000
    67.8899     5968.00000
    67.9030     6153.00000
    67.9161     6167.00000
    67.9293     5929.00000
    67.9424     5954.00000
    67.9555     5937.00000
    67.9687     6015.00000
    67.9818     5874.00000
    67.9949     5987.00000
    68.0081     5959.00000
    68.0212     5926.00000
    68.0343     6077.00000
    68.0474     5949.00000
    68.0606     5757.00000
    68.0737     5855.00000
    68.0868     5917.00000
    68.1000     5895.00000
    68.1131     5704.00000
    68.1262     5937.00000
    68.1394     5864.00000
    68.1525     5938.00000
    68.1656     5945.00000
    68.1787     6047.00000
    68.1919     6060.00000
    68.2050     5800.00000
    68.2181     6085.00000
    68.2313     6084.00000
    68.2444     5973.00000
    68.2575     5979.00000
    68.2707     5990.00000
    68.2838     6027.00000
    68.2969     5929.00000
    68.3101     5889.00000
    68.3232     5899.00000
    68.3363     5864.00000
    68.3494     6026.00000
    68.3626     6117.00000
    68.3757     6021.00000
    68.3888     6106.00000
    68.4020     5889.00000
    68.4151     5896.00000
    68.4282     5959.00000
    68.4414     5991.00000
    68.4545     5966.00000
    68.4676     5969.00000
    68.4807     5914.00000
    68.4939     6161.00000
    68.5070     5804.00000
    68.5201     6053.00000
    68.5333     6099.00000
    68.5464     5954.00000
    68.5595     6064.00000
    68.5727     6039.00000
    68.5858     5949.00000
    68.5989     5946.00000
    68.6120     6006.00000
    68.6252     5945.00000
    68.6383     5962.00000
    68.6514     5736.00000
    68.6646     5859.00000
    68.6777     5943.00000
    68.6908     5824.00000
    68.7040     5837.00000
    68.7171     5891.00000
    68.7302     5909.00000
    68.7434     5914.00000
    68.7565     5891.00000
    68.7696     5967.00000
    68.7827     6002.00000
    68.7959     5888.00000
    68.8090     5927.00000
    68.8221     5881.00000
    68.8353     5865.00000
    68.8484     5969.00000
    68.8615     5920.00000
    68.8747     6105.00000
    68.8878     5897.00000
    68.9009     6076.00000
    68.9140     5884.00000
    68.9272     5774.00000
    68.9403     5961.00000
    68.9534     5857.00000
    68.9666     5960.00000
    68.9797     6316.00000
    68.9928     6068.00000
    69.0060     6026.00000
    69.0191     5975.00000
    69.0322     6127.00000
    69.0453     6240.00000
    69.0585     6071.00000
    69.0716     6032.00000
    69.0847     6111.00000
    69.0979     6351.00000
    69.1110     5968.00000
    69.1241     6073.00000
    69.1373     6314.00000
    69.1504     6322.00000
    69.1635     6287.00000
    69.1767     6369.00000
    69.1898     6430.00000
    69.2029     6496.00000
    69.2160     6750.00000
    69.2292     6647.00000
    69.2423     6712.00000
    69.2554     6980.00000
    69.2686     7169.00000
    69.2817     7393.00000
    69.2948     7749.00000
    69.3080     8143.00000
    69.3211     8609.00000
    69.3342     9251.00000
    69.3473     9256.00000
    69.3605     9285.00000
    69.3736     8925.00000
    69.3867     8392.00000
    69.3999     7803.00000
    69.4130     7479.00000
    69.4261     7293.00000
    69.4393     7031.00000
    69.4524     7053.00000
    69.4655     7033.00000
    69.4786     7096.00000
    69.4918     7109.00000
    69.5049     7450.00000
    69.5180     7598.00000
    69.5312     7731.00000
    69.5443     7920.00000
    69.5574     7767.00000
    69.5706     7732.00000
    69.5837     7391.00000
    69.5968     7299.00000
    69.6099     7418.00000
    69.6231     7325.00000
    69.6362     7200.00000
    69.6493     7366.00000
    69.6625     7165.00000
    69.6756     6913.00000
    69.6887     6852.00000
    69.7019     6679.00000
    69.7150     6731.00000
    69.7281     6865.00000
    69.7413     6927.00000
    69.7544     6982.00000
    69.7675     7079.00000
    69.7806     7426.00000
    69.7938     7624.00000
    69.8069     7858.00000
    69.8200     8114.00000
    69.8332     8248.00000
    69.8463     8268.00000
    69.8594     8395.00000
    69.8726     8399.00000
    69.8857     8453.00000
    69.8988     8480.00000
    69.9119     8245.00000
    69.9251     7791.00000
    69.9382     7496.00000
    69.9513     7238.00000
    69.9645     7053.00000
    69.9776     7120.00000
    69.9907     6966.00000
    70.0039     6937.00000
    70.0170     7135.00000
    70.0301     6938.00000
    70.0433     6983.00000
    70.0564     7028.00000
    70.0695     7148.00000
    70.0826     7315.00000
    70.0958     7122.00000
    70.1089     7021.00000
    70.1220     6799.00000
    70.1352     6607.00000
    70.1483     6380.00000
    70.1614     6374.00000
    70.1746     6193.00000
    70.1877     6264.00000
    70.2008     6159.00000
    70.2139     6142.00000
    70.2271     6053.00000
    70.2402     6141.00000
    70.2533     5965.00000
    70.2665     5950.00000
    70.2796     5954.00000
    70.2927     6073.00000
    70.3059     5911.00000
    70.3190     5897.00000
    70.3321     6047.00000
    70.3452     6076.00000
    70.3584     5955.00000
    70.3715     5857.00000
    70.3846     5865.00000
    70.3978     6026.00000
    70.4109     6011.00000
    70.4240     5904.00000
    70.4372     6069.00000
    70.4503     6051.00000
    70.4634     6057.00000
    70.4765     5959.00000
    70.4897     6025.00000
    70.5028     6178.00000
    70.5159     6223.00000
    70.5291     6029.00000
    70.5422     5958.00000
    70.5553     5959.00000
    70.5685     6010.00000
    70.5816     6052.00000
    70.5947     6102.00000
    70.6078     6005.00000
    70.6210     6172.00000
    70.6341     6334.00000
    70.6472     6319.00000
    70.6604     6252.00000
    70.6735     6285.00000
    70.6866     6204.00000
    70.6998     6096.00000
    70.7129     6230.00000
    70.7260     6161.00000
    70.7392     5986.00000
    70.7523     6004.00000
    70.7654     6185.00000
    70.7785     5934.00000
    70.7917     6164.00000
    70.8048     6362.00000
    70.8179     6290.00000
    70.8311     6356.00000
    70.8442     6325.00000
    70.8573     6528.00000
    70.8705     6642.00000
    70.8836     6382.00000
    70.8967     6531.00000
    70.9099     6604.00000
    70.9230     6655.00000
    70.9361     6638.00000
    70.9492     6574.00000
    70.9624     6568.00000
    70.9755     6679.00000
    70.9886     6384.00000
    71.0018     6311.00000
    71.0149     6457.00000
    71.0280     6438.00000
    71.0412     6335.00000
    71.0543     6301.00000
    71.0674     6262.00000
    71.0805     6354.00000
    71.0937     6377.00000
    71.1068     6534.00000
    71.1199     6490.00000
    71.1331     6590.00000
    71.1462     6554.00000
    71.1593     6670.00000
    71.1725     6712.00000
    71.1856     6485.00000
    71.1987     6364.00000
    71.2118     6366.00000
    71.2250     6238.00000
    71.2381     6206.00000
    71.2512     6011.00000
    71.2644     6065.00000
    71.2775     6117.00000
    71.2906     6231.00000
    71.3038     6129.00000
    71.3169     6024.00000
    71.3300     6079.00000
    71.3431     6238.00000
    71.3563     6111.00000
    71.3694     6057.00000
    71.3825     5993.00000
    71.3957     5984.00000
    71.4088     6118.00000
    71.4219     6246.00000
    71.4351     6096.00000
    71.4482     5960.00000
    71.4613     6001.00000
    71.4744     6074.00000
    71.4876     6025.00000
    71.5007     6087.00000
    71.5138     6194.00000
    71.5270     5960.00000
    71.5401     5989.00000
    71.5532     6215.00000
    71.5664     6279.00000
    71.5795     5837.00000
    71.5926     5932.00000
    71.6058     6016.00000
    71.6189     6206.00000
    71.6320     6029.00000
    71.6451     6153.00000
    71.6583     5960.00000
    71.6714     6017.00000
    71.6845     5995.00000
    71.6977     5918.00000
    71.7108     5987.00000
    71.7239     6133.00000
    71.7371     5934.00000
    71.7502     6091.00000
    71.7633     6149.00000
    71.7764     6028.00000
    71.7896     6031.00000
    71.8027     6068.00000
    71.8158     6054.00000
    71.8290     5957.00000
    71.8421     5992.00000
    71.8552     5896.00000
    71.8684     6060.00000
    71.8815     6186.00000
    71.8946     6274.00000
    71.9078     6170.00000
    71.9209     6297.00000
    71.9340     6489.00000
    71.9471     6537.00000
    71.9603     6374.00000
    71.9734     6537.00000
    71.9865     6530.00000
    71.9997     6526.00000
    72.0128     6563.00000
    72.0259     6371.00000
    72.0391     6552.00000
    72.0522     6454.00000
    72.0653     6623.00000
    72.0784     6728.00000
    72.0916     6853.00000
    72.1047     6864.00000
    72.1178     6710.00000
    72.1310     6828.00000
    72.1441     6993.00000
    72.1572     7330.00000
    72.1704     7821.00000
    72.1835     7874.00000
    72.1966     8077.00000
    72.2097     8377.00000
    72.2229     8543.00000
    72.2360     8450.00000
    72.2491     8597.00000
    72.2623     8228.00000
    72.2754     7873.00000
    72.2885     7951.00000
    72.3017     7739.00000
    72.3148     7373.00000
    72.3279     7040.00000
    72.3410     6912.00000
    72.3542     6922.00000
    72.3673     6892.00000
    72.3804     6890.00000
    72.3936     6888.00000
    72.4067     7164.00000
    72.4198     7019.00000
    72.4330     7255.00000
    72.4461     7190.00000
    72.4592     7113.00000
    72.4724     6905.00000
    72.4855     6859.00000
    72.4986     6566.00000
    72.5117     6468.00000
    72.5249     6541.00000
    72.5380     6246.00000
    72.5511     6117.00000
    72.5643     6261.00000
    72.5774     6087.00000
    72.5905     5947.00000
    72.6037     6066.00000
    72.6168     6125.00000
    72.6299     5998.00000
    72.6430     5888.00000
    72.6562     5997.00000
    72.6693     5844.00000
    72.6824     5910.00000
    72.6956     5987.00000
    72.7087     5801.00000
    72.7218     5865.00000
    72.7350     5954.00000
    72.7481     6012.00000
    72.7612     5952.00000
    72.7743     6065.00000
    72.7875     6151.00000
    72.8006     6165.00000
    72.8137     6280.00000
    72.8269     6512.00000
    72.8400     6637.00000
    72.8531     6667.00000
    72.8663     6465.00000
    72.8794     6434.00000
    72.8925     6278.00000
    72.9057     6169.00000
    72.9188     6205.00000
    72.9319     6222.00000
    72.9450     6095.00000
    72.9582     6049.00000
    72.9713     6058.00000
    72.9844     5966.00000
    72.9976     6212.00000
    73.0107     6032.00000
    73.0238     6018.00000
    73.0370     6116.00000
    73.0501     6268.00000
    73.0632     6085.00000
    73.0763     6241.00000
    73.0895     6100.00000
    73.1026     6179.00000
    73.1157     6096.00000
    73.1289     6067.00000
    73.1420     6022.00000
    73.1551     6146.00000
    73.1683     6073.00000
    73.1814     6045.00000
    73.1945     6097.00000
    73.2076     5994.00000
    73.2208     5790.00000
    73.2339     5938.00000
    73.2470     5921.00000
    73.2602     5960.00000
    73.2733     6268.00000
    73.2864     6232.00000
    73.2996     6173.00000
    73.3127     6214.00000
    73.3258     6097.00000
    73.3390     6124.00000
    73.3521     6207.00000
    73.3652     6206.00000
    73.3783     6167.00000
    73.3915     6064.00000
    73.4046     6098.00000
    73.4177     6046.00000
    73.4309     6010.00000
    73.4440     6110.00000
    73.4571     6198.00000
    73.4703     5971.00000
    73.4834     6061.00000
    73.4965     6299.00000
    73.5096     6170.00000
    73.5228     6171.00000
    73.5359     6143.00000
    73.5490     6198.00000
    73.5622     6192.00000
    73.5753     6247.00000
    73.5884     6500.00000
    73.6016     6384.00000
    73.6147     6487.00000
    73.6278     6599.00000
    73.6409     6992.00000
    73.6541     6927.00000
    73.6672     7159.00000
    73.6803     7334.00000
    73.6935     7312.00000
    73.7066     7544.00000
    73.7197     7295.00000
    73.7329     7387.00000
    73.7460     7180.00000
    73.7591     6886.00000
    73.7722     6707.00000
    73.7854     6661.00000
    73.7985     6446.00000
    73.8116     6576.00000
    73.8248     6446.00000
    73.8379     6381.00000
    73.8510     6484.00000
    73.8642     6529.00000
    73.8773     6614.00000
    73.8904     6587.00000
    73.9035     6736.00000
    73.9167     6657.00000
    73.9298     6703.00000
    73.9429     6628.00000
    73.9561     6432.00000
    73.9692     6541.00000
    73.9823     6399.00000
    73.9955     6357.00000
    74.0086     6274.00000
    74.0217     6384.00000
    74.0349     6512.00000
    74.0480     5983.00000
    74.0611     6186.00000
    74.0742     6117.00000
    74.0874     6117.00000
    74.1005     6169.00000
    74.1136     6081.00000
    74.1268     6134.00000
    74.1399     5921.00000
    74.1530     6059.00000
    74.1662     5889.00000
    74.1793     6096.00000
    74.1924     6156.00000
    74.2056     6131.00000
    74.2187     6268.00000
    74.2318     6222.00000
    74.2449     6245.00000
    74.2581     6274.00000
    74.2712     6208.00000
    74.2843     6194.00000
    74.2975     6128.00000
    74.3106     6242.00000
    74.3237     6352.00000
    74.3369     6138.00000
    74.3500     6016.00000
    74.3631     6067.00000
    74.3762     6242.00000
    74.3894     6292.00000
    74.4025     6308.00000
    74.4156     6263.00000
    74.4288     6457.00000
    74.4419     6464.00000
    74.4550     6649.00000
    74.4682     6584.00000
    74.4813     6770.00000
    74.4944     6921.00000
    74.5075     7075.00000
    74.5207     6750.00000
    74.5338     6747.00000
    74.5469     6719.00000
    74.5601     7047.00000
    74.5732     7242.00000
    74.5863     7300.00000
    74.5995     7584.00000
    74.6126     7932.00000
    74.6257     8031.00000
    74.6388     8044.00000
    74.6520     8047.00000
    74.6651     7768.00000
    74.6782     7379.00000
    74.6914     7209.00000
    74.7045     7088.00000
    74.7176     7068.00000
    74.7308     6607.00000
    74.7439     6480.00000
    74.7570     6497.00000
    74.7701     6595.00000
    74.7833     6652.00000
    74.7964     6520.00000
    74.8095     6551.00000
    74.8227     6731.00000
    74.8358     6956.00000
    74.8489     6728.00000
    74.8621     6815.00000
    74.8752     6900.00000
    74.8883     6849.00000
    74.9015     6412.00000
    74.9146     6268.00000
    74.9277     6116.00000
    74.9408     6213.00000
    74.9540     6161.00000
    74.9671     6192.00000
    74.9802     6170.00000
    74.9934     6108.00000
    75.0065     5899.00000
    75.0196     6050.00000
    75.0328     6058.00000
    75.0459     6169.00000
    75.0590     6055.00000
    75.0722     6037.00000
    75.0853     5970.00000
    75.0984     6189.00000
    75.1115     6035.00000
    75.1247     5859.00000
    75.1378     5980.00000
    75.1509     5841.00000
    75.1641     5912.00000
    75.1772     5965.00000
    75.1903     5857.00000
    75.2035     6009.00000
    75.2166     5977.00000
    75.2297     5853.00000
    75.2428     5892.00000
    75.2560     6060.00000
    75.2691     5997.00000
    75.2822     5860.00000
    75.2954     5903.00000
    75.3085     6074.00000
    75.3216     6060.00000
    75.3348     5864.00000
    75.3479     5977.00000
    75.3610     5836.00000
    75.3741     5854.00000
    75.3873     6057.00000
    75.4004     5979.00000
    75.4135     5938.00000
    75.4267     5817.00000
    75.4398     5838.00000
    75.4529     5864.00000
    75.4661     5823.00000
    75.4792     5751.00000
    75.4923     5910.00000
    75.5054     5861.00000
    75.5186     5849.00000
    75.5317     5568.00000
    75.5448     5877.00000
    75.5580     5829.00000
    75.5711     5720.00000
    75.5842     5849.00000
    75.5974     5841.00000
    75.6105     5763.00000
    75.6236     5782.00000
    75.6367     5830.00000
    75.6499     5849.00000
    75.6630     5889.00000
    75.6761     5724.00000
    75.6893     5712.00000
    75.7024     5858.00000
    75.7155     5918.00000
    75.7287     5955.00000
    75.7418     5860.00000
    75.7549     5914.00000
    75.7681     5831.00000
    75.7812     5826.00000
    75.7943     6070.00000
    75.8074     5764.00000
    75.8206     5772.00000
    75.8337     5928.00000
    75.8468     5844.00000
    75.8600     5836.00000
    75.8731     5984.00000
    75.8862     6001.00000
    75.8994     5863.00000
    75.9125     6130.00000
    75.9256     6111.00000
    75.9387     6034.00000
    75.9519     6186.00000
    75.9650     6018.00000
    75.9781     6188.00000
    75.9913     6364.00000
    76.0044     6277.00000
    76.0175     6110.00000
    76.0307     6108.00000
    76.0438     6129.00000
    76.0569     6033.00000
    76.0701     5923.00000
    76.0832     5908.00000
    76.0963     5951.00000
    76.1094     6032.00000
    76.1226     5867.00000
    76.1357     5918.00000
    76.1488     5946.00000
    76.1620     5974.00000
    76.1751     6075.00000
    76.1882     5966.00000
    76.2014     6038.00000
    76.2145     6019.00000
    76.2276     6187.00000
    76.2407     6150.00000
    76.2539     6135.00000
    76.2670     6103.00000
    76.2801     6094.00000
    76.2933     5932.00000
    76.3064     5945.00000
    76.3195     5894.00000
    76.3327     5932.00000
    76.3458     5889.00000
    76.3589     5970.00000
    76.3720     5939.00000
    76.3852     5987.00000
    76.3983     6036.00000
    76.4114     5897.00000
    76.4246     5849.00000
    76.4377     5849.00000
    76.4508     5923.00000
    76.4640     5844.00000
    76.4771     6167.00000
    76.4902     6139.00000
    76.5033     6002.00000
    76.5165     6163.00000
    76.5296     6159.00000
    76.5427     5989.00000
    76.5559     6061.00000
    76.5690     6274.00000
    76.5821     6082.00000
    76.5953     6052.00000
    76.6084     6120.00000
    76.6215     6005.00000
    76.6347     6116.00000
    76.6478     6011.00000
    76.6609     6041.00000
    76.6740     6080.00000
    76.6872     6052.00000
    76.7003     5967.00000
    76.7134     6008.00000
    76.7266     5960.00000
    76.7397     6209.00000
    76.7528     6115.00000
    76.7660     6120.00000
    76.7791     6130.00000
    76.7922     6046.00000
    76.8053     6126.00000
    76.8185     5985.00000
    76.8316     5989.00000
    76.8447     6165.00000
    76.8579     5996.00000
    76.8710     5883.00000
    76.8841     6064.00000
    76.8973     6047.00000
    76.9104     6101.00000
    76.9235     6171.00000
    76.9366     5945.00000
    76.9498     6012.00000
    76.9629     6193.00000
    76.9760     6401.00000
    76.9892     6452.00000
    77.0023     6436.00000
    77.0154     6621.00000
    77.0286     6823.00000
    77.0417     7203.00000
    77.0548     7390.00000
    77.0679     7657.00000
    77.0811     7721.00000
    77.0942     7858.00000
    77.1073     7812.00000
    77.1205     7704.00000
    77.1336     7514.00000
    77.1467     7464.00000
    77.1599     7663.00000
    77.1730     7446.00000
    77.1861     7306.00000
    77.1993     7119.00000
    77.2124     6990.00000
    77.2255     6783.00000
    77.2386     6801.00000
    77.2518     6712.00000
    77.2649     6477.00000
    77.2780     6819.00000
    77.2912     6968.00000
    77.3043     7049.00000
    77.3174     7207.00000
    77.3306     7069.00000
    77.3437     6951.00000
    77.3568     6730.00000
    77.3699     6820.00000
    77.3831     6898.00000
    77.3962     6604.00000
    77.4093     6610.00000
    77.4225     6325.00000
    77.4356     6255.00000
    77.4487     6343.00000
    77.4619     6388.00000
    77.4750     6448.00000
    77.4881     6503.00000
    77.5013     6364.00000
    77.5144     6740.00000
    77.5275     6755.00000
    77.5406     7000.00000
    77.5538     7004.00000
    77.5669     7023.00000
    77.5800     6824.00000
    77.5932     6841.00000
    77.6063     6672.00000
    77.6194     6546.00000
    77.6326     6459.00000
    77.6457     6382.00000
    77.6588     6123.00000
    77.6719     6140.00000
    77.6851     6106.00000
    77.6982     6000.00000
    77.7113     6300.00000
    77.7245     6153.00000
    77.7376     6196.00000
    77.7507     6557.00000
    77.7639     6641.00000
    77.7770     6391.00000
    77.7901     6533.00000
    77.8032     6701.00000
    77.8164     6855.00000
    77.8295     6878.00000
    77.8426     6615.00000
    77.8558     6416.00000
    77.8689     6488.00000
    77.8820     6232.00000
    77.8952     5909.00000
    77.9083     6055.00000
    77.9214     6008.00000
    77.9345     6056.00000
    77.9477     5852.00000
    77.9608     5749.00000
    77.9739     5998.00000
    77.9871     5990.00000
    78.0002     6010.00000
    78.0133     5715.00000
    78.0265     5904.00000
    78.0396     6292.00000
    78.0527     5986.00000
    78.0658     6123.00000
    78.0790     6113.00000
    78.0921     6125.00000
    78.1052     6226.00000
    78.1184     6198.00000
    78.1315     6111.00000
    78.1446     5949.00000
    78.1578     5942.00000
    78.1709     6009.00000
    78.1840     5969.00000
    78.1972     5882.00000
    78.2103     5696.00000
    78.2234     5843.00000
    78.2365     5730.00000
    78.2497     5918.00000
    78.2628     5854.00000
    78.2759     5807.00000
    78.2891     5772.00000
    78.3022     5772.00000
    78.3153     5754.00000
    78.3285     5726.00000
    78.3416     5814.00000
    78.3547     5748.00000
    78.3679     5854.00000
    78.3810     5836.00000
    78.3941     5949.00000
    78.4072     5831.00000
    78.4204     5819.00000
    78.4335     5953.00000
    78.4466     5882.00000
    78.4598     5974.00000
    78.4729     5855.00000
    78.4860     5970.00000
    78.4992     5813.00000
    78.5123     5774.00000
    78.5254     5809.00000
    78.5385     5802.00000
    78.5517     5954.00000
    78.5648     5804.00000
    78.5779     5880.00000
    78.5911     5890.00000
    78.6042     5757.00000
    78.6173     6078.00000
    78.6305     5825.00000
    78.6436     5867.00000
    78.6567     5858.00000
    78.6698     5855.00000
    78.6830     5763.00000
    78.6961     5953.00000
    78.7092     5820.00000
    78.7224     5935.00000
    78.7355     5698.00000
    78.7486     5724.00000
    78.7618     6016.00000
    78.7749     5942.00000
    78.7880     5854.00000
    78.8011     5834.00000
    78.8143     5905.00000
    78.8274     5933.00000
    78.8405     5887.00000
    78.8537     5926.00000
    78.8668     6107.00000
    78.8799     5982.00000
    78.8931     6183.00000
    78.9062     6162.00000
    78.9193     5945.00000
    78.9324     6055.00000
    78.9456     6002.00000
    78.9587     5959.00000
    78.9718     5914.00000
    78.9850     5964.00000
    78.9981     5851.00000
    79.0112     6049.00000
    79.0244     6007.00000
    79.0375     5949.00000
    79.0506     6031.00000
    79.0638     6134.00000
    79.0769     6099.00000
    79.0900     6073.00000
    79.1031     5961.00000
    79.1163     5992.00000
    79.1294     6031.00000
    79.1425     6019.00000
    79.1557     6198.00000
    79.1688     6074.00000
    79.1819     6081.00000
    79.1951     6142.00000
    79.2082     6114.00000
    79.2213     6127.00000
    79.2345     6248.00000
    79.2476     6189.00000
    79.2607     6168.00000
    79.2738     6478.00000
    79.2870     6425.00000
    79.3001     6340.00000
    79.3132     6301.00000
    79.3264     6315.00000
    79.3395     6371.00000
    79.3526     6290.00000
    79.3658     6381.00000
    79.3789     6568.00000
    79.3920     6454.00000
    79.4051     6634.00000
    79.4183     6825.00000
    79.4314     6963.00000
    79.4445     6874.00000
    79.4577     6855.00000
    79.4708     6981.00000
    79.4839     6897.00000
    79.4971     6835.00000
    79.5102     6657.00000
    79.5233     6500.00000
    79.5364     6457.00000
    79.5496     6498.00000
    79.5627     6439.00000
    79.5758     6574.00000
    79.5890     6296.00000
    79.6021     6530.00000
    79.6152     6644.00000
    79.6284     6493.00000
    79.6415     6575.00000
    79.6546     6516.00000
    79.6677     6687.00000
    79.6809     6714.00000
    79.6940     6804.00000
    79.7071     6725.00000
    79.7203     6614.00000
    79.7334     6530.00000
    79.7465     6500.00000
    79.7597     6411.00000
    79.7728     6378.00000
    79.7859     6257.00000
    79.7990     6098.00000
    79.8122     6252.00000
    79.8253     6232.00000
    79.8384     6287.00000
    79.8516     6518.00000
    79.8647     6637.00000
    79.8778     6782.00000
    79.8910     6763.00000
    79.9041     6995.00000
    79.9172     7159.00000
    79.9304     7276.00000
    79.9435     7431.00000
    79.9566     7492.00000
    79.9697     7195.00000
    79.9829     7192.00000
    79.9960     7002.00000
    80.0091     6919.00000
    80.0223     6647.00000
    80.0354     6542.00000
    80.0485     6387.00000
    80.0617     6324.00000
    80.0748     6388.00000
    80.0879     6414.00000
    80.1010     6379.00000
    80.1142     6343.00000
    80.1273     6480.00000
    80.1404     6426.00000
    80.1536     6516.00000
    80.1667     6602.00000
    80.1798     6795.00000
    80.1930     6673.00000
    80.2061     6599.00000
    80.2192     6575.00000
    80.2323     6605.00000
    80.2455     6367.00000
    80.2586     6184.00000
    80.2717     6103.00000
    80.2849     6255.00000
    80.2980     6035.00000
    80.3111     6048.00000
    80.3243     5978.00000
    80.3374     6045.00000
    80.3505     6143.00000
    80.3637     6154.00000
    80.3768     6091.00000
    80.3899     6245.00000
    80.4030     6227.00000
    80.4162     6177.00000
    80.4293     6056.00000
    80.4424     5893.00000
    80.4556     6068.00000
    80.4687     6146.00000
    80.4818     6010.00000
    80.4950     5808.00000
    80.5081     6115.00000
    80.5212     5890.00000
    80.5343     6047.00000
    80.5475     6048.00000
    80.5606     6012.00000
    80.5737     6099.00000
    80.5869     6185.00000
    80.6000     6173.00000
    80.6131     6254.00000
    80.6263     6256.00000
    80.6394     6217.00000
    80.6525     6184.00000
    80.6656     6267.00000
    80.6788     6132.00000
    80.6919     6184.00000
    80.7050     6039.00000
    80.7182     6155.00000
    80.7313     6138.00000
    80.7444     5884.00000
    80.7576     6014.00000
    80.7707     6059.00000
    80.7838     6045.00000
    80.7970     5948.00000
    80.8101     6007.00000
    80.8232     6035.00000
    80.8363     5886.00000
    80.8495     5946.00000
    80.8626     6053.00000
    80.8757     6165.00000
    80.8889     6251.00000
    80.9020     6166.00000
    80.9151     6297.00000
    80.9283     6458.00000
    80.9414     6565.00000
    80.9545     6442.00000
    80.9676     6678.00000
    80.9808     6787.00000
    80.9939     6630.00000
    81.0070     6864.00000
    81.0202     6664.00000
    81.0333     6558.00000
    81.0464     6605.00000
    81.0596     6489.00000
    81.0727     6344.00000
    81.0858     6431.00000
    81.0989     6307.00000
    81.1121     6307.00000
    81.1252     6279.00000
    81.1383     6466.00000
    81.1515     6526.00000
    81.1646     6658.00000
    81.1777     6731.00000
    81.1909     6754.00000
    81.2040     6725.00000
    81.2171     6756.00000
    81.2302     6769.00000
    81.2434     6905.00000
    81.2565     6788.00000
    81.2696     6576.00000
    81.2828     6707.00000
    81.2959     6775.00000
    81.3090     6776.00000
    81.3222     6549.00000
    81.3353     6548.00000
    81.3484     6468.00000
    81.3616     6631.00000
    81.3747     6520.00000
    81.3878     6573.00000
    81.4009     6546.00000
    81.4141     6514.00000
    81.4272     6457.00000
    81.4403     6355.00000
    81.4535     6329.00000
    81.4666     6389.00000
    81.4797     6316.00000
    81.4929     6214.00000
    81.5060     6249.00000
    81.5191     6153.00000
    81.5322     6336.00000
    81.5454     6320.00000
    81.5585     6429.00000
    81.5716     6285.00000
    81.5848     6405.00000
    81.5979     6430.00000
    81.6110     6482.00000
    81.6242     6306.00000
    81.6373     6414.00000
    81.6504     6388.00000
    81.6636     6504.00000
    81.6767     6482.00000
    81.6898     6628.00000
    81.7029     6832.00000
    81.7161     6643.00000
    81.7292     6710.00000
    81.7423     6781.00000
    81.7555     6914.00000
    81.7686     6861.00000
    81.7817     6846.00000
    81.7949     6696.00000
    81.8080     6651.00000
    81.8211     6579.00000
    81.8342     6523.00000
    81.8474     6421.00000
    81.8605     6365.00000
    81.8736     6288.00000
    81.8868     6185.00000
    81.8999     6187.00000
    81.9130     6177.00000
    81.9262     6177.00000
    81.9393     6360.00000
    81.9524     6233.00000
    81.9655     6365.00000
    81.9787     6515.00000
    81.9918     6383.00000
    82.0049     6623.00000
    82.0181     6240.00000
    82.0312     6207.00000
    82.0443     6167.00000
    82.0575     6205.00000
    82.0706     6100.00000
    82.0837     6072.00000
    82.0968     6016.00000
    82.1100     6005.00000
    82.1231     5957.00000
    82.1362     5942.00000
    82.1494     6121.00000
    82.1625     6095.00000
    82.1756     6122.00000
    82.1888     5869.00000
    82.2019     5994.00000
    82.2150     6039.00000
    82.2281     5905.00000
    82.2413     5912.00000
    82.2544     5956.00000
    82.2675     6073.00000
    82.2807     6108.00000
    82.2938     6050.00000
    82.3069     5968.00000
    82.3201     5841.00000
    82.3332     5947.00000
    82.3463     5991.00000
    82.3595     6064.00000
    82.3726     5964.00000
    82.3857     5808.00000
    82.3988     5910.00000
    82.4120     5920.00000
    82.4251     6033.00000
    82.4382     6131.00000
    82.4514     5983.00000
    82.4645     6008.00000
    82.4776     5921.00000
    82.4908     5986.00000
    82.5039     5785.00000
    82.5170     5844.00000
    82.5302     5940.00000
    82.5433     6009.00000
    82.5564     6080.00000
    82.5695     5879.00000
    82.5827     5996.00000
    82.5958     5858.00000
    82.6089     5881.00000
    82.6221     5938.00000
    82.6352     5985.00000
    82.6483     6055.00000
    82.6615     6142.00000
    82.6746     6042.00000
    82.6877     6121.00000
    82.7008     6258.00000
    82.7140     6367.00000
    82.7271     6324.00000
    82.7402     6402.00000
    82.7534     6383.00000
    82.7665     6503.00000
    82.7796     6429.00000
    82.7928     6444.00000
    82.8059     6429.00000
    82.8190     6285.00000
    82.8321     6414.00000
    82.8453     6335.00000
    82.8584     6208.00000
    82.8715     6091.00000
    82.8847     6118.00000
    82.8978     6060.00000
    82.9109     5964.00000
    82.9241     6255.00000
    82.9372     6330.00000
    82.9503     6434.00000
    82.9634     6522.00000
    82.9766     6225.00000
    82.9897     6361.00000
    83.0028     6440.00000
    83.0160     6411.00000
    83.0291     6451.00000
    83.0422     6441.00000
    83.0554     6569.00000
    83.0685     6577.00000
    83.0816     6457.00000
    83.0947     6422.00000
    83.1079     6458.00000
    83.1210     6555.00000
    83.1341     6402.00000
    83.1473     6590.00000
    83.1604     6857.00000
    83.1735     6768.00000
    83.1867     6674.00000
    83.1998     6610.00000
    83.2129     6580.00000
    83.2261     6727.00000
    83.2392     6392.00000
    83.2523     6331.00000
    83.2654     6385.00000
    83.2786     6231.00000
    83.2917     6214.00000
    83.3048     6349.00000
    83.3180     6212.00000
    83.3311     6196.00000
    83.3442     6253.00000
    83.3574     6194.00000
    83.3705     6154.00000
    83.3836     6173.00000
    83.3967     6198.00000
    83.4099     6209.00000
    83.4230     6311.00000
    83.4361     6216.00000
    83.4493     6185.00000
    83.4624     6165.00000
    83.4755     6189.00000
    83.4887     6119.00000
    83.5018     5930.00000
    83.5149     6021.00000
    83.5281     5999.00000
    83.5412     6024.00000
    83.5543     5920.00000
    83.5674     5820.00000
    83.5806     5903.00000
    83.5937     6011.00000
    83.6068     5764.00000
    83.6200     5832.00000
    83.6331     5880.00000
    83.6462     5941.00000
    83.6594     5913.00000
    83.6725     5955.00000
    83.6856     5968.00000
    83.6987     5833.00000
    83.7119     5939.00000
    83.7250     5851.00000
    83.7381     5939.00000
    83.7513     5856.00000
    83.7644     5835.00000
    83.7775     5908.00000
    83.7907     5738.00000
    83.8038     5893.00000
    83.8169     5756.00000
    83.8300     5885.00000
    83.8432     5767.00000
    83.8563     5855.00000
    83.8694     5853.00000
    83.8826     5723.00000
    83.8957     5773.00000
    83.9088     5711.00000
    83.9220     5783.00000
    83.9351     5934.00000
    83.9482     5756.00000
    83.9613     5722.00000
    83.9745     5877.00000
    83.9876     5887.00000
    84.0007     5759.00000
    84.0139     5806.00000
    84.0270     5897.00000
    84.0401     5657.00000
    84.0533     5664.00000
    84.0664     5836.00000
    84.0795     5858.00000
    84.0927     5976.00000
    84.1058     5884.00000
    84.1189     5801.00000
    84.1320     5762.00000
    84.1452     5765.00000
    84.1583     5765.00000
    84.1714     5849.00000
    84.1846     5701.00000
    84.1977     5768.00000
    84.2108     5712.00000
    84.2240     5748.00000
    84.2371     5844.00000
    84.2502     5818.00000
    84.2633     5869.00000
    84.2765     5829.00000
    84.2896     5816.00000
    84.3027     5660.00000
    84.3159     5693.00000
    84.3290     5845.00000
    84.3421     5766.00000
    84.3553     5788.00000
    84.3684     5864.00000
    84.3815     5939.00000
    84.3946     5820.00000
    84.4078     5729.00000
    84.4209     5712.00000
    84.4340     5720.00000
    84.4472     5848.00000
    84.4603     5862.00000
    84.4734     5884.00000
    84.4866     5727.00000
    84.4997     5711.00000
    84.5128     5822.00000
    84.5260     5869.00000
    84.5391     5931.00000
    84.5522     6016.00000
    84.5653     5979.00000
    84.5785     5991.00000
    84.5916     6010.00000
    84.6047     5896.00000
    84.6179     5864.00000
    84.6310     5825.00000
    84.6441     5979.00000
    84.6573     5865.00000
    84.6704     5764.00000
    84.6835     5772.00000
    84.6966     5774.00000
    84.7098     5972.00000
    84.7229     5762.00000
    84.7360     5803.00000
    84.7492     5807.00000
    84.7623     5694.00000
    84.7754     5845.00000
    84.7886     5931.00000
    84.8017     6026.00000
    84.8148     5877.00000
    84.8279     5941.00000
    84.8411     5776.00000
    84.8542     6021.00000
    84.8673     5967.00000
    84.8805     5817.00000
    84.8936     5821.00000
    84.9067     5830.00000
    84.9199     5817.00000
    84.9330     6062.00000
    84.9461     6179.00000
    84.9593     6108.00000
    84.9724     6149.00000
    84.9855     6299.00000
    84.9986     6395.00000
    85.0118     6333.00000
    85.0249     6364.00000
    85.0380     6327.00000
    85.0512     6413.00000
    85.0643     6497.00000
    85.0774     6392.00000
    85.0906     6395.00000
    85.1037     6289.00000
    85.1168     6090.00000
    85.1299     6094.00000
    85.1431     6118.00000
    85.1562     6095.00000
    85.1693     5893.00000
    85.1825     5888.00000
    85.1956     5989.00000
    85.2087     5974.00000
    85.2219     6057.00000
    85.2350     6004.00000
    85.2481     6114.00000
    85.2612     6043.00000
    85.2744     5971.00000
    85.2875     5928.00000
    85.3006     6197.00000
    85.3138     6289.00000
    85.3269     6108.00000
    85.3400     6037.00000
    85.3532     6140.00000
    85.3663     6133.00000
    85.3794     5997.00000
    85.3925     6006.00000
    85.4057     5969.00000
    85.4188     5860.00000
    85.4319     5912.00000
    85.4451     5826.00000
    85.4582     5925.00000
    85.4713     5874.00000
    85.4845     5926.00000
    85.4976     6096.00000
    85.5107     5964.00000
    85.5238     5886.00000
    85.5370     5874.00000
    85.5501     5957.00000
    85.5632     5721.00000
    85.5764     5915.00000
    85.5895     6041.00000
    85.6026     5869.00000
    85.6158     5753.00000
    85.6289     5727.00000
    85.6420     5687.00000
    85.6552     5753.00000
    85.6683     5910.00000
    85.6814     5907.00000
    85.6945     5798.00000
    85.7077     5746.00000
    85.7208     5866.00000
    85.7339     5973.00000
    85.7471     5865.00000
    85.7602     5750.00000
    85.7733     5819.00000
    85.7865     5840.00000
    85.7996     5911.00000
    85.8127     5894.00000
    85.8259     5860.00000
    85.8390     5891.00000
    85.8521     6116.00000
    85.8652     5961.00000
    85.8784     5830.00000
    85.8915     5893.00000
    85.9046     6068.00000
    85.9178     6001.00000
    85.9309     6085.00000
    85.9440     6164.00000
    85.9572     5967.00000
    85.9703     6018.00000
    85.9834     5869.00000
    85.9965     5880.00000
    86.0097     5830.00000
    86.0228     5952.00000
    86.0359     5829.00000
    86.0491     5866.00000
    86.0622     5837.00000
    86.0753     5784.00000
    86.0885     5770.00000
    86.1016     5782.00000
    86.1147     5904.00000
    86.1278     5754.00000
    86.1410     5908.00000
    86.1541     5766.00000
    86.1672     5829.00000
    86.1804     5998.00000
    86.1935     6011.00000
    86.2066     5817.00000
    86.2198     6038.00000
    86.2329     5914.00000
    86.2460     5730.00000
    86.2591     5822.00000
    86.2723     5752.00000
    86.2854     5820.00000
    86.2985     5898.00000
    86.3117     5714.00000
    86.3248     5772.00000
    86.3379     5746.00000
    86.3511     5708.00000
    86.3642     5787.00000
    86.3773     5755.00000
    86.3904     5905.00000
    86.4036     5853.00000
    86.4167     5781.00000
    86.4298     5832.00000
    86.4430     5892.00000
    86.4561     5618.00000
    86.4692     5843.00000
    86.4824     5870.00000
    86.4955     5989.00000
    86.5086     5861.00000
    86.5218     5885.00000
    86.5349     5766.00000
    86.5480     5700.00000
    86.5611     5758.00000
    86.5743     5844.00000
    86.5874     5740.00000
    86.6005     5689.00000
    86.6137     5751.00000
    86.6268     5729.00000
    86.6399     5619.00000
    86.6531     5674.00000
    86.6662     5921.00000
    86.6793     5900.00000
    86.6925     5819.00000
    86.7056     5837.00000
    86.7187     5773.00000
    86.7318     5970.00000
    86.7450     5933.00000
    86.7581     6010.00000
    86.7712     6221.00000
    86.7844     6131.00000
    86.7975     6048.00000
    86.8106     6225.00000
    86.8238     6303.00000
    86.8369     6235.00000
    86.8500     6212.00000
    86.8631     6304.00000
    86.8763     6353.00000
    86.8894     6466.00000
    86.9025     6602.00000
    86.9157     6612.00000
    86.9288     6644.00000
    86.9419     6579.00000
    86.9551     6479.00000
    86.9682     6498.00000
    86.9813     6372.00000
    86.9944     6427.00000
    87.0076     6330.00000
    87.0207     6156.00000
    87.0338     6148.00000
    87.0470     6226.00000
    87.0601     6038.00000
    87.0732     6258.00000
    87.0864     6190.00000
    87.0995     6347.00000
    87.1126     6469.00000
    87.1257     6547.00000
    87.1389     6408.00000
    87.1520     6560.00000
    87.1651     6862.00000
    87.1783     6790.00000
    87.1914     7073.00000
    87.2045     7115.00000
    87.2177     6929.00000
    87.2308     6848.00000
    87.2439     6685.00000
    87.2570     6641.00000
    87.2702     6425.00000
    87.2833     6299.00000
    87.2964     6192.00000
    87.3096     6338.00000
    87.3227     6163.00000
    87.3358     6192.00000
    87.3490     6287.00000
    87.3621     6075.00000
    87.3752     6150.00000
    87.3884     6324.00000
    87.4015     6344.00000
    87.4146     6441.00000
    87.4277     6527.00000
    87.4409     6540.00000
    87.4540     6694.00000
    87.4671     6817.00000
    87.4803     6792.00000
    87.4934     7020.00000
    87.5065     6834.00000
    87.5197     6728.00000
    87.5328     6766.00000
    87.5459     6324.00000
    87.5590     6455.00000
    87.5722     6430.00000
    87.5853     6225.00000
    87.5984     6062.00000
    87.6116     6167.00000
    87.6247     6262.00000
    87.6378     6218.00000
    87.6510     6175.00000
    87.6641     6021.00000
    87.6772     6063.00000
    87.6904     6180.00000
    87.7035     6036.00000
    87.7166     6025.00000
    87.7297     6101.00000
    87.7429     6154.00000
    87.7560     6181.00000
    87.7691     6221.00000
    87.7823     6197.00000
    87.7954     6141.00000
    87.8085     6179.00000
    87.8217     6018.00000
    87.8348     6251.00000
    87.8479     6260.00000
    87.8610     5997.00000
    87.8742     6054.00000
    87.8873     6086.00000
    87.9004     6042.00000
    87.9136     6083.00000
    87.9267     6032.00000
    87.9398     6003.00000
    87.9530     5874.00000
    87.9661     5825.00000
    87.9792     5847.00000
    87.9923     5934.00000
    88.0055     5686.00000
    88.0186     5959.00000
    88.0317     5938.00000
    88.0449     6025.00000
    88.0580     5990.00000
    88.0711     6059.00000
    88.0843     6173.00000
    88.0974     5979.00000
    88.1105     6021.00000
    88.1236     6031.00000
    88.1368     6224.00000
    88.1499     5928.00000
    88.1630     6041.00000
    88.1762     5855.00000
    88.1893     5923.00000
    88.2024     5844.00000
    88.2156     5873.00000
    88.2287     5901.00000
    88.2418     5879.00000
    88.2550     6010.00000
    88.2681     5808.00000
    88.2812     5889.00000
    88.2943     6085.00000
    88.3075     6132.00000
    88.3206     5962.00000
    88.3337     6245.00000
    88.3469     5931.00000
    88.3600     6092.00000
    88.3731     6158.00000
    88.3863     6107.00000
    88.3994     6253.00000
    88.4125     6250.00000
    88.4256     6161.00000
    88.4388     6392.00000
    88.4519     6287.00000
    88.4650     6391.00000
    88.4782     6576.00000
    88.4913     6607.00000
    88.5044     6767.00000
    88.5176     6835.00000
    88.5307     6591.00000
    88.5438     6607.00000
    88.5569     6424.00000
    88.5701     6364.00000
    88.5832     6245.00000
    88.5963     6112.00000
    88.6095     6304.00000
    88.6226     6107.00000
    88.6357     6033.00000
    88.6489     6087.00000
    88.6620     6143.00000
    88.6751     6167.00000
    88.6882     6245.00000
    88.7014     6197.00000
    88.7145     6122.00000
    88.7276     6035.00000
    88.7408     6265.00000
    88.7539     6441.00000
    88.7670     6387.00000
    88.7802     6371.00000
    88.7933     6486.00000
    88.8064     6510.00000
    88.8196     6536.00000
    88.8327     6666.00000
    88.8458     6578.00000
    88.8589     6429.00000
    88.8721     6496.00000
    88.8852     6504.00000
    88.8983     6315.00000
    88.9115     6349.00000
    88.9246     6108.00000
    88.9377     5998.00000
    88.9509     6028.00000
    88.9640     6043.00000
    88.9771     5959.00000
    88.9902     5793.00000
    89.0034     5882.00000
    89.0165     5918.00000
    89.0296     5776.00000
    89.0428     5996.00000
    89.0559     6098.00000
    89.0690     6200.00000
    89.0822     6239.00000
    89.0953     6128.00000
    89.1084     6381.00000
    89.1216     6392.00000
    89.1347     6432.00000
    89.1478     6518.00000
    89.1609     6439.00000
    89.1741     6695.00000
    89.1872     6668.00000
    89.2003     6717.00000
    89.2135     6690.00000
    89.2266     6452.00000
    89.2397     6591.00000
    89.2529     6474.00000
    89.2660     6363.00000
    89.2791     5995.00000
    89.2922     6149.00000
    89.3054     6309.00000
    89.3185     6205.00000
    89.3316     6185.00000
    89.3448     6173.00000
    89.3579     6246.00000
    89.3710     6099.00000
    89.3842     6038.00000
    89.3973     5960.00000
    89.4104     6039.00000
    89.4235     6214.00000
    89.4367     6055.00000
    89.4498     6137.00000
    89.4629     6146.00000
    89.4761     6361.00000
    89.4892     6440.00000
    89.5023     6387.00000
    89.5155     6548.00000
    89.5286     6539.00000
    89.5417     6684.00000
    89.5548     6679.00000
    89.5680     6459.00000
    89.5811     6504.00000
    89.5942     6460.00000
    89.6074     6438.00000
    89.6205     6222.00000
    89.6336     6250.00000
    89.6468     6283.00000
    89.6599     6153.00000
    89.6730     6133.00000
    89.6861     6058.00000
    89.6993     6046.00000
    89.7124     6237.00000
    89.7255     6427.00000
    89.7387     6240.00000
    89.7518     6343.00000
    89.7649     6220.00000
    89.7781     6303.00000
    89.7912     6355.00000
    89.8043     6410.00000
    89.8175     6701.00000
    89.8306     6802.00000
    89.8437     6741.00000
    89.8568     6796.00000
    89.8700     6920.00000
    89.8831     6936.00000
    89.8962     7138.00000
    89.9094     7068.00000
    89.9225     6969.00000
    89.9356     7095.00000
    89.9488     7093.00000
    89.9619     6880.00000
    89.9750     6639.00000
    89.9882     6683.00000
    90.0013     6311.00000
    90.0144     6394.00000
    90.0275     6374.00000
    90.0407     6299.00000
    90.0538     6136.00000
    90.0669     6214.00000
    90.0801     6195.00000
    90.0932     6206.00000
    90.1063     6157.00000
    90.1195     6108.00000
    90.1326     6040.00000
    90.1457     6273.00000
    90.1588     6319.00000
    90.1720     6381.00000
    90.1851     6485.00000
    90.1982     6443.00000
    90.2114     6396.00000
    90.2245     6284.00000
    90.2376     6411.00000
    90.2508     6383.00000
    90.2639     6253.00000
    90.2770     6286.00000
    90.2901     6078.00000
    90.3033     6146.00000
    90.3164     6074.00000
    90.3295     5837.00000
    90.3427     5851.00000
    90.3558     5867.00000
    90.3689     5864.00000
    90.3821     5675.00000
    90.3952     5750.00000
    90.4083     5773.00000
    90.4214     5700.00000
    90.4346     5725.00000
    90.4477     5771.00000
    90.4608     5890.00000
    90.4740     5872.00000
    90.4871     5888.00000
    90.5002     5887.00000
    90.5134     5815.00000
    90.5265     5920.00000
    90.5396     5677.00000
    90.5527     5790.00000
    90.5659     5835.00000
    90.5790     5625.00000
    90.5921     5647.00000
    90.6053     5561.00000
    90.6184     5682.00000
    90.6315     5721.00000
    90.6447     5628.00000
    90.6578     5706.00000
    90.6709     5839.00000
    90.6841     5740.00000
    90.6972     5701.00000
    90.7103     5638.00000
    90.7234     5688.00000
    90.7366     5790.00000
    90.7497     5775.00000
    90.7628     5656.00000
    90.7760     5689.00000
    90.7891     5527.00000
    90.8022     5817.00000
    90.8154     5721.00000
    90.8285     5651.00000
    90.8416     5810.00000
    90.8548     5731.00000
    90.8679     5700.00000
    90.8810     5918.00000
    90.8941     5722.00000
    90.9073     5922.00000
    90.9204     5758.00000
    90.9335     5762.00000
    90.9467     5774.00000
    90.9598     5951.00000
    90.9729     5937.00000
    90.9861     5978.00000
    90.9992     5941.00000
    91.0123     5905.00000
    91.0254     5881.00000
    91.0386     5855.00000
    91.0517     5712.00000
    91.0648     5591.00000
    91.0780     5787.00000
    91.0911     5717.00000
    91.1042     5757.00000
    91.1174     5929.00000
    91.1305     5937.00000
    91.1436     5927.00000
    91.1567     5601.00000
    91.1699     5851.00000
    91.1830     5676.00000
    91.1961     5844.00000
    91.2093     5618.00000
    91.2224     5831.00000
    91.2355     5789.00000
    91.2487     5636.00000
    91.2618     5815.00000
    91.2749     5748.00000
    91.2880     5719.00000
    91.3012     5843.00000
    91.3143     5745.00000
    91.3274     5808.00000
    91.3406     5769.00000
    91.3537     5805.00000
    91.3668     5988.00000
    91.3800     5780.00000
    91.3931     5683.00000
    91.4062     5786.00000
    91.4193     5729.00000
    91.4325     5781.00000
    91.4456     5866.00000
    91.4587     5905.00000
    91.4719     5877.00000
    91.4850     5837.00000
    91.4981     5684.00000
    91.5113     5773.00000
    91.5244     5850.00000
    91.5375     5810.00000
    91.5507     5894.00000
    91.5638     5887.00000
    91.5769     6054.00000
    91.5900     5833.00000
    91.6032     6075.00000
    91.6163     6023.00000
    91.6294     5749.00000
    91.6426     6028.00000
    91.6557     6039.00000
    91.6688     6001.00000
    91.6820     6008.00000
    91.6951     6207.00000
    91.7082     6043.00000
    91.7213     6197.00000
    91.7345     6062.00000
    91.7476     6027.00000
    91.7607     6100.00000
    91.7739     6042.00000
    91.7870     6011.00000
    91.8001     6089.00000
    91.8133     6057.00000
    91.8264     6070.00000
    91.8395     5964.00000
    91.8526     6081.00000
    91.8658     5967.00000
    91.8789     6019.00000
    91.8920     5962.00000
    91.9052     5971.00000
    91.9183     6043.00000
    91.9314     6089.00000
    91.9446     6013.00000
    91.9577     6023.00000
    91.9708     6161.00000
    91.9840     6017.00000
    91.9971     6131.00000
    92.0102     6022.00000
    92.0233     6154.00000
    92.0365     6151.00000
    92.0496     6054.00000
    92.0627     6195.00000
    92.0759     6126.00000
    92.0890     6200.00000
    92.1021     6155.00000
    92.1153     6302.00000
    92.1284     6305.00000
    92.1415     6179.00000
    92.1546     6431.00000
    92.1678     6270.00000
    92.1809     6129.00000
    92.1940     6253.00000
    92.2072     6256.00000
    92.2203     6208.00000
    92.2334     6065.00000
    92.2466     6048.00000
    92.2597     6155.00000
    92.2728     6041.00000
    92.2859     6241.00000
    92.2991     6263.00000
    92.3122     6232.00000
    92.3253     6203.00000
    92.3385     6165.00000
    92.3516     6288.00000
    92.3647     6478.00000
    92.3779     6609.00000
    92.3910     6727.00000
    92.4041     6833.00000
    92.4173     6736.00000
    92.4304     6893.00000
    92.4435     6861.00000
    92.4566     6917.00000
    92.4698     7004.00000
    92.4829     7135.00000
    92.4960     6864.00000
    92.5092     7156.00000
    92.5223     7056.00000
    92.5354     6766.00000
    92.5486     6771.00000
    92.5617     6842.00000
    92.5748     6448.00000
    92.5879     6483.00000
    92.6011     6299.00000
    92.6142     6439.00000
    92.6273     6284.00000
    92.6405     6069.00000
    92.6536     6249.00000
    92.6667     6308.00000
    92.6799     6252.00000
    92.6930     6228.00000
    92.7061     6247.00000
    92.7192     6258.00000
    92.7324     6299.00000
    92.7455     6377.00000
    92.7586     6509.00000
    92.7718     6419.00000
    92.7849     6224.00000
    92.7980     6263.00000
    92.8112     6438.00000
    92.8243     6293.00000
    92.8374     6297.00000
    92.8505     6112.00000
    92.8637     6244.00000
    92.8768     6162.00000
    92.8899     6069.00000
    92.9031     5979.00000
    92.9162     5914.00000
    92.9293     5968.00000
    92.9425     6157.00000
    92.9556     5943.00000
    92.9687     5822.00000
    92.9819     5877.00000
    92.9950     5768.00000
    93.0081     5930.00000
    93.0212     5834.00000
    93.0344     5851.00000
    93.0475     5749.00000
    93.0606     5941.00000
    93.0738     5770.00000
    93.0869     5807.00000
    93.1000     5876.00000
    93.1132     5950.00000
    93.1263     5707.00000
    93.1394     5975.00000
    93.1525     5807.00000
    93.1657     5693.00000
    93.1788     5713.00000
    93.1919     5758.00000
    93.2051     5880.00000
    93.2182     5857.00000
    93.2313     5790.00000
    93.2445     5952.00000
    93.2576     5971.00000
    93.2707     5736.00000
    93.2839     5702.00000
    93.2970     5771.00000
    93.3101     6012.00000
    93.3232     5754.00000
    93.3364     5832.00000
    93.3495     5905.00000
    93.3626     5943.00000
    93.3758     5849.00000
    93.3889     5930.00000
    93.4020     5941.00000
    93.4152     5754.00000
    93.4283     5863.00000
    93.4414     6001.00000
    93.4545     5972.00000
    93.4677     5746.00000
    93.4808     5722.00000
    93.4939     5856.00000
    93.5071     5904.00000
    93.5202     5816.00000
    93.5333     5958.00000
    93.5465     5820.00000
    93.5596     5865.00000
    93.5727     5892.00000
    93.5858     5778.00000
    93.5990     5767.00000
    93.6121     5679.00000
    93.6252     5885.00000
    93.6384     6008.00000
    93.6515     5879.00000
    93.6646     5717.00000
    93.6778     5767.00000
    93.6909     5955.00000
    93.7040     5743.00000
    93.7171     5583.00000
    93.7303     5776.00000
    93.7434     5752.00000
    93.7565     5731.00000
    93.7697     5848.00000
    93.7828     5736.00000
    93.7959     5888.00000
    93.8091     5918.00000
    93.8222     5686.00000
    93.8353     5826.00000
    93.8484     5829.00000
    93.8616     5745.00000
    93.8747     5653.00000
    93.8878     5592.00000
    93.9010     5643.00000
    93.9141     5719.00000
    93.9272     5795.00000
    93.9404     5656.00000
    93.9535     5594.00000
    93.9666     5685.00000
    93.9798     5905.00000
    93.9929     5680.00000
    94.0060     5849.00000
    94.0191     5827.00000
    94.0323     5870.00000
    94.0454     5821.00000
    94.0585     5799.00000
    94.0717     5788.00000
    94.0848     5778.00000
    94.0979     5845.00000
    94.1111     5826.00000
    94.1242     5831.00000
    94.1373     5910.00000
    94.1505     6086.00000
    94.1636     6077.00000
    94.1767     5869.00000
    94.1898     5874.00000
    94.2030     6106.00000
    94.2161     5992.00000
    94.2292     6101.00000
    94.2424     6163.00000
    94.2555     6238.00000
    94.2686     6431.00000
    94.2818     6168.00000
    94.2949     6373.00000
    94.3080     6584.00000
    94.3211     6334.00000
    94.3343     6373.00000
    94.3474     6389.00000
    94.3605     6287.00000
    94.3737     6051.00000
    94.3868     6207.00000
    94.3999     6147.00000
    94.4131     6171.00000
    94.4262     6008.00000
    94.4393     6000.00000
    94.4524     6163.00000
    94.4656     5952.00000
    94.4787     5982.00000
    94.4918     6058.00000
    94.5050     5983.00000
    94.5181     5894.00000
    94.5312     6017.00000
    94.5444     6008.00000
    94.5575     6151.00000
    94.5706     5967.00000
    94.5837     5877.00000
    94.5969     6015.00000
    94.6100     6036.00000
    94.6231     6091.00000
    94.6363     6088.00000
    94.6494     5944.00000
    94.6625     5986.00000
    94.6757     5935.00000
    94.6888     5797.00000
    94.7019     5888.00000
    94.7150     5874.00000
    94.7282     5996.00000
    94.7413     5864.00000
    94.7544     6035.00000
    94.7676     5917.00000
    94.7807     5793.00000
    94.7938     5832.00000
    94.8070     5850.00000
    94.8201     5735.00000
    94.8332     5805.00000
    94.8464     5810.00000
    94.8595     5752.00000
    94.8726     5905.00000
    94.8857     5764.00000
    94.8989     5791.00000
    94.9120     5821.00000
    94.9251     5935.00000
    94.9383     5931.00000
    94.9514     5734.00000
    94.9645     5889.00000
    94.9777     5982.00000
    94.9908     5992.00000
    95.0039     5969.00000
    95.0170     5907.00000
    95.0302     5965.00000
    95.0433     6078.00000
    95.0564     6199.00000
    95.0696     6128.00000
    95.0827     6168.00000
    95.0958     6058.00000
    95.1090     5982.00000
    95.1221     6289.00000
    95.1352     6279.00000
    95.1484     6148.00000
    95.1615     6227.00000
    95.1746     6357.00000
    95.1877     6213.00000
    95.2009     6248.00000
    95.2140     6246.00000
    95.2271     6198.00000
    95.2403     6435.00000
    95.2534     6284.00000
    95.2665     6374.00000
    95.2797     6301.00000
    95.2928     6229.00000
    95.3059     6557.00000
    95.3190     6435.00000
    95.3322     6510.00000
    95.3453     6408.00000
    95.3584     6357.00000
    95.3716     6456.00000
    95.3847     6324.00000
    95.3978     6189.00000
    95.4110     6399.00000
    95.4241     6222.00000
    95.4372     6093.00000
    95.4503     6273.00000
    95.4635     6209.00000
    95.4766     6198.00000
    95.4897     6291.00000
    95.5029     6378.00000
    95.5160     6409.00000
    95.5291     6492.00000
    95.5423     6629.00000
    95.5554     6494.00000
    95.5685     6421.00000
    95.5816     6545.00000
    95.5948     6616.00000
    95.6079     6404.00000
    95.6210     6310.00000
    95.6342     6230.00000
    95.6473     6257.00000
    95.6604     6181.00000
    95.6736     6385.00000
    95.6867     6144.00000
    95.6998     6313.00000
    95.7130     6351.00000
    95.7261     6529.00000
    95.7392     6573.00000
    95.7523     6586.00000
    95.7655     6343.00000
    95.7786     6320.00000
    95.7917     6227.00000
    95.8049     6324.00000
    95.8180     6132.00000
    95.8311     6131.00000
    95.8443     6149.00000
    95.8574     6128.00000
    95.8705     6279.00000
    95.8836     6017.00000
    95.8968     6036.00000
    95.9099     5890.00000
    95.9230     5859.00000
    95.9362     5920.00000
    95.9493     5974.00000
    95.9624     5890.00000
    95.9756     6045.00000
    95.9887     5970.00000
    96.0018     6007.00000
    96.0149     6044.00000
    96.0281     6061.00000
    96.0412     6231.00000
    96.0543     6186.00000
    96.0675     6142.00000
    96.0806     6155.00000
    96.0937     6397.00000
    96.1069     6107.00000
    96.1200     6524.00000
    96.1331     6349.00000
    96.1463     6335.00000
    96.1594     6259.00000
    96.1725     6385.00000
    96.1856     6263.00000
    96.1988     6285.00000
    96.2119     6240.00000
    96.2250     5960.00000
    96.2382     6028.00000
    96.2513     6301.00000
    96.2644     6188.00000
    96.2776     6063.00000
    96.2907     6027.00000
    96.3038     6009.00000
    96.3169     5900.00000
    96.3301     5971.00000
    96.3432     5901.00000
    96.3563     5905.00000
    96.3695     5808.00000
    96.3826     5799.00000
    96.3957     5921.00000
    96.4089     5949.00000
    96.4220     5868.00000
    96.4351     5888.00000
    96.4482     6030.00000
    96.4614     5914.00000
    96.4745     5824.00000
    96.4876     6037.00000
    96.5008     6060.00000
    96.5139     6010.00000
    96.5270     5920.00000
    96.5402     5836.00000
    96.5533     5783.00000
    96.5664     5943.00000
    96.5796     5933.00000
    96.5927     5992.00000
    96.6058     6033.00000
    96.6189     5873.00000
    96.6321     5761.00000
    96.6452     5731.00000
    96.6583     5621.00000
    96.6715     5816.00000
    96.6846     5830.00000
    96.6977     5846.00000
    96.7109     5664.00000
    96.7240     5696.00000
    96.7371     5752.00000
    96.7502     5786.00000
    96.7634     5834.00000
    96.7765     5654.00000
    96.7896     5732.00000
    96.8028     5792.00000
    96.8159     5586.00000
    96.8290     5606.00000
    96.8422     5645.00000
    96.8553     5568.00000
    96.8684     5641.00000
    96.8815     5757.00000
    96.8947     5633.00000
    96.9078     5690.00000
    96.9209     5766.00000
    96.9341     5713.00000
    96.9472     5807.00000
    96.9603     5699.00000
    96.9735     5773.00000
    96.9866     5834.00000
    96.9997     5582.00000
    97.0128     5656.00000
    97.0260     5746.00000
    97.0391     5585.00000
    97.0522     5761.00000
    97.0654     5739.00000
    97.0785     5579.00000
    97.0916     5840.00000
    97.1048     5729.00000
    97.1179     5779.00000
    97.1310     5699.00000
    97.1442     5667.00000
    97.1573     5749.00000
    97.1704     5818.00000
    97.1835     5763.00000
    97.1967     5672.00000
    97.2098     5731.00000
    97.2229     5886.00000
    97.2361     5867.00000
    97.2492     5839.00000
    97.2623     5772.00000
    97.2755     5825.00000
    97.2886     5878.00000
    97.3017     5769.00000
    97.3148     5792.00000
    97.3280     5786.00000
    97.3411     5932.00000
    97.3542     6084.00000
    97.3674     5889.00000
    97.3805     5904.00000
    97.3936     5781.00000
    97.4068     5820.00000
    97.4199     5900.00000
    97.4330     5776.00000
    97.4462     5692.00000
    97.4593     5678.00000
    97.4724     5799.00000
    97.4855     5743.00000
    97.4987     5937.00000
    97.5118     5853.00000
    97.5249     6081.00000
    97.5381     6091.00000
    97.5512     6009.00000
    97.5643     6243.00000
    97.5775     6054.00000
    97.5906     6296.00000
    97.6037     6455.00000
    97.6168     6516.00000
    97.6300     6549.00000
    97.6431     6424.00000
    97.6562     6648.00000
    97.6694     6428.00000
    97.6825     6499.00000
    97.6956     6257.00000
    97.7088     6239.00000
    97.7219     6152.00000
    97.7350     6109.00000
    97.7481     5966.00000
    97.7613     5901.00000
    97.7744     6030.00000
    97.7875     5906.00000
    97.8007     5803.00000
    97.8138     5936.00000
    97.8269     5930.00000
    97.8401     5993.00000
    97.8532     5840.00000
    97.8663     5863.00000
    97.8794     5978.00000
    97.8926     5866.00000
    97.9057     6030.00000
    97.9188     5981.00000
    97.9320     6152.00000
    97.9451     5983.00000
    97.9582     6160.00000
    97.9714     6162.00000
    97.9845     6177.00000
    97.9976     6077.00000
    98.0107     6212.00000
    98.0239     6055.00000
    98.0370     5985.00000
    98.0501     6021.00000
    98.0633     5947.00000
    98.0764     5839.00000
    98.0895     5887.00000
    98.1027     5821.00000
    98.1158     5994.00000
    98.1289     5775.00000
    98.1421     5872.00000
    98.1552     5874.00000
    98.1683     5679.00000
    98.1814     5801.00000
    98.1946     5622.00000
    98.2077     5831.00000
    98.2208     5809.00000
    98.2340     5631.00000
    98.2471     5832.00000
    98.2602     5835.00000
    98.2734     5781.00000
    98.2865     5780.00000
    98.2996     5635.00000
    98.3128     5732.00000
    98.3259     5792.00000
    98.3390     5739.00000
    98.3521     5885.00000
    98.3653     5735.00000
    98.3784     5849.00000
    98.3915     5745.00000
    98.4047     5948.00000
    98.4178     5816.00000
    98.4309     5807.00000
    98.4441     5817.00000
    98.4572     5777.00000
    98.4703     5808.00000
    98.4834     5766.00000
    98.4966     5689.00000
    98.5097     5924.00000
    98.5228     5815.00000
    98.5360     5806.00000
    98.5491     5845.00000
    98.5622     5974.00000
    98.5754     5769.00000
    98.5885     5996.00000
    98.6016     5923.00000
    98.6147     5745.00000
    98.6279     5738.00000
    98.6410     5851.00000
    98.6541     5753.00000
    98.6673     5762.00000
    98.6804     5734.00000
    98.6935     5645.00000
    98.7067     5910.00000
    98.7198     5821.00000
    98.7329     5886.00000
    98.7460     5856.00000
    98.7592     6030.00000
    98.7723     6020.00000
    98.7854     6036.00000
    98.7986     5970.00000
    98.8117     6219.00000
    98.8248     6098.00000
    98.8380     6218.00000
    98.8511     6270.00000
    98.8642     6216.00000
    98.8773     5944.00000
    98.8905     6200.00000
    98.9036     6064.00000
    98.9167     5977.00000
    98.9299     6025.00000
    98.9430     6083.00000
    98.9561     5963.00000
    98.9693     5892.00000
    98.9824     5874.00000
    98.9955     5838.00000
    99.0087     5908.00000
    99.0218     5861.00000
    99.0349     5909.00000
    99.0480     6009.00000
    99.0612     5928.00000
    99.0743     5883.00000
    99.0874     6009.00000
    99.1006     5906.00000
    99.1137     6110.00000
    99.1268     6151.00000
    99.1400     6171.00000
    99.1531     6116.00000
    99.1662     6224.00000
    99.1793     6103.00000
    99.1925     6290.00000
    99.2056     6240.00000
    99.2187     6100.00000
    99.2319     5910.00000
    99.2450     5911.00000
    99.2581     5999.00000
    99.2713     5960.00000
    99.2844     5932.00000
    99.2975     6040.00000
    99.3107     5919.00000
    99.3238     5850.00000
    99.3369     6071.00000
    99.3500     5835.00000
    99.3632     5963.00000
    99.3763     5831.00000
    99.3894     5832.00000
    99.4026     5843.00000
    99.4157     5947.00000
    99.4288     5953.00000
    99.4420     5730.00000
    99.4551     5850.00000
    99.4682     5802.00000
    99.4813     5859.00000
    99.4945     5990.00000
    99.5076     6027.00000
    99.5207     5955.00000
    99.5339     5790.00000
    99.5470     5762.00000
    99.5601     5710.00000
    99.5733     5799.00000
    99.5864     5804.00000
    99.5995     5842.00000
    99.6126     5837.00000
    99.6258     5727.00000
    99.6389     5592.00000
    99.6520     5531.00000
    99.6652     5540.00000
    99.6783     5617.00000
    99.6914     5640.00000
    99.7046     5719.00000
    99.7177     5692.00000
    99.7308     5692.00000
    99.7439     5776.00000
    99.7571     5522.00000
    99.7702     5525.00000
    99.7833     5559.00000
    99.7965     5635.00000
    99.8096     5691.00000
    99.8227     5499.00000
    99.8359     5615.00000
    99.8490     5580.00000
    99.8621     5663.00000
    99.8753     5738.00000
    99.8884     5819.00000
    99.9015     5775.00000
    99.9146     5777.00000
    99.9278     5623.00000
    99.9409     5568.00000
    99.9540     5750.00000
    99.9672     5597.00000
    99.9803     5717.00000
    99.9934     5796.00000
